/*** Spectra Vista SIG Data ***/
name= 26_21220720_CECA_3_avg.sig
comm= Averaged Ref/Tar of files: HR.072122.0000_moc.sig,HR.072122.0001_moc.sig,HR.072122.0002_moc.sig
data=
337.3  3374.50  258.05  7.65
338.8  3511.30  243.71  6.94
340.3  3701.15  243.62  6.58
341.8  3932.35  243.87  6.20
343.2  4129.20  224.96  5.45
344.7  4307.65  227.47  5.28
346.2  4452.65  234.21  5.26
347.7  4679.68  235.95  5.04
349.2  4876.20  221.76  4.55
350.6  5141.50  225.25  4.38
352.1  5465.93  228.64  4.18
353.6  5760.20  235.96  4.10
355.1  5994.15  242.46  4.04
356.6  6325.58  249.09  3.94
358.0  6603.30  238.19  3.61
359.5  6890.70  234.84  3.41
361.0  7241.85  243.39  3.36
362.5  7582.23  253.72  3.35
364.0  7942.98  263.81  3.32
365.4  8317.60  277.25  3.33
366.9  8674.25  279.93  3.23
368.4  9028.03  280.02  3.10
369.9  9404.70  291.87  3.10
371.3  9798.90  309.72  3.16
372.8  10221.75  318.60  3.12
374.3  10642.50  333.25  3.13
375.8  11076.45  334.18  3.02
377.2  11486.30  333.56  2.90
378.7  11862.90  340.73  2.87
380.2  12266.40  347.91  2.84
381.7  12782.83  360.33  2.82
383.1  13259.40  370.11  2.79
384.6  13757.25  377.65  2.75
386.1  14215.15  378.35  2.66
387.6  14660.80  388.08  2.65
389.0  15115.20  400.21  2.65
390.5  15584.85  400.02  2.57
392.0  16134.50  416.15  2.58
393.4  16710.90  427.41  2.56
394.9  17252.10  435.00  2.52
396.4  17802.00  445.05  2.50
397.9  18321.88  454.42  2.48
399.3  18841.80  462.60  2.46
400.8  19416.58  471.91  2.43
402.2  20057.35  481.18  2.40
403.7  20632.28  497.55  2.41
405.2  21236.48  505.07  2.38
406.6  21808.00  522.77  2.40
408.1  22396.60  527.33  2.35
409.6  22981.65  535.58  2.33
411.0  23634.45  540.87  2.29
412.5  24323.60  560.89  2.31
414.0  24959.38  581.37  2.33
415.4  25658.63  593.60  2.31
416.9  26310.38  609.09  2.32
418.4  27004.05  622.50  2.31
419.8  27718.60  640.64  2.31
421.3  28448.70  663.09  2.33
422.7  29214.60  689.04  2.36
424.2  29986.88  708.75  2.36
425.7  30725.50  732.41  2.38
427.1  31475.93  755.38  2.40
428.6  32271.00  787.40  2.44
430.0  32990.45  813.38  2.47
431.5  33849.90  851.72  2.52
432.9  34720.50  880.95  2.54
434.4  35597.63  918.71  2.58
435.9  36428.00  952.00  2.61
437.3  37262.50  984.50  2.64
438.8  38091.45  1017.22  2.67
440.2  38929.28  1051.05  2.70
441.7  39891.80  1088.08  2.73
443.1  40796.75  1127.13  2.76
444.6  41749.70  1166.77  2.79
446.0  42674.78  1204.08  2.82
447.5  43621.88  1240.80  2.84
448.9  44530.80  1279.68  2.87
450.4  45519.25  1319.17  2.90
451.8  46371.00  1357.20  2.93
453.3  47279.20  1398.15  2.96
454.7  48273.20  1436.95  2.98
456.2  49130.88  1470.62  2.99
457.6  50086.58  1504.50  3.00
459.1  51048.08  1535.04  3.01
460.5  51961.88  1563.98  3.01
462.0  53004.48  1603.16  3.02
463.4  54019.10  1640.35  3.04
464.8  54986.63  1672.40  3.04
466.3  55945.73  1697.96  3.04
467.7  56919.30  1734.04  3.05
469.2  57974.93  1764.07  3.04
470.6  58925.70  1798.40  3.05
472.0  59945.43  1831.63  3.06
473.5  60921.13  1864.50  3.06
474.9  61944.75  1903.80  3.07
476.4  63057.60  1939.20  3.08
477.8  64119.00  1977.80  3.08
479.2  65105.00  2008.73  3.09
480.7  66179.70  2047.73  3.09
482.1  67279.20  2092.36  3.11
483.6  68435.20  2130.89  3.11
485.0  69494.48  2167.39  3.12
486.4  70654.80  2215.48  3.14
487.9  71721.00  2258.10  3.15
489.3  72844.58  2308.88  3.17
490.7  73875.33  2363.85  3.20
492.2  75058.20  2418.64  3.22
493.6  76136.05  2476.83  3.25
495.0  77220.00  2538.90  3.29
496.5  78379.18  2606.28  3.33
497.9  79450.45  2680.63  3.37
499.3  80580.43  2768.68  3.44
500.7  81790.95  2857.73  3.49
502.2  82898.80  2964.77  3.58
503.6  84125.20  3085.47  3.67
505.0  85160.45  3211.28  3.77
506.5  86448.53  3358.85  3.89
507.9  87586.10  3524.40  4.02
509.3  88918.40  3717.76  4.18
510.7  90148.50  3933.15  4.36
512.2  91496.48  4180.38  4.57
513.6  92930.60  4461.89  4.80
515.0  94311.75  4773.91  5.06
516.4  95652.90  5116.23  5.35
517.8  97222.38  5508.75  5.67
519.3  98496.85  5917.13  6.01
520.7  100007.90  6371.21  6.37
522.1  101262.85  6829.12  6.74
523.5  102595.90  7311.40  7.13
524.9  104053.05  7802.70  7.50
526.3  105458.15  8284.73  7.86
527.8  106905.15  8763.48  8.20
529.2  107861.10  9194.29  8.52
530.6  109299.80  9662.23  8.84
532.0  110936.00  10102.40  9.11
533.4  112265.25  10469.04  9.33
534.8  113219.23  10773.97  9.52
536.3  114848.70  11109.48  9.67
537.7  116751.60  11455.92  9.81
539.1  118098.15  11721.90  9.93
540.5  119258.85  11947.17  10.02
541.9  120952.80  12227.16  10.11
543.3  122208.85  12460.87  10.20
544.7  123450.60  12688.96  10.28
546.1  125186.33  12966.25  10.36
547.5  126392.00  13184.64  10.43
549.0  128051.00  13442.00  10.50
550.4  129497.50  13665.17  10.55
551.8  130983.63  13857.92  10.58
553.2  132466.85  14014.15  10.58
554.6  133764.80  14106.56  10.55
556.0  135243.45  14175.36  10.48
557.4  136806.25  14204.45  10.38
558.8  138389.85  14190.54  10.25
560.2  139803.13  14125.22  10.10
561.6  141404.70  14048.73  9.94
563.0  142941.85  13928.96  9.74
564.4  144471.70  13785.33  9.54
565.8  145945.00  13602.83  9.32
567.2  147619.00  13405.97  9.08
568.6  149063.63  13164.55  8.83
570.0  150445.30  12891.97  8.57
571.4  152114.30  12636.78  8.31
572.8  153814.25  12388.80  8.05
574.2  155377.60  12142.29  7.81
575.6  156870.00  11913.00  7.59
577.0  158335.60  11705.29  7.39
578.4  160023.50  11538.80  7.21
579.8  161476.20  11381.67  7.05
581.2  163138.05  11260.16  6.90
582.5  164502.00  11130.60  6.77
583.9  165955.20  11030.64  6.65
585.3  167701.28  10959.87  6.54
586.7  169119.60  10889.84  6.44
588.1  170562.38  10834.90  6.35
589.5  172149.25  10809.40  6.28
590.9  173711.60  10796.27  6.22
592.3  175461.55  10809.73  6.16
593.7  176854.28  10814.31  6.11
595.0  178421.40  10839.69  6.08
596.4  179810.75  10862.46  6.04
597.8  181232.58  10888.86  6.01
599.2  182714.40  10910.24  5.97
600.6  184404.68  10930.05  5.93
602.0  185654.33  10906.47  5.87
603.3  187369.40  10886.97  5.81
604.7  188974.83  10839.72  5.74
606.1  190398.60  10765.84  5.65
607.5  191970.05  10670.26  5.56
608.9  193594.95  10571.22  5.46
610.2  194920.43  10442.25  5.36
611.6  196453.05  10319.73  5.25
613.0  197965.00  10201.70  5.15
614.4  199276.80  10072.48  5.05
615.8  200669.63  9956.70  4.96
617.1  202139.70  9862.72  4.88
618.5  203692.40  9793.65  4.81
619.9  205114.28  9731.10  4.74
621.3  206678.25  9698.25  4.69
622.6  208193.00  9682.73  4.65
624.0  209563.80  9667.58  4.61
625.4  210954.15  9676.70  4.59
626.8  212455.43  9703.63  4.57
628.1  213699.48  9730.67  4.55
629.5  215419.90  9785.00  4.54
630.9  216883.98  9834.62  4.53
632.2  218145.73  9861.34  4.52
633.6  219645.25  9882.27  4.50
635.0  221071.60  9877.39  4.47
636.3  222512.60  9851.77  4.43
637.7  223790.00  9792.55  4.38
639.1  225365.00  9716.00  4.31
640.4  226752.58  9615.20  4.24
641.8  227892.63  9485.28  4.16
643.2  229386.15  9363.39  4.08
644.5  230680.00  9232.07  4.00
645.9  232248.60  9114.30  3.92
647.2  233668.75  9008.49  3.86
648.6  235325.25  8918.10  3.79
650.0  236671.20  8830.08  3.73
651.3  237220.23  8749.58  3.69
652.7  238613.60  8706.75  3.65
654.0  240450.00  8692.84  3.62
655.4  241938.83  8627.17  3.57
656.8  242231.70  8504.93  3.51
658.1  243707.20  8417.16  3.45
659.5  245909.48  8358.77  3.40
660.8  247365.00  8271.00  3.34
662.2  248236.80  8144.64  3.28
663.5  249719.10  8050.79  3.22
664.9  250879.20  7973.68  3.18
666.2  251570.40  7897.28  3.14
667.6  253187.83  7864.35  3.11
668.9  254149.58  7856.72  3.09
670.3  255634.38  7867.05  3.08
671.6  256804.88  7894.20  3.07
673.0  257911.13  7953.20  3.08
674.3  259100.40  8017.88  3.09
675.7  260374.63  8114.77  3.12
677.0  261414.73  8216.79  3.14
678.4  262670.15  8351.88  3.18
679.7  263661.28  8498.71  3.22
681.1  264833.78  8682.83  3.28
682.4  265863.00  8890.09  3.34
683.8  267056.40  9146.45  3.42
685.1  268044.38  9437.05  3.52
686.4  269308.20  9803.52  3.64
687.8  270448.75  10270.60  3.80
689.1  271427.75  10852.07  4.00
690.5  272625.30  11604.12  4.26
691.8  273385.90  12583.00  4.60
693.1  274653.90  13876.90  5.05
694.5  275730.00  15494.27  5.62
695.8  276913.00  17478.07  6.31
697.1  278005.00  19847.10  7.14
698.5  278960.30  22600.12  8.10
699.8  279968.23  25734.61  9.19
701.1  281056.63  29238.66  10.40
702.5  281807.35  32992.15  11.71
703.8  282667.50  37011.00  13.09
705.1  283788.38  41247.05  14.53
706.5  284744.25  45618.15  16.02
707.8  285655.35  50102.74  17.54
709.1  286452.08  54651.60  19.08
710.5  287523.68  59313.06  20.63
711.8  288294.40  63980.19  22.19
713.1  289231.00  68710.76  23.76
714.4  290056.10  73435.39  25.32
715.8  290814.30  78139.20  26.87
717.1  292025.10  82945.32  28.40
718.4  292902.40  87616.85  29.91
719.7  293950.53  92267.37  31.39
721.0  294412.50  96672.00  32.84
722.4  295111.85  101042.04  34.24
723.7  296012.85  105355.72  35.59
725.0  296993.03  109567.83  36.89
726.3  297866.25  113580.24  38.13
727.6  298368.40  117299.20  39.31
729.0  299194.18  120976.75  40.43
730.3  299877.60  124408.68  41.49
731.6  300718.50  127710.83  42.47
732.9  301434.53  130783.78  43.39
734.2  302192.00  133698.77  44.24
735.5  303119.63  136520.28  45.04
736.8  303857.70  139068.44  45.77
738.1  304653.30  141478.44  46.44
739.5  305523.65  143763.89  47.05
740.8  306157.78  145789.42  47.62
742.1  306813.60  147688.73  48.14
743.4  307450.00  149450.00  48.61
744.7  308318.23  151197.69  49.04
746.0  309117.90  152782.76  49.43
747.3  309618.25  154106.34  49.77
748.6  310261.75  155399.53  50.09
749.9  310908.00  156578.93  50.36
751.2  311524.95  157656.61  50.61
752.5  312309.45  158747.93  50.83
753.8  312821.78  159624.20  51.03
755.1  313482.00  160478.93  51.19
756.4  314011.78  161225.09  51.34
757.7  314907.78  162106.54  51.48
759.0  316588.20  163339.79  51.59
760.3  317644.80  164208.00  51.70
761.6  319093.60  165228.56  51.78
762.9  319555.50  165703.77  51.85
764.2  319867.90  166069.84  51.92
765.5  320111.13  166351.49  51.97
766.8  320470.40  166681.60  52.01
768.1  320936.20  167045.01  52.05
769.3  321431.25  167418.91  52.09
770.6  322039.90  167811.80  52.11
771.9  322631.93  168227.29  52.14
773.2  322964.80  168453.65  52.16
774.5  323494.60  168785.76  52.18
775.8  324100.90  169149.47  52.19
777.1  324585.25  169454.78  52.21
778.4  324852.00  169633.16  52.22
779.6  325548.20  170023.04  52.23
780.9  325920.00  170252.00  52.24
782.2  326276.50  170497.07  52.26
783.5  326533.00  170653.60  52.26
784.8  327022.43  170914.35  52.26
786.0  327324.20  171100.72  52.27
787.3  327654.75  171286.95  52.28
788.6  327988.45  171502.80  52.29
789.9  328343.40  171707.57  52.30
791.2  328909.78  172022.06  52.30
792.4  329519.18  172349.33  52.30
793.7  329925.20  172580.03  52.31
795.0  330436.43  172877.32  52.32
796.2  330989.98  173183.06  52.32
797.5  331589.03  173518.51  52.33
798.8  332206.98  173842.42  52.33
800.0  332776.40  174155.84  52.33
801.3  333166.90  174372.63  52.34
802.6  333669.15  174656.13  52.34
803.8  334240.43  174955.46  52.34
805.1  334636.75  175182.00  52.35
806.4  335013.30  175392.08  52.35
807.7  335502.00  175640.94  52.35
808.9  335982.70  175913.78  52.36
810.2  336451.85  176155.70  52.36
811.4  336880.10  176397.23  52.36
812.7  337431.25  176675.42  52.36
814.0  338170.70  177082.17  52.36
815.2  338759.50  177376.27  52.36
816.5  339087.78  177571.91  52.37
817.7  339500.55  177804.65  52.37
819.0  339952.80  178034.93  52.37
820.2  340076.00  178112.00  52.37
821.5  340724.15  178445.21  52.37
822.7  341011.30  178600.82  52.37
824.0  341312.40  178746.84  52.37
825.2  341767.35  178965.99  52.36
826.5  341987.35  179115.52  52.37
827.7  342514.30  179376.58  52.37
829.0  342877.83  179548.38  52.37
830.2  343183.00  179668.33  52.35
831.5  343627.80  179891.39  52.35
832.7  343896.53  180030.06  52.35
834.0  344178.15  180182.31  52.35
835.2  344511.48  180356.84  52.35
836.4  344801.05  180493.72  52.35
837.7  345199.80  180695.57  52.35
838.9  345540.55  180903.02  52.35
840.1  345898.35  181072.80  52.35
841.4  346350.30  181306.16  52.35
842.6  346684.40  181476.59  52.35
843.8  347029.20  181675.63  52.35
845.1  347553.60  181935.45  52.35
846.3  347858.80  182143.07  52.36
847.5  348287.10  182342.72  52.35
848.8  348737.40  182557.20  52.35
850.0  349085.80  182737.52  52.35
851.2  349609.50  183006.72  52.35
852.5  349984.90  183212.13  52.35
853.7  350392.50  183448.20  52.36
854.9  350858.80  183669.87  52.35
856.1  351286.65  183898.26  52.35
857.4  351536.98  184013.75  52.35
858.6  352037.20  184247.45  52.34
859.8  352425.00  184454.25  52.34
861.0  352895.40  184672.80  52.33
862.2  353384.90  184908.72  52.33
863.5  353738.13  185097.81  52.33
864.7  354288.00  185352.64  52.32
865.9  354668.80  185555.20  52.32
867.1  354956.05  185711.15  52.32
868.3  355387.80  185917.42  52.31
869.5  355857.60  186139.35  52.31
870.8  356413.50  186405.00  52.30
872.0  356854.88  186662.55  52.31
873.2  357379.95  186882.70  52.29
874.4  357756.75  187086.51  52.29
875.6  358189.75  187237.24  52.27
876.8  358650.55  187473.61  52.27
878.0  359096.70  187697.02  52.27
879.2  359610.15  187924.06  52.26
880.4  360089.25  188178.55  52.26
881.6  360627.80  188399.27  52.24
882.8  360975.20  188593.92  52.25
884.0  361537.20  188837.39  52.23
885.2  362025.60  189046.12  52.22
886.5  362685.70  189321.58  52.20
887.7  363070.83  189532.63  52.20
888.8  363639.60  189839.83  52.21
890.0  364160.55  190101.85  52.20
891.2  364774.10  190348.43  52.18
892.4  365371.13  190594.81  52.16
893.6  365937.30  190850.08  52.15
894.8  366758.00  191251.13  52.15
896.0  367522.75  191645.13  52.15
897.2  368342.00  192042.93  52.14
898.4  368996.10  192324.00  52.12
899.6  369483.38  192570.40  52.12
900.8  369830.90  192702.84  52.11
902.0  370047.00  192795.20  52.10
903.2  370395.83  192914.04  52.08
904.3  370706.70  193027.32  52.07
905.5  371204.78  193281.33  52.07
906.7  371826.00  193509.93  52.04
907.9  372279.95  193728.36  52.04
909.1  372512.25  193830.93  52.03
910.2  372683.48  193885.41  52.02
911.4  372846.83  193958.70  52.02
912.6  373036.95  194010.01  52.01
913.8  373371.75  194071.16  51.98
915.0  373725.45  194222.28  51.97
916.2  373785.75  194231.70  51.96
917.3  373862.25  194168.55  51.94
918.5  373907.40  194247.97  51.95
919.7  374128.20  194273.04  51.93
920.8  374199.33  194234.24  51.91
922.0  374335.50  194201.70  51.88
923.2  374419.50  194212.20  51.87
924.4  374719.50  194241.60  51.84
925.5  374881.60  194268.73  51.82
926.7  375442.88  194484.25  51.80
927.9  376249.20  194747.28  51.76
929.0  377586.90  195317.10  51.73
930.2  379602.90  196290.77  51.71
931.4  381836.70  197333.37  51.68
932.5  384330.25  198505.40  51.65
933.7  385566.50  199007.55  51.61
934.9  386071.88  199149.42  51.58
936.0  385693.75  198788.20  51.54
937.2  383678.55  197635.54  51.51
938.3  382104.90  196635.26  51.46
939.5  380700.00  195708.00  51.41
940.7  380758.50  195668.04  51.39
941.8  382251.08  196265.49  51.34
943.0  383415.75  196720.90  51.31
944.2  384112.95  196921.05  51.27
945.3  383652.75  196488.50  51.22
946.5  382993.65  195906.60  51.15
947.6  383116.30  195734.48  51.09
948.8  383005.35  195318.50  51.00
949.9  383153.40  195110.16  50.92
951.1  382802.23  194616.20  50.84
952.2  382500.00  194180.80  50.77
953.4  382169.00  193709.67  50.69
954.5  381817.80  193386.96  50.65
955.7  381918.60  192979.92  50.53
956.8  381760.80  192507.39  50.43
958.0  381423.00  192025.73  50.34
959.1  381023.80  191625.48  50.29
960.3  380608.63  191155.22  50.22
961.4  380440.10  190892.43  50.18
962.6  380483.25  190809.03  50.15
963.7  380499.08  190503.04  50.07
964.9  380553.90  190310.42  50.01
966.0  380104.65  190103.76  50.01
967.2  379847.70  190011.90  50.02
968.3  379618.65  189764.10  49.99
969.5  379103.70  189626.40  50.02
970.6  379384.65  189557.59  49.96
971.8  379670.90  189555.99  49.93
972.9  379665.60  189416.50  49.89
974.0  379347.60  189413.08  49.93
975.2  378989.88  189301.63  49.95
976.3  378960.93  189253.40  49.94
977.5  378553.18  189087.50  49.95
978.6  378894.70  189060.59  49.90
979.7  378854.70  189030.94  49.90
980.9  378326.08  188907.51  49.93
982.0  377720.65  188972.31  50.03
983.2  377573.58  188701.63  49.98
984.3  376853.40  188444.83  50.00
985.4  377230.90  188461.16  49.96
986.6  377072.75  188495.43  49.99
987.7  376986.05  189058.29  50.15
988.9  377101.80  188803.68  50.07
990.0  377676.30  189007.95  50.04
993.1  356394.56  176100.71  49.41
996.9  355775.90  176402.42  49.58
1000.7  356027.35  177085.82  49.74
1004.5  356210.50  177661.04  49.88
1008.4  355654.79  177905.34  50.02
1012.2  355368.00  178212.82  50.15
1016.0  354955.20  178459.97  50.28
1019.8  354486.83  178661.18  50.40
1023.7  353654.28  178634.79  50.51
1027.5  352481.98  178422.19  50.62
1031.3  351934.23  178436.06  50.70
1035.1  351292.03  178355.51  50.77
1038.9  350974.25  178377.34  50.82
1042.7  350651.08  178398.18  50.88
1046.5  350488.00  178419.31  50.91
1050.3  350404.18  178490.21  50.94
1054.2  349976.67  178380.33  50.97
1058.0  349504.17  178164.64  50.98
1061.8  349342.93  178150.50  51.00
1065.6  348897.23  177934.63  51.00
1069.4  348375.20  177689.41  51.01
1073.2  347447.38  177187.36  51.00
1077.0  346728.70  176765.76  50.98
1080.8  346489.58  176485.71  50.94
1084.6  346011.05  176059.57  50.88
1088.4  345816.69  175818.52  50.84
1092.2  345208.50  175337.03  50.79
1096.0  344619.80  174844.11  50.74
1099.8  344006.00  174318.27  50.67
1103.6  343204.17  173687.32  50.61
1107.4  342176.98  172906.66  50.53
1111.2  341818.00  172440.41  50.45
1114.9  341145.58  171753.67  50.35
1118.7  340639.20  171062.45  50.22
1122.5  340024.53  170227.20  50.06
1126.3  339040.68  169078.58  49.87
1130.1  338578.69  167956.57  49.61
1133.9  337062.60  166000.50  49.25
1137.7  335642.00  163808.13  48.80
1141.4  333795.80  161153.62  48.28
1145.2  332975.13  158794.66  47.69
1149.0  331811.67  156421.25  47.14
1152.8  330197.50  154079.31  46.66
1156.6  328565.42  152169.42  46.31
1160.3  326967.00  150654.62  46.08
1164.1  324750.90  149197.71  45.94
1167.9  323150.00  148219.94  45.87
1171.7  321914.25  147544.88  45.83
1175.4  320638.30  146906.92  45.82
1179.2  319446.73  146285.78  45.79
1183.0  319097.67  146019.95  45.76
1186.7  318786.30  145739.63  45.72
1190.5  318148.40  145316.95  45.68
1194.3  317215.07  144800.69  45.65
1198.0  315943.65  144231.17  45.65
1201.8  314358.90  143577.57  45.67
1205.6  313202.67  143185.38  45.72
1209.3  312504.57  143061.15  45.78
1213.1  311903.25  142977.59  45.84
1216.8  311222.45  142923.26  45.92
1220.6  310217.60  142733.07  46.01
1224.3  309082.50  142476.90  46.10
1228.1  307742.20  142141.03  46.19
1231.9  306416.65  141757.99  46.26
1235.6  304908.53  141265.49  46.33
1239.4  303531.63  140826.29  46.40
1243.1  302285.43  140391.47  46.44
1246.9  301090.28  139940.69  46.48
1250.6  300114.33  139549.51  46.50
1254.3  299006.86  139099.47  46.52
1258.1  297897.83  138612.97  46.53
1261.8  296549.07  137984.17  46.53
1265.6  295261.22  137316.93  46.51
1269.3  294224.20  136703.23  46.46
1273.1  294399.32  136603.54  46.40
1276.8  294363.60  136403.49  46.34
1280.6  293634.37  135869.05  46.27
1284.3  291952.80  134833.77  46.18
1288.0  290595.90  133866.14  46.07
1291.8  289783.82  133026.21  45.91
1295.5  288899.60  132088.21  45.72
1299.2  287797.66  131000.58  45.52
1302.9  286334.88  129656.20  45.28
1306.7  284746.35  128165.45  45.01
1310.4  283235.98  126570.65  44.69
1314.1  281843.10  124917.96  44.32
1317.9  280593.75  123183.15  43.90
1321.6  279192.45  121251.20  43.43
1325.3  277612.65  119105.18  42.90
1329.0  276353.23  117022.30  42.35
1332.8  274489.60  114560.60  41.74
1336.5  272830.60  112179.47  41.12
1340.2  272514.67  110350.50  40.49
1343.9  272122.71  108509.29  39.88
1347.6  271518.30  106620.45  39.27
1351.4  271777.00  105125.43  38.68
1355.1  272164.20  103710.88  38.11
1358.8  272560.00  102221.71  37.50
1362.5  272192.90  100319.66  36.86
1366.2  270770.90  97739.80  36.10
1369.9  268779.63  94628.61  35.21
1373.6  266591.73  90934.05  34.11
1377.3  264782.70  86661.81  32.73
1381.0  263856.17  81782.55  31.00
1384.8  262291.25  75813.21  28.90
1388.4  259920.97  69207.83  26.63
1392.2  258089.25  62504.43  24.22
1395.9  256656.40  55998.22  21.82
1399.6  255162.32  49997.62  19.59
1403.3  254087.37  44843.71  17.65
1407.0  252974.10  40553.10  16.03
1410.7  251834.55  37136.32  14.75
1414.3  250575.44  34509.99  13.77
1418.1  249391.79  32593.09  13.07
1421.7  248412.27  31209.34  12.56
1425.4  247378.63  30240.14  12.22
1429.1  246399.75  29588.09  12.01
1432.8  244961.68  29123.95  11.89
1436.5  244223.59  28906.64  11.84
1440.2  243587.20  28829.47  11.84
1443.9  242553.03  28783.52  11.87
1447.6  241164.00  28771.60  11.93
1451.2  240134.22  28829.06  12.01
1454.9  238900.35  28921.35  12.11
1458.6  237814.48  29111.83  12.24
1462.3  236699.83  29418.09  12.43
1466.0  235417.49  29850.74  12.68
1469.7  233830.46  30399.97  13.00
1473.3  232868.50  31156.36  13.38
1477.0  231068.80  31908.66  13.81
1480.7  229586.72  32772.83  14.27
1484.4  227802.98  33619.42  14.76
1488.0  226365.33  34554.67  15.26
1491.7  224915.95  35468.17  15.77
1495.4  223353.95  36383.35  16.29
1499.0  221908.00  37289.86  16.80
1502.7  220733.58  38249.48  17.33
1506.4  219424.05  39159.28  17.85
1510.0  218129.10  40046.06  18.36
1513.7  216790.29  40892.55  18.86
1517.4  215544.67  41728.43  19.36
1521.0  214399.47  42563.58  19.85
1524.7  213249.83  43344.48  20.33
1528.3  212058.63  44086.14  20.79
1532.0  210917.12  44800.25  21.24
1535.7  209607.51  45426.82  21.67
1539.3  208424.83  46059.08  22.10
1543.0  207505.44  46717.79  22.51
1546.6  206856.00  47400.48  22.91
1550.3  205944.90  47976.74  23.30
1553.9  204956.83  48497.20  23.66
1557.6  203775.00  48943.82  24.02
1561.2  202581.90  49329.19  24.35
1564.9  201375.44  49692.02  24.68
1568.5  200156.02  50009.75  24.99
1572.2  199074.45  50339.14  25.29
1575.8  198058.00  50662.00  25.58
1579.5  197113.20  50969.98  25.86
1583.1  196149.23  51258.17  26.13
1586.8  194950.00  51456.00  26.39
1590.4  193856.47  51668.73  26.65
1594.0  192609.30  51803.64  26.90
1597.7  191712.47  52018.19  27.13
1601.3  190724.63  52194.38  27.37
1604.9  189716.11  52332.43  27.58
1608.6  188509.32  52385.56  27.79
1612.2  187402.05  52439.48  27.98
1615.8  186202.90  52442.19  28.16
1619.5  185091.67  52441.98  28.33
1623.1  183871.17  52380.99  28.49
1626.7  182709.15  52312.42  28.63
1630.3  181598.58  52219.31  28.76
1634.0  180586.00  52118.00  28.86
1637.6  179645.40  51994.42  28.94
1641.2  178687.90  51794.32  28.99
1644.8  177553.38  51479.29  28.99
1648.5  176526.31  51148.72  28.98
1652.1  175629.60  50814.39  28.93
1655.7  174773.60  50493.17  28.89
1659.3  174020.08  50241.86  28.87
1662.9  172691.67  49882.86  28.89
1666.6  171360.13  49554.86  28.92
1670.2  170049.60  49228.27  28.95
1673.8  168697.53  48862.90  28.96
1677.4  167616.50  48540.74  28.96
1681.0  166887.28  48257.14  28.92
1684.6  166521.33  48028.19  28.84
1688.2  165894.60  47651.14  28.72
1691.8  165259.52  47263.47  28.60
1695.4  164847.80  46902.60  28.45
1699.0  164508.87  46538.93  28.29
1702.6  164202.67  46157.43  28.11
1706.2  163635.44  45682.65  27.92
1709.8  162757.58  45134.33  27.73
1713.4  162094.07  44647.24  27.54
1717.0  161291.25  44134.11  27.36
1720.6  160530.38  43630.58  27.18
1724.2  159876.60  43154.57  26.99
1727.8  159183.85  42686.10  26.82
1731.4  158752.00  42272.22  26.63
1735.0  158557.67  41934.96  26.45
1738.6  158347.05  41556.09  26.24
1742.2  157812.80  41054.99  26.01
1745.8  157210.78  40513.83  25.77
1749.4  156326.78  39881.68  25.51
1753.0  154929.47  39128.47  25.26
1756.6  153408.50  38360.96  25.01
1760.1  152183.28  37698.54  24.77
1763.7  150573.33  36953.33  24.54
1767.3  149246.13  36309.44  24.33
1770.9  148076.78  35726.89  24.13
1774.5  146732.67  35132.69  23.94
1778.0  145657.70  34637.00  23.78
1781.6  144621.90  34195.72  23.64
1785.2  143548.85  33776.20  23.53
1788.8  142468.50  33399.04  23.44
1792.3  141304.40  33036.75  23.38
1795.9  140772.78  32853.40  23.34
1799.5  140342.00  32709.76  23.31
1803.1  140472.38  32689.18  23.27
1806.6  141776.19  32925.98  23.22
1810.2  143187.33  33200.27  23.19
1813.8  143873.90  33319.45  23.16
1817.3  143527.40  33210.95  23.14
1820.9  142355.18  32904.10  23.11
1824.5  140974.65  32528.73  23.07
1828.0  139828.33  32179.13  23.01
1831.6  138938.00  31849.08  22.92
1835.2  138280.83  31504.64  22.78
1838.7  137892.27  31134.55  22.58
1842.3  137640.00  30713.57  22.31
1845.8  136875.71  30063.42  21.96
1849.4  136334.75  29320.71  21.51
1852.9  135730.35  28396.29  20.92
1856.5  134928.73  27221.05  20.17
1860.0  134150.20  25833.17  19.26
1863.6  133832.28  24325.36  18.18
1867.1  133649.95  22606.15  16.91
1870.7  133787.93  20622.46  15.41
1874.2  133245.90  18283.95  13.72
1877.8  131888.93  15841.76  12.01
1881.3  130170.13  13439.27  10.32
1884.9  128854.18  11312.11  8.78
1888.4  127602.18  9445.96  7.40
1891.9  126208.27  7940.09  6.29
1895.5  124781.02  6817.96  5.46
1899.0  123778.00  6058.84  4.89
1901.3  157828.25  4636.54  2.94
1904.1  157533.19  4168.31  2.65
1906.8  156594.60  3799.95  2.43
1909.6  154858.99  3510.06  2.27
1912.4  153170.06  3331.36  2.17
1915.1  151861.88  3194.95  2.10
1917.9  150459.50  3102.79  2.06
1920.6  149270.58  3032.93  2.03
1923.3  148081.15  2990.28  2.02
1926.1  146661.35  2949.88  2.01
1928.8  145310.00  2937.00  2.02
1931.6  144246.00  2939.50  2.04
1934.3  143209.41  2953.71  2.06
1937.0  142184.98  2969.65  2.09
1939.8  141058.94  2994.29  2.12
1942.5  139738.50  3027.75  2.17
1945.2  138088.91  3059.24  2.22
1947.9  136736.78  3100.30  2.27
1950.7  135666.33  3157.08  2.33
1953.4  134053.35  3204.03  2.39
1956.1  132810.31  3267.58  2.46
1958.8  131707.39  3340.03  2.54
1961.5  130396.20  3417.80  2.62
1964.2  129033.45  3494.40  2.71
1966.9  127611.79  3579.28  2.80
1969.6  126501.75  3674.25  2.90
1972.3  125236.35  3766.93  3.01
1975.0  124267.28  3878.51  3.12
1977.7  123263.61  3993.95  3.24
1980.4  122235.83  4111.57  3.36
1983.1  121237.94  4236.30  3.49
1985.8  120399.30  4365.23  3.63
1988.4  119470.00  4502.33  3.77
1991.1  118622.00  4640.42  3.91
1993.8  117830.76  4786.56  4.06
1996.5  117255.60  4937.35  4.21
1999.1  116628.74  5090.30  4.36
2001.8  116006.10  5246.91  4.52
2004.5  115386.68  5406.25  4.69
2007.1  114724.95  5557.63  4.84
2009.8  114044.18  5700.16  5.00
2012.4  113539.66  5859.34  5.16
2015.1  113066.45  6013.12  5.32
2017.8  112354.20  6153.41  5.48
2020.4  111891.73  6300.94  5.63
2023.1  111564.25  6453.42  5.78
2025.7  111345.00  6606.17  5.93
2028.3  111052.50  6751.33  6.08
2031.0  110712.50  6881.54  6.22
2033.6  110448.68  7018.73  6.35
2036.2  110194.20  7147.05  6.49
2038.9  109665.68  7242.75  6.60
2041.5  109359.30  7359.05  6.73
2044.1  108863.10  7449.38  6.84
2046.8  108523.80  7551.60  6.96
2049.4  107936.55  7621.20  7.06
2052.0  107662.35  7715.90  7.17
2054.6  107303.44  7796.25  7.27
2057.2  106804.30  7875.28  7.37
2059.8  106516.10  7975.72  7.49
2062.4  105717.91  8032.41  7.60
2065.0  105245.40  8108.90  7.70
2067.6  104443.10  8158.80  7.81
2070.2  103893.95  8230.71  7.92
2072.8  103312.11  8298.27  8.03
2075.4  102900.00  8373.75  8.14
2078.0  102317.05  8425.41  8.23
2080.6  101811.60  8481.00  8.33
2083.2  101195.83  8532.16  8.43
2085.8  100749.23  8587.91  8.52
2088.4  100143.50  8630.17  8.62
2090.9  99412.33  8662.38  8.71
2093.5  98625.00  8685.58  8.81
2096.1  97916.60  8704.28  8.89
2098.7  97198.56  8717.46  8.97
2101.2  96330.85  8718.05  9.05
2103.8  95734.80  8746.43  9.14
2106.4  95125.65  8757.35  9.21
2108.9  94529.60  8772.63  9.28
2111.5  93750.15  8777.00  9.36
2114.0  93173.75  8787.92  9.43
2116.6  92715.00  8798.13  9.49
2119.1  92214.38  8808.31  9.55
2121.7  91770.00  8817.81  9.61
2124.2  91405.65  8838.99  9.67
2126.8  90690.11  8818.47  9.72
2129.3  90321.00  8833.00  9.78
2131.9  89773.20  8833.00  9.84
2134.4  89393.85  8841.15  9.89
2136.9  89037.65  8852.24  9.94
2139.4  88578.00  8866.67  10.01
2142.0  88172.35  8884.40  10.08
2144.5  87923.10  8915.58  10.14
2147.0  87709.70  8953.43  10.21
2149.5  87274.20  8971.30  10.28
2152.1  87115.88  9014.78  10.35
2154.6  87033.20  9055.33  10.40
2157.1  86559.63  9060.63  10.47
2159.6  86205.38  9078.79  10.53
2162.1  86049.60  9111.38  10.59
2164.6  85830.50  9133.33  10.64
2167.1  85535.86  9148.90  10.70
2169.6  85224.21  9156.76  10.74
2172.1  84803.55  9164.08  10.81
2174.6  84525.90  9178.63  10.86
2177.1  84148.78  9188.18  10.92
2179.5  83773.14  9197.88  10.98
2182.0  83329.54  9195.73  11.04
2184.5  82838.41  9183.94  11.09
2187.0  82282.25  9178.64  11.16
2189.5  81658.61  9158.53  11.22
2191.9  80954.25  9129.50  11.28
2194.4  80384.74  9117.86  11.34
2196.9  79704.00  9088.80  11.40
2199.3  79104.75  9052.83  11.44
2201.8  78285.20  8998.47  11.49
2204.3  77851.08  8982.25  11.54
2206.7  77273.25  8953.65  11.59
2209.2  76852.80  8954.30  11.65
2211.6  76277.03  8917.43  11.69
2214.1  75998.10  8907.74  11.72
2216.5  75475.95  8867.98  11.75
2219.0  75163.05  8845.63  11.77
2221.4  74813.81  8818.40  11.79
2223.9  74367.56  8766.33  11.79
2226.3  73906.44  8704.35  11.78
2228.7  73398.58  8628.15  11.76
2231.1  72831.83  8528.85  11.71
2233.6  72279.90  8438.37  11.67
2236.0  71779.31  8332.48  11.61
2238.4  71325.63  8225.87  11.53
2240.9  70909.10  8118.02  11.45
2243.3  70417.40  7991.37  11.35
2245.7  69901.24  7853.04  11.23
2248.1  69450.23  7729.15  11.13
2250.5  68982.34  7594.82  11.01
2252.9  68396.25  7445.10  10.89
2255.3  67878.90  7298.33  10.75
2257.7  67462.50  7167.50  10.62
2260.1  67017.65  7030.86  10.49
2262.5  66465.00  6887.50  10.36
2264.9  65987.34  6768.70  10.26
2267.3  65437.50  6650.00  10.16
2269.7  64978.38  6529.19  10.05
2272.1  64472.28  6410.67  9.94
2274.5  63958.23  6292.00  9.84
2276.8  63533.21  6192.81  9.75
2279.2  62998.43  6087.79  9.66
2281.6  62604.60  5997.22  9.58
2284.0  62175.60  5890.83  9.47
2286.3  61750.00  5788.67  9.37
2288.7  61374.95  5679.75  9.25
2291.1  60862.75  5574.61  9.16
2293.4  60460.40  5474.70  9.06
2295.8  59899.65  5363.73  8.95
2298.2  59352.08  5247.45  8.84
2300.5  58738.84  5123.25  8.72
2302.9  58063.00  5001.33  8.61
2305.2  57396.75  4892.50  8.52
2307.6  56785.51  4786.94  8.43
2309.9  56055.75  4675.83  8.34
2312.2  55490.00  4590.58  8.27
2314.6  54935.21  4510.01  8.21
2316.9  54283.16  4411.69  8.13
2319.2  53740.80  4322.90  8.04
2321.6  53157.48  4233.81  7.96
2323.9  52648.44  4151.04  7.88
2326.2  52145.80  4071.61  7.81
2328.6  51656.96  3986.68  7.72
2330.9  51195.38  3908.63  7.63
2333.2  50760.31  3828.52  7.54
2335.5  50348.85  3747.68  7.44
2337.8  49924.14  3671.73  7.35
2340.1  49398.45  3596.24  7.28
2342.4  48993.75  3528.96  7.20
2344.8  48609.19  3452.40  7.10
2347.1  48075.13  3380.48  7.03
2349.4  47558.95  3313.26  6.97
2351.6  47021.89  3249.92  6.91
2353.9  46579.98  3180.36  6.83
2356.2  46098.04  3115.45  6.76
2358.5  45544.80  3040.80  6.68
2360.8  44998.80  2976.40  6.61
2363.1  44594.66  2913.53  6.53
2365.4  44188.65  2850.43  6.45
2367.7  43733.25  2790.15  6.38
2369.9  43220.89  2733.69  6.32
2372.2  42664.60  2660.27  6.24
2374.5  42143.06  2578.54  6.12
2376.7  41541.20  2515.01  6.05
2379.0  40972.60  2448.82  5.98
2381.3  40416.25  2388.75  5.91
2383.5  39934.40  2320.27  5.81
2385.8  39359.50  2253.32  5.72
2388.0  38878.05  2194.80  5.65
2390.3  38403.50  2136.00  5.56
2392.5  37962.00  2073.00  5.46
2394.8  37525.13  2029.78  5.41
2397.0  37082.50  1968.63  5.31
2399.3  36650.51  1918.88  5.24
2401.5  36253.88  1865.06  5.14
2403.8  35749.13  1813.63  5.07
2406.0  35285.06  1760.06  4.99
2408.2  34903.55  1707.93  4.89
2410.4  34510.18  1660.28  4.81
2412.7  34118.50  1611.68  4.72
2414.9  33813.45  1562.27  4.62
2417.1  33423.23  1511.30  4.52
2419.3  33033.60  1481.60  4.49
2421.6  32685.63  1440.21  4.41
2423.8  32335.63  1403.64  4.34
2426.0  31987.69  1366.50  4.27
2428.2  31644.20  1323.00  4.18
2430.4  31372.93  1280.33  4.08
2432.6  31130.00  1246.67  4.00
2434.8  30846.93  1209.68  3.92
2437.0  30486.95  1175.42  3.86
2439.2  30159.06  1138.78  3.78
2441.4  29857.00  1104.30  3.70
2443.6  29626.39  1084.61  3.66
2445.7  29373.66  1055.13  3.59
2447.9  29131.06  1026.36  3.52
2450.1  28851.68  994.04  3.45
2452.3  28501.55  963.46  3.38
2454.5  28178.74  943.19  3.35
2456.6  27852.10  916.63  3.29
2458.8  27498.90  883.03  3.21
2461.0  27204.25  857.79  3.15
2463.1  26932.05  843.90  3.13
2465.3  26691.20  830.44  3.11
2467.5  26472.56  800.19  3.02
2469.6  26223.50  779.39  2.97
2471.8  25926.28  758.34  2.92
2473.9  25634.13  731.54  2.85
2476.1  25320.75  709.04  2.80
2478.2  24975.05  696.93  2.79
2480.4  24682.80  679.24  2.75
2482.5  24363.03  669.65  2.75
2484.6  24076.25  650.61  2.70
2486.8  23820.83  635.85  2.67
2488.9  23532.95  631.33  2.68
2491.1  23193.10  622.77  2.69
2493.2  22824.35  602.75  2.64
2495.3  22450.68  581.21  2.59
2497.4  22157.63  575.58  2.60
2499.5  21847.50  562.37  2.57
2501.7  21741.30  554.63  2.55
2503.8  21652.26  555.83  2.57
2505.9  21601.88  550.94  2.55
2508.0  21598.05  556.16  2.58
2510.1  21580.71  536.50  2.49
2512.2  21675.94  541.33  2.50
2514.3  21826.09  541.02  2.48
2516.4  22014.75  576.23  2.62
