/*** Spectra Vista SIG Data ***/
name= 29_20220721_ACSA_2_avg.sig
comm= Averaged Ref/Tar of files: HR.072122.0009_moc.sig,HR.072122.0010_moc.sig,HR.072122.0011_moc.sig
data=
337.3  3407.58  271.28  7.96
338.8  3495.27  269.36  7.71
340.3  3685.53  287.35  7.80
341.8  3840.90  280.45  7.30
343.2  4055.20  266.40  6.57
344.7  4236.57  255.90  6.04
346.2  4439.03  245.10  5.52
347.7  4614.13  241.19  5.23
349.2  4813.20  257.04  5.34
350.6  5043.57  259.52  5.15
352.1  5358.75  261.98  4.89
353.6  5621.40  259.09  4.61
355.1  5926.80  260.42  4.39
356.6  6227.25  266.57  4.28
358.0  6486.33  280.72  4.33
359.5  6777.40  284.28  4.19
361.0  7082.25  287.28  4.06
362.5  7455.37  292.75  3.93
364.0  7818.72  302.04  3.86
365.4  8167.73  310.97  3.81
366.9  8508.50  320.45  3.77
368.4  8855.28  334.57  3.78
369.9  9206.52  353.13  3.84
371.3  9612.00  363.12  3.78
372.8  10000.50  378.78  3.79
374.3  10409.58  372.67  3.58
375.8  10851.87  380.89  3.51
377.2  11262.13  383.77  3.41
378.7  11656.67  390.95  3.35
380.2  12033.27  408.88  3.40
381.7  12539.60  414.38  3.30
383.1  13007.87  424.01  3.26
384.6  13487.50  435.20  3.23
386.1  13962.92  446.81  3.20
387.6  14391.30  456.35  3.17
389.0  14847.20  471.68  3.18
390.5  15328.20  477.90  3.12
392.0  15870.00  486.68  3.07
393.4  16413.12  500.98  3.05
394.9  16947.60  511.56  3.02
396.4  17474.25  527.85  3.02
397.9  18005.83  546.67  3.04
399.3  18554.78  557.15  3.00
400.8  19075.93  568.29  2.98
402.2  19705.47  579.38  2.94
403.7  20287.20  590.64  2.91
405.2  20865.57  609.24  2.92
406.6  21436.80  624.85  2.91
408.1  22027.47  632.80  2.87
409.6  22637.77  652.65  2.88
411.0  23285.73  674.66  2.90
412.5  23907.10  691.39  2.89
414.0  24545.08  703.62  2.87
415.4  25228.00  723.45  2.87
416.9  25879.90  745.30  2.88
418.4  26568.30  764.43  2.88
419.8  27263.60  783.81  2.87
421.3  27961.48  810.44  2.90
422.7  28733.20  844.48  2.94
424.2  29486.25  866.25  2.94
425.7  30220.20  895.41  2.96
427.1  30964.25  917.85  2.96
428.6  31733.67  944.47  2.98
430.0  32444.15  971.20  2.99
431.5  33292.70  1004.95  3.02
432.9  34154.03  1035.27  3.03
434.4  35000.75  1065.78  3.05
435.9  35812.00  1092.00  3.05
437.3  36630.00  1122.00  3.06
438.8  37430.80  1151.16  3.08
440.2  38269.00  1176.82  3.08
441.7  39208.40  1211.36  3.09
443.1  40094.50  1243.73  3.10
444.6  41029.20  1278.56  3.12
446.0  41935.20  1313.07  3.13
447.5  42859.30  1344.20  3.14
448.9  43748.20  1370.84  3.13
450.4  44712.03  1405.51  3.14
451.8  45552.00  1438.67  3.16
453.3  46451.12  1471.37  3.17
454.7  47430.00  1508.98  3.18
456.2  48280.07  1537.63  3.18
457.6  49214.85  1568.22  3.19
459.1  50155.30  1600.78  3.19
460.5  51047.92  1628.18  3.19
462.0  52062.23  1666.28  3.20
463.4  53064.67  1698.80  3.20
464.8  54038.50  1731.60  3.20
466.3  54996.70  1759.67  3.20
467.7  55971.58  1792.22  3.20
469.2  56994.37  1822.24  3.20
470.6  57923.47  1856.47  3.21
472.0  58908.57  1891.68  3.21
473.5  59880.58  1926.65  3.22
474.9  60866.50  1958.90  3.22
476.4  61996.80  1996.80  3.22
477.8  63046.00  2031.93  3.22
479.2  64032.00  2064.80  3.22
480.7  65098.90  2101.77  3.23
482.1  66190.63  2146.31  3.24
483.6  67337.00  2180.99  3.24
485.0  68370.25  2219.50  3.25
486.4  69529.60  2262.04  3.25
487.9  70580.25  2310.75  3.27
489.3  71710.75  2356.00  3.29
490.7  72761.13  2399.19  3.30
492.2  73950.80  2448.04  3.31
493.6  75008.00  2498.31  3.33
495.0  76069.50  2560.35  3.37
496.5  77200.28  2619.98  3.39
497.9  78276.45  2682.59  3.43
499.3  79401.53  2747.16  3.46
500.7  80614.07  2822.57  3.50
502.2  81701.60  2900.53  3.55
503.6  82898.80  2995.92  3.61
505.0  83915.20  3090.17  3.68
506.5  85172.95  3205.19  3.76
507.9  86350.68  3328.71  3.85
509.3  87704.80  3475.04  3.96
510.7  88920.00  3628.95  4.08
512.2  90266.10  3807.89  4.22
513.6  91667.80  4014.17  4.38
515.0  93022.02  4246.64  4.57
516.4  94348.80  4501.98  4.77
517.8  95889.92  4798.73  5.00
519.3  97145.65  5104.53  5.25
520.7  98640.37  5453.27  5.53
522.1  99883.98  5815.46  5.82
523.5  101201.27  6199.40  6.13
524.9  102597.60  6593.70  6.43
526.3  103941.83  6991.32  6.73
527.8  105365.70  7385.40  7.01
529.2  106455.53  7761.91  7.29
530.6  107922.23  8159.43  7.56
532.0  109545.33  8543.73  7.80
533.4  110835.35  8870.81  8.00
534.8  111777.70  9135.83  8.17
536.3  113425.40  9442.80  8.33
537.7  115340.40  9755.76  8.46
539.1  116709.53  10002.97  8.57
540.5  117873.10  10223.22  8.67
541.9  119555.50  10476.61  8.76
543.3  120812.13  10695.30  8.85
544.7  122056.00  10906.00  8.94
546.1  123769.43  11159.24  9.02
547.5  124984.53  11358.29  9.09
549.0  126720.00  11595.47  9.15
550.4  128144.58  11793.75  9.20
551.8  129597.83  11969.03  9.24
553.2  131077.17  12116.08  9.24
554.6  132371.20  12206.83  9.22
556.0  133832.40  12279.24  9.18
557.4  135353.87  12315.66  9.10
558.8  136916.70  12323.40  9.00
560.2  138298.75  12278.47  8.88
561.6  139882.65  12222.27  8.74
563.0  141391.55  12123.07  8.57
564.4  142896.23  12001.68  8.40
565.8  144344.17  11850.42  8.21
567.2  145992.17  11690.27  8.01
568.6  147428.75  11491.25  7.79
570.0  148791.73  11279.37  7.58
571.4  150449.43  11079.47  7.36
572.8  152115.83  10887.67  7.16
574.2  153664.00  10699.73  6.96
575.6  155130.00  10527.00  6.79
577.0  156572.80  10374.91  6.63
578.4  158226.25  10252.67  6.48
579.8  159655.50  10137.78  6.35
581.2  161293.77  10053.27  6.23
582.5  162637.80  9962.16  6.13
583.9  164090.80  9893.12  6.03
585.3  165805.20  9845.28  5.94
586.7  167195.60  9794.76  5.86
588.1  168618.33  9758.20  5.79
589.5  170185.17  9744.47  5.73
590.9  171731.73  9741.44  5.67
592.3  173466.10  9760.55  5.63
593.7  174830.50  9773.27  5.59
595.0  176395.05  9803.43  5.56
596.4  177777.60  9821.28  5.52
597.8  179171.08  9841.12  5.49
599.2  180655.20  9863.04  5.46
600.6  182321.53  9885.37  5.42
602.0  183555.55  9873.64  5.38
603.3  185246.57  9875.24  5.33
604.7  186836.97  9853.29  5.27
606.1  188250.40  9814.56  5.21
607.5  189807.03  9767.92  5.15
608.9  191407.83  9705.74  5.07
610.2  192723.30  9633.33  5.00
611.6  194247.00  9565.28  4.92
613.0  195720.43  9494.61  4.85
614.4  197036.10  9424.52  4.78
615.8  198402.75  9361.95  4.72
617.1  199861.20  9313.92  4.66
618.5  201398.40  9278.61  4.61
619.9  202830.75  9255.49  4.56
621.3  204366.75  9246.00  4.52
622.6  205864.83  9251.67  4.49
624.0  207215.40  9261.76  4.47
625.4  208582.00  9285.87  4.45
626.8  210082.60  9325.68  4.44
628.1  211336.03  9356.42  4.43
629.5  213117.42  9417.05  4.42
630.9  214664.08  9470.05  4.41
632.2  215989.90  9501.47  4.40
633.6  217544.58  9528.35  4.38
635.0  219013.33  9535.68  4.35
636.3  220448.13  9515.00  4.32
637.7  221739.75  9472.85  4.27
639.1  223288.33  9419.67  4.22
640.4  224684.60  9348.90  4.16
641.8  225830.87  9254.74  4.10
643.2  227343.32  9166.31  4.03
644.5  228623.83  9076.33  3.97
645.9  230219.10  9013.44  3.92
647.2  231952.00  8972.88  3.87
648.6  233725.50  8947.80  3.83
650.0  235080.00  8916.48  3.79
651.3  235477.92  8865.23  3.76
652.7  236431.53  8848.13  3.74
654.0  238327.93  8854.67  3.72
655.4  239835.93  8836.70  3.68
656.8  240196.27  8768.25  3.65
658.1  241497.73  8719.83  3.61
659.5  243719.70  8719.97  3.58
660.8  245370.00  8697.00  3.54
662.2  246250.67  8637.44  3.51
663.5  247740.37  8606.01  3.47
664.9  249022.80  8580.69  3.45
666.2  249720.40  8554.40  3.43
667.6  251334.85  8572.80  3.41
668.9  252445.18  8601.55  3.41
670.3  253583.33  8633.77  3.40
671.6  255027.50  8702.50  3.41
673.0  256133.75  8776.25  3.43
674.3  257332.40  8866.52  3.45
675.7  258586.55  8980.11  3.47
677.0  259660.07  9094.86  3.50
678.4  260937.52  9241.69  3.54
679.7  261980.03  9385.59  3.58
681.1  263237.02  9571.72  3.64
682.4  264345.47  9774.09  3.70
683.8  265553.60  10006.88  3.77
685.1  266488.25  10266.00  3.85
686.4  267761.60  10576.08  3.95
687.8  268987.67  10961.83  4.08
689.1  269996.33  11442.43  4.24
690.5  271269.40  12066.02  4.45
691.8  272037.40  12858.70  4.73
693.1  273294.90  13937.30  5.10
694.5  274425.67  15318.33  5.58
695.8  275593.50  17065.53  6.19
697.1  276746.17  19219.20  6.94
698.5  277757.20  21801.08  7.85
699.8  278781.57  24815.52  8.90
701.1  279885.08  28243.98  10.09
702.5  280597.17  31972.89  11.39
703.8  281535.00  35994.00  12.78
705.1  282644.70  40242.41  14.24
706.5  283655.33  44621.72  15.73
707.8  284590.00  49101.46  17.25
709.1  285432.57  53606.79  18.78
710.5  286519.05  58190.86  20.31
711.8  287342.93  62737.33  21.83
713.1  288294.40  67328.16  23.35
714.4  289156.67  71883.31  24.86
715.8  289959.47  76399.80  26.35
717.1  291205.60  81002.36  27.82
718.4  292096.00  85454.51  29.26
719.7  293148.92  89894.01  30.66
721.0  293670.00  94089.00  32.04
722.4  294412.80  98260.87  33.38
723.7  295356.00  102381.02  34.66
725.0  296364.30  106419.66  35.91
726.3  297272.80  110281.27  37.10
727.6  297790.17  113869.36  38.24
729.0  298682.18  117443.25  39.32
730.3  299401.75  120798.36  40.35
731.6  300286.37  124046.96  41.31
732.9  301054.37  127103.22  42.22
734.2  301849.17  129999.28  43.07
735.5  302813.80  132828.42  43.86
736.8  303565.40  135402.84  44.60
738.1  304342.60  137836.08  45.29
739.5  305249.67  140169.87  45.92
740.8  305921.18  142258.49  46.50
742.1  306664.95  144256.57  47.04
743.4  307400.00  146126.67  47.54
744.7  308376.97  147978.65  47.99
746.0  309236.20  149652.88  48.39
747.3  309754.38  151053.55  48.77
748.6  310442.00  152426.27  49.10
749.9  311185.33  153718.93  49.40
751.2  311952.07  154923.06  49.66
752.5  312858.60  156129.45  49.90
753.8  313473.65  157110.57  50.12
755.1  314149.33  158052.27  50.31
756.4  314695.78  158863.10  50.48
757.7  315629.18  159791.08  50.63
759.0  317339.98  161066.96  50.76
760.3  318472.00  161993.92  50.87
761.6  319998.00  163079.28  50.96
762.9  320500.67  163620.83  51.05
764.2  320917.00  164043.37  51.12
765.5  321201.13  164398.48  51.18
766.8  321630.93  164792.11  51.24
768.1  322132.67  165203.73  51.28
769.3  322712.37  165619.81  51.32
770.6  323325.60  166049.09  51.36
771.9  324050.07  166521.76  51.39
773.2  324441.60  166806.45  51.41
774.5  325067.60  167195.60  51.43
775.8  325716.50  167606.96  51.46
777.1  326285.67  167954.53  51.47
778.4  326617.50  168181.53  51.49
779.6  327371.33  168612.09  51.50
780.9  327840.00  168892.00  51.52
782.2  328313.33  169170.10  51.53
783.5  328607.00  169380.73  51.55
784.8  329108.25  169681.35  51.56
786.0  329504.70  169912.87  51.57
787.3  329899.97  170141.26  51.57
788.6  330301.07  170399.54  51.59
789.9  330801.33  170660.00  51.59
791.2  331418.05  171014.41  51.60
792.4  332058.25  171377.67  51.61
793.7  332530.40  171635.92  51.62
795.0  333131.15  171975.32  51.62
796.2  333785.02  172338.85  51.63
797.5  334494.35  172708.26  51.63
798.8  335154.13  173081.56  51.64
800.0  335820.67  173442.34  51.65
801.3  336283.53  173693.95  51.65
802.6  336847.65  174005.76  51.66
803.8  337474.65  174365.62  51.67
805.1  337972.83  174650.23  51.68
806.4  338429.60  174889.16  51.68
807.7  338990.40  175184.37  51.68
808.9  339566.10  175487.93  51.68
810.2  340050.90  175754.93  51.68
811.4  340529.20  176028.31  51.69
812.7  341141.67  176355.83  51.70
814.0  341929.07  176796.86  51.71
815.2  342600.50  177125.77  51.70
816.5  343019.35  177357.72  51.70
817.7  343485.60  177621.82  51.71
819.0  343950.20  177907.47  51.72
820.2  344109.33  178018.13  51.73
821.5  344817.07  178385.68  51.73
822.7  345206.78  178594.78  51.74
824.0  345565.80  178777.44  51.73
825.2  346052.25  179028.09  51.73
826.5  346305.13  179216.37  51.75
827.7  346868.57  179511.05  51.75
829.0  347246.83  179736.78  51.76
830.2  347567.57  179912.29  51.76
831.5  348041.00  180158.86  51.76
832.7  348360.95  180335.61  51.77
834.0  348695.47  180506.46  51.77
835.2  349011.12  180707.01  51.78
836.4  349300.23  180884.95  51.78
837.7  349734.53  181121.95  51.79
838.9  350166.85  181380.33  51.80
840.1  350567.10  181610.64  51.80
841.4  350997.13  181859.99  51.81
842.6  351346.93  182046.88  51.81
843.8  351678.13  182261.63  51.83
845.1  352143.33  182528.95  51.83
846.3  352506.53  182760.09  51.85
847.5  352895.20  182992.32  51.85
848.8  353331.20  183224.64  51.86
850.0  353680.13  183414.14  51.86
851.2  354262.50  183708.90  51.86
852.5  354593.07  183915.15  51.87
853.7  355003.50  184179.00  51.88
854.9  355441.73  184427.81  51.89
856.1  355906.20  184657.03  51.88
857.4  356126.47  184773.39  51.88
858.6  356613.87  185016.33  51.88
859.8  356957.50  185222.00  51.89
861.0  357458.40  185487.12  51.89
862.2  357838.93  185733.19  51.90
863.5  358215.22  185921.41  51.90
864.7  358740.80  186165.76  51.89
865.9  359170.67  186367.49  51.89
867.1  359479.20  186541.63  51.89
868.3  359978.60  186765.72  51.88
869.5  360396.60  187037.06  51.90
870.8  360927.00  187302.60  51.89
872.0  361417.05  187549.21  51.89
873.2  361782.40  187757.98  51.90
874.4  362232.00  187960.50  51.89
875.6  362603.97  188130.72  51.88
876.8  363140.07  188376.89  51.87
878.0  363614.67  188622.39  51.87
879.2  364155.90  188849.74  51.86
880.4  364605.00  189115.15  51.87
881.6  365025.70  189335.23  51.87
882.8  365454.93  189506.99  51.86
884.0  366096.82  189807.03  51.85
885.2  366644.47  190051.75  51.84
886.5  367246.67  190352.24  51.83
887.7  367722.12  190564.92  51.82
888.8  368385.90  190886.45  51.82
890.0  368937.13  191149.62  51.81
891.2  369490.33  191410.36  51.80
892.4  370154.05  191747.78  51.80
893.6  370690.57  192019.13  51.80
894.8  371580.33  192424.13  51.79
896.0  372452.17  192836.13  51.77
897.2  373245.17  193225.07  51.77
898.4  374008.80  193565.24  51.75
899.6  374573.25  193830.75  51.75
900.8  375031.87  194010.11  51.73
902.0  375251.90  194164.16  51.74
903.2  375641.20  194274.22  51.72
904.3  375954.80  194436.60  51.72
905.5  376607.23  194726.95  51.71
906.7  377274.00  195008.13  51.69
907.9  377768.77  195279.05  51.69
909.1  378195.30  195450.21  51.68
910.2  378328.40  195495.99  51.67
911.4  378643.20  195589.68  51.66
912.6  378911.87  195695.50  51.65
913.8  379204.40  195845.60  51.65
915.0  379681.40  196004.90  51.62
916.2  379912.00  196124.50  51.62
917.3  380029.05  196104.24  51.60
918.5  380325.67  196208.15  51.59
919.7  380530.30  196342.76  51.60
920.8  380717.55  196344.90  51.57
922.0  380893.33  196321.77  51.54
923.2  381199.00  196414.40  51.53
924.4  381453.75  196455.60  51.50
925.5  381709.53  196588.36  51.50
926.7  382229.42  196857.17  51.50
927.9  383190.00  197253.68  51.48
929.0  384552.00  197828.46  51.44
930.2  386657.60  198832.47  51.42
931.4  388987.20  199927.98  51.40
932.5  391792.47  201156.31  51.34
933.7  393107.88  201811.67  51.34
934.9  393680.00  202084.75  51.33
936.0  393352.92  201829.98  51.31
937.2  391565.00  200768.06  51.27
938.3  390016.67  199866.83  51.25
939.5  388821.60  198956.64  51.17
940.7  389067.00  198991.44  51.15
941.8  390613.00  199680.43  51.12
943.0  391840.50  200282.00  51.11
944.2  392697.50  200598.41  51.08
945.3  392359.50  200242.90  51.04
946.5  391688.10  199759.68  51.00
947.6  392079.20  199675.61  50.93
948.8  392059.85  199457.70  50.87
949.9  392168.00  199374.00  50.84
951.1  391959.53  199027.75  50.78
952.2  391816.00  198668.80  50.70
953.4  391702.50  198296.80  50.62
954.5  391575.60  198132.48  50.60
955.7  391700.40  197863.68  50.51
956.8  391638.93  197504.56  50.43
958.0  391316.67  197164.53  50.38
959.1  391106.18  196922.49  50.35
960.3  390957.50  196674.62  50.31
961.4  390916.67  196459.08  50.26
962.6  391272.00  196467.13  50.21
963.7  391048.05  196260.00  50.19
964.9  390929.60  196067.26  50.15
966.0  390906.00  195967.35  50.13
967.2  390942.00  195999.30  50.14
968.3  390744.00  195914.70  50.14
969.5  390659.47  195739.78  50.10
970.6  390741.17  195755.55  50.10
971.8  391049.05  195744.10  50.06
972.9  390905.70  195702.63  50.06
974.0  391297.27  195757.27  50.03
975.2  391156.67  195714.78  50.03
976.3  391031.27  195659.04  50.04
977.5  391032.95  195642.53  50.03
978.6  391031.07  195568.88  50.01
979.7  391313.30  195600.02  49.99
980.9  391102.28  195581.20  50.01
982.0  391639.20  195563.63  49.93
983.2  391368.55  195377.72  49.92
984.3  391173.47  195405.47  49.95
985.4  390730.98  195404.06  50.01
986.6  390992.92  195619.28  50.03
987.7  392204.63  196102.32  50.00
988.9  392038.80  195789.60  49.94
990.0  392958.00  196187.92  49.93
993.1  342466.13  170513.60  49.79
996.9  342950.78  171123.81  49.90
1000.7  343857.09  171969.09  50.01
1004.5  344290.75  172527.89  50.11
1008.4  344120.04  172791.15  50.21
1012.2  344167.83  173114.44  50.30
1016.0  344268.00  173429.23  50.38
1019.8  344380.58  173746.65  50.45
1023.7  344282.68  173919.18  50.52
1027.5  343941.75  173952.15  50.58
1031.3  344073.80  174169.95  50.62
1035.1  343920.85  174215.53  50.66
1038.9  343853.03  174270.57  50.68
1042.7  343616.67  174272.00  50.72
1046.5  343475.67  174265.21  50.74
1050.3  343535.36  174317.60  50.74
1054.2  343236.83  174228.67  50.76
1058.0  342757.22  173996.63  50.76
1061.8  342654.79  173955.95  50.77
1065.6  342380.00  173794.32  50.76
1069.4  342291.33  173719.29  50.75
1073.2  341871.61  173441.93  50.73
1077.0  341414.28  173119.86  50.71
1080.8  340961.46  172778.72  50.67
1084.6  339997.93  172187.52  50.64
1088.4  339419.88  171813.03  50.62
1092.2  338685.75  171296.36  50.58
1096.0  338148.07  170873.57  50.53
1099.8  337676.52  170450.03  50.48
1103.6  337040.50  169937.09  50.42
1107.4  336153.42  169274.28  50.36
1111.2  335834.80  168910.64  50.30
1114.9  335141.33  168307.00  50.22
1118.7  334486.35  167663.22  50.13
1122.5  333791.47  166937.95  50.01
1126.3  332749.32  165944.32  49.87
1130.1  332297.48  165064.80  49.67
1133.9  330846.60  163454.90  49.41
1137.7  329551.10  161726.43  49.07
1141.4  327914.49  159635.51  48.68
1145.2  327236.78  157853.18  48.24
1149.0  326208.75  155999.79  47.82
1152.8  324722.85  154100.35  47.46
1156.6  323225.47  152496.85  47.18
1160.3  321686.67  151162.14  46.99
1164.1  319468.03  149751.61  46.88
1167.9  317831.25  148791.52  46.81
1171.7  316645.88  148128.75  46.78
1175.4  315576.70  147563.04  46.76
1179.2  314597.75  147011.95  46.73
1183.0  314340.67  146800.95  46.70
1186.7  313860.87  146466.83  46.67
1190.5  312913.40  145948.48  46.64
1194.3  311825.27  145379.82  46.62
1198.0  310716.73  144850.71  46.62
1201.8  309335.83  144237.23  46.63
1205.6  308177.67  143801.14  46.66
1209.3  307308.63  143576.97  46.72
1213.1  306462.83  143349.16  46.78
1216.8  305554.70  143145.17  46.85
1220.6  304529.87  142873.87  46.92
1224.3  303358.75  142537.16  46.99
1228.1  302213.20  142207.54  47.06
1231.9  301051.60  141834.09  47.11
1235.6  299694.00  141346.17  47.16
1239.4  298447.00  140916.75  47.22
1243.1  297301.29  140480.80  47.25
1246.9  296196.72  140021.26  47.27
1250.6  295272.33  139634.06  47.29
1254.3  294283.18  139200.56  47.30
1258.1  293370.35  138771.52  47.30
1261.8  292182.40  138196.26  47.30
1265.6  290879.47  137525.58  47.28
1269.3  289569.83  136819.28  47.25
1273.1  289549.68  136679.47  47.20
1276.8  289738.80  136612.00  47.15
1280.6  289526.33  136334.33  47.09
1284.3  288197.20  135501.49  47.02
1288.0  286860.32  134617.89  46.93
1291.8  285707.16  133750.13  46.81
1295.5  284462.93  132811.90  46.69
1299.2  283295.60  131845.99  46.54
1302.9  281933.33  130708.64  46.36
1306.7  280479.27  129459.98  46.16
1310.4  279106.55  128131.30  45.91
1314.1  277810.68  126787.44  45.64
1317.9  276670.00  125388.36  45.32
1321.6  275333.77  123809.91  44.97
1325.3  273836.85  122021.85  44.56
1329.0  272608.82  120308.22  44.13
1332.8  270670.40  118184.00  43.66
1336.5  268968.13  116146.62  43.18
1340.2  268541.00  114657.83  42.70
1343.9  267925.21  113086.99  42.21
1347.6  266914.20  111356.98  41.72
1351.4  266538.00  109945.93  41.25
1355.1  266157.10  108573.77  40.79
1358.8  265824.00  107161.14  40.31
1362.5  265172.95  105493.35  39.78
1366.2  263810.25  103320.78  39.16
1369.9  262445.50  100847.07  38.43
1373.6  260711.03  97826.49  37.52
1377.3  258820.20  94164.34  36.38
1381.0  257567.33  89949.02  34.92
1384.8  255840.00  84715.89  33.11
1388.4  253943.20  78932.55  31.08
1392.2  252347.50  72850.61  28.87
1395.9  250919.45  66705.21  26.58
1399.6  249550.85  60869.84  24.39
1403.3  248587.71  55707.96  22.41
1407.0  247746.00  51303.11  20.71
1410.7  246849.90  47716.94  19.33
1414.3  245942.26  44931.36  18.27
1418.1  245048.96  42884.39  17.50
1421.7  244362.07  41426.89  16.95
1425.4  243590.43  40415.47  16.59
1429.1  242848.13  39766.34  16.37
1432.8  241541.03  39304.46  16.27
1436.5  240852.19  39130.09  16.25
1440.2  240131.40  39094.57  16.28
1443.9  239005.43  39085.48  16.35
1447.6  237575.80  39096.20  16.46
1451.2  236649.60  39213.35  16.57
1454.9  235537.05  39342.39  16.70
1458.6  234569.78  39587.60  16.88
1462.3  233497.73  39934.98  17.10
1466.0  232242.02  40407.97  17.40
1469.7  230698.87  41007.53  17.78
1473.3  229753.50  41851.19  18.22
1477.0  228041.63  42665.12  18.71
1480.7  226623.64  43584.79  19.23
1484.4  224884.13  44454.55  19.77
1488.0  223520.00  45422.67  20.32
1491.7  222070.58  46349.39  20.87
1495.4  220515.08  47258.43  21.43
1499.0  219066.00  48144.14  21.98
1502.7  217907.92  49084.63  22.53
1506.4  216638.53  49950.59  23.06
1510.0  215356.33  50790.27  23.58
1513.7  214032.00  51578.63  24.10
1517.4  212821.33  52349.43  24.60
1521.0  211703.07  53108.69  25.09
1524.7  210574.00  53796.32  25.55
1528.3  209389.00  54447.84  26.00
1532.0  208277.30  55063.07  26.44
1535.7  206983.36  55582.80  26.85
1539.3  205848.01  56101.38  27.25
1543.0  204955.93  56659.71  27.64
1546.6  204306.92  57246.74  28.02
1550.3  203401.85  57717.40  28.38
1553.9  202416.80  58134.09  28.72
1557.6  201267.00  58462.27  29.05
1561.2  200098.80  58729.50  29.35
1564.9  198922.52  58969.19  29.64
1568.5  197712.55  59160.85  29.92
1572.2  196671.90  59379.32  30.19
1575.8  195678.00  59594.00  30.46
1579.5  194772.55  59796.39  30.70
1583.1  193840.44  59982.67  30.94
1586.8  192710.00  60072.00  31.17
1590.4  191737.43  60194.98  31.39
1594.0  190523.13  60223.35  31.61
1597.7  189486.93  60300.90  31.82
1601.3  188329.05  60316.65  32.03
1604.9  187165.52  60298.24  32.22
1608.6  185950.37  60236.21  32.39
1612.2  184975.73  60217.34  32.55
1615.8  183911.00  60144.41  32.70
1619.5  182865.00  60062.34  32.85
1623.1  181678.40  59909.02  32.98
1626.7  180557.00  59747.12  33.09
1630.3  179441.50  59565.32  33.19
1634.0  178430.00  59394.00  33.29
1637.6  177507.27  59204.59  33.35
1641.2  176566.35  58963.83  33.39
1644.8  175451.23  58606.02  33.40
1648.5  174440.74  58244.88  33.39
1652.1  173528.70  57874.46  33.35
1655.7  172672.00  57503.91  33.30
1659.3  171896.33  57175.40  33.26
1662.9  170580.83  56692.98  33.24
1666.6  169236.07  56228.48  33.22
1670.2  167940.85  55771.42  33.21
1673.8  166612.77  55275.08  33.18
1677.4  165537.10  54831.13  33.12
1681.0  164832.33  54444.11  33.03
1684.6  164451.08  54114.20  32.91
1688.2  163857.00  53630.52  32.73
1691.8  163223.12  53144.39  32.56
1695.4  162845.60  52732.72  32.38
1699.0  162530.43  52344.10  32.21
1702.6  162239.00  51950.14  32.02
1706.2  161690.32  51443.93  31.82
1709.8  160865.73  50849.11  31.61
1713.4  160209.59  50334.05  31.42
1717.0  159418.00  49821.29  31.25
1720.6  158698.28  49356.94  31.10
1724.2  158055.75  48928.41  30.96
1727.8  157377.85  48504.00  30.82
1731.4  156937.00  48147.19  30.68
1735.0  156731.67  47862.94  30.54
1738.6  156493.05  47524.20  30.37
1742.2  155920.78  47052.28  30.18
1745.8  155277.41  46538.90  29.97
1749.4  154367.40  45918.79  29.75
1753.0  152972.27  45146.52  29.51
1756.6  151445.29  44354.38  29.29
1760.1  150244.73  43682.54  29.07
1763.7  148656.67  42918.00  28.87
1767.3  147349.25  42260.21  28.68
1770.9  146203.34  41662.31  28.50
1774.5  144883.35  41033.61  28.32
1778.0  143819.51  40518.35  28.17
1781.6  142803.90  40060.93  28.05
1785.2  141730.83  39629.51  27.96
1788.8  140641.40  39240.58  27.90
1792.3  139491.63  38853.70  27.85
1795.9  138975.74  38664.99  27.82
1799.5  138446.33  38486.28  27.80
1803.1  137803.52  38292.92  27.79
1806.6  138163.20  38365.82  27.77
1810.2  139073.90  38594.70  27.75
1813.8  139727.60  38747.20  27.73
1817.3  139587.80  38676.23  27.71
1820.9  138721.87  38392.49  27.68
1824.5  137509.78  37994.08  27.63
1828.0  136571.88  37645.80  27.56
1831.6  135656.00  37276.10  27.48
1835.2  134838.33  36879.88  27.35
1838.7  134433.33  36507.73  27.16
1842.3  134130.00  36096.43  26.91
1845.8  133557.42  35491.96  26.57
1849.4  133131.43  34794.43  26.14
1852.9  132647.73  33924.69  25.58
1856.5  131931.03  32788.21  24.85
1860.0  131282.92  31441.17  23.95
1863.6  130903.35  29940.73  22.87
1867.1  130442.90  28172.55  21.60
1870.7  130174.95  26076.59  20.03
1874.2  129721.95  23592.28  18.19
1877.8  129008.13  20957.03  16.24
1881.3  128009.63  18249.84  14.26
1884.9  127190.80  15710.96  12.35
1888.4  126256.03  13340.87  10.57
1891.9  125257.27  11330.49  9.05
1895.5  124077.83  9734.39  7.85
1899.0  123330.25  8599.64  6.97
1901.3  150079.00  6987.34  4.66
1904.1  149889.94  6321.00  4.22
1906.8  149192.10  5816.25  3.90
1909.6  147739.46  5423.52  3.67
1912.4  146334.65  5125.17  3.50
1915.1  145329.53  4950.14  3.41
1917.9  144188.00  4802.50  3.33
1920.6  143279.65  4708.10  3.29
1923.3  142378.08  4642.81  3.26
1926.1  141302.53  4607.74  3.26
1928.8  140327.00  4612.67  3.29
1931.6  139541.43  4638.95  3.32
1934.3  138798.33  4686.98  3.38
1937.0  138047.05  4734.30  3.43
1939.8  137193.00  4804.19  3.50
1942.5  136125.00  4870.25  3.58
1945.2  134742.30  4942.85  3.67
1947.9  133598.85  5029.21  3.76
1950.7  132685.05  5132.38  3.87
1953.4  131188.35  5231.01  3.99
1956.1  130020.63  5348.67  4.11
1958.8  128989.25  5475.87  4.25
1961.5  127719.00  5607.40  4.39
1964.2  126419.48  5744.38  4.54
1966.9  125039.33  5889.29  4.71
1969.6  123963.75  6048.00  4.88
1972.3  122739.90  6207.75  5.06
1975.0  121804.76  6391.91  5.25
1977.7  120810.38  6577.23  5.44
1980.4  119809.65  6759.10  5.64
1983.1  118845.21  6949.36  5.85
1985.8  118024.20  7151.40  6.06
1988.4  117104.00  7358.00  6.28
1991.1  116278.05  7562.80  6.50
1993.8  115497.80  7776.54  6.73
1996.5  114929.10  8004.88  6.97
1999.1  114328.09  8224.61  7.19
2001.8  113701.00  8441.24  7.42
2004.5  113083.61  8658.65  7.66
2007.1  112441.35  8868.41  7.89
2009.8  111790.88  9071.48  8.11
2012.4  111271.33  9282.31  8.34
2015.1  110780.78  9485.88  8.56
2017.8  110068.53  9669.34  8.78
2020.4  109616.93  9861.78  9.00
2023.1  109304.48  10055.68  9.20
2025.7  109070.00  10252.67  9.40
2028.3  108764.50  10432.50  9.59
2031.0  108426.61  10602.35  9.78
2033.6  108184.50  10764.08  9.95
2036.2  107949.60  10909.80  10.11
2038.9  107421.08  11025.08  10.26
2041.5  107123.48  11157.34  10.42
2044.1  106625.03  11255.63  10.56
2046.8  106305.30  11366.55  10.69
2049.4  105731.10  11451.38  10.83
2052.0  105448.45  11556.38  10.96
2054.6  105085.31  11646.25  11.08
2057.2  104590.40  11728.87  11.21
2059.8  104315.30  11833.67  11.34
2062.4  103547.46  11885.18  11.48
2065.0  103083.90  11975.58  11.62
2067.6  102292.26  12015.92  11.75
2070.2  101762.73  12087.84  11.88
2072.8  101187.43  12153.22  12.01
2075.4  100793.44  12234.69  12.14
2078.0  100215.64  12290.08  12.26
2080.6  99706.20  12344.20  12.38
2083.2  99098.40  12389.49  12.50
2085.8  98667.58  12445.99  12.61
2088.4  98063.25  12479.29  12.73
2090.9  97342.61  12491.01  12.83
2093.5  96560.45  12490.31  12.94
2096.1  95874.48  12500.88  13.04
2098.7  95182.79  12507.47  13.14
2101.2  94326.55  12486.48  13.24
2103.8  93723.95  12503.95  13.34
2106.4  93121.35  12510.50  13.43
2108.9  92544.95  12512.68  13.52
2111.5  91778.60  12493.03  13.61
2114.0  91202.20  12495.22  13.70
2116.6  90746.25  12508.12  13.78
2119.1  90261.60  12512.23  13.86
2121.7  89814.38  12512.50  13.93
2124.2  89452.88  12527.57  14.00
2126.8  88746.80  12489.90  14.07
2129.3  88400.40  12496.00  14.14
2131.9  87865.80  12476.20  14.20
2134.4  87488.89  12474.08  14.26
2136.9  87138.84  12476.64  14.32
2139.4  86676.10  12457.67  14.37
2142.0  86270.45  12451.02  14.43
2144.5  86020.73  12471.13  14.50
2147.0  85813.60  12495.50  14.56
2149.5  85378.10  12479.87  14.62
2152.1  85236.11  12509.29  14.68
2154.6  85163.20  12539.20  14.72
2157.1  84672.56  12519.10  14.79
2159.6  84304.69  12510.02  14.84
2162.1  84152.25  12523.88  14.88
2164.6  83946.75  12524.08  14.92
2167.1  83669.35  12521.48  14.97
2169.6  83378.58  12516.24  15.01
2172.1  82954.58  12495.01  15.06
2174.6  82670.25  12491.47  15.11
2177.1  82282.83  12476.80  15.16
2179.5  81914.46  12465.70  15.22
2182.0  81471.23  12451.86  15.28
2184.5  80980.51  12428.22  15.35
2187.0  80428.60  12388.33  15.40
2189.5  79816.48  12340.19  15.46
2191.9  79137.38  12285.88  15.52
2194.4  78586.95  12250.26  15.59
2196.9  77904.00  12192.00  15.65
2199.3  77314.00  12131.67  15.69
2201.8  76525.90  12047.43  15.74
2204.3  76113.53  12013.15  15.78
2206.7  75544.58  11957.90  15.83
2209.2  75125.69  11921.77  15.87
2211.6  74561.85  11862.68  15.91
2214.1  74289.19  11833.04  15.93
2216.5  73784.80  11761.07  15.94
2219.0  73486.80  11718.85  15.95
2221.4  73147.81  11669.44  15.95
2223.9  72709.00  11597.54  15.95
2226.3  72233.00  11508.29  15.93
2228.7  71738.18  11407.84  15.90
2231.1  71220.60  11281.05  15.84
2233.6  70700.50  11150.17  15.77
2236.0  70195.13  11007.50  15.68
2238.4  69756.31  10868.67  15.58
2240.9  69352.05  10730.48  15.47
2243.3  68867.80  10571.55  15.35
2245.7  68356.50  10402.73  15.22
2248.1  67925.33  10243.24  15.08
2250.5  67492.33  10070.69  14.92
2252.9  66923.68  9871.98  14.75
2255.3  66423.71  9693.79  14.59
2257.7  66007.50  9522.50  14.43
2260.1  65572.85  9353.58  14.26
2262.5  65032.50  9167.50  14.10
2264.9  64557.23  8999.98  13.94
2267.3  64020.00  8822.50  13.78
2269.7  63586.25  8673.82  13.64
2272.1  63082.46  8521.68  13.51
2274.5  62588.01  8376.02  13.38
2276.8  62158.43  8241.22  13.26
2279.2  61626.60  8097.79  13.14
2281.6  61245.60  7970.28  13.01
2284.0  60842.40  7840.13  12.89
2286.3  60427.60  7724.13  12.78
2288.7  60061.30  7606.95  12.67
2291.1  59581.03  7470.34  12.54
2293.4  59197.60  7348.37  12.41
2295.8  58640.48  7212.58  12.30
2298.2  58086.79  7076.81  12.18
2300.5  57504.60  6931.92  12.05
2302.9  56830.75  6783.83  11.94
2305.2  56176.20  6643.50  11.83
2307.6  55578.46  6517.56  11.73
2309.9  54870.00  6391.17  11.65
2312.2  54327.50  6282.67  11.56
2314.6  53778.60  6176.36  11.48
2316.9  53134.31  6065.10  11.41
2319.2  52613.43  5966.02  11.34
2321.6  52043.86  5853.60  11.25
2323.9  51531.25  5747.40  11.15
2326.2  51042.48  5647.05  11.06
2328.6  50583.23  5548.95  10.97
2330.9  50124.38  5449.50  10.87
2333.2  49696.69  5363.10  10.79
2335.5  49289.55  5280.45  10.71
2337.8  48872.76  5192.18  10.62
2340.1  48355.16  5089.73  10.53
2342.4  47961.88  4999.59  10.42
2344.8  47585.75  4915.23  10.33
2347.1  47071.68  4819.85  10.24
2349.4  46575.71  4731.66  10.16
2351.6  46055.18  4646.28  10.09
2353.9  45620.08  4567.80  10.01
2356.2  45147.56  4485.58  9.94
2358.5  44595.60  4398.80  9.86
2360.8  44074.80  4312.00  9.78
2363.1  43677.70  4242.70  9.71
2365.4  43256.40  4158.40  9.61
2367.7  42826.95  4081.20  9.53
2369.9  42327.79  3993.19  9.43
2372.2  41770.20  3907.27  9.35
2374.5  41250.83  3820.16  9.26
2376.7  40678.66  3726.05  9.16
2379.0  40117.55  3629.60  9.05
2381.3  39576.25  3540.83  8.95
2383.5  39107.20  3464.27  8.86
2385.8  38538.78  3374.09  8.76
2388.0  38055.00  3289.25  8.64
2390.3  37602.50  3204.00  8.52
2392.5  37170.00  3138.00  8.44
2394.8  36744.68  3061.30  8.33
2397.0  36318.10  2969.63  8.18
2399.3  35901.24  2896.59  8.07
2401.5  35491.31  2835.87  7.99
2403.8  34991.65  2758.93  7.88
2406.0  34521.44  2678.90  7.76
2408.2  34174.25  2611.77  7.64
2410.4  33789.26  2546.60  7.54
2412.7  33411.63  2469.35  7.39
2414.9  33082.91  2409.82  7.28
2417.1  32708.85  2362.20  7.22
2419.3  32332.80  2300.80  7.12
2421.6  31978.44  2224.90  6.96
2423.8  31635.43  2158.95  6.82
2426.0  31296.33  2109.79  6.74
2428.2  30948.40  2061.27  6.66
2430.4  30648.40  2008.16  6.55
2432.6  30430.00  1953.33  6.42
2434.8  30155.20  1904.75  6.32
2437.0  29801.85  1843.73  6.19
2439.2  29489.99  1790.96  6.07
2441.4  29202.60  1748.48  5.99
2443.6  28994.28  1709.81  5.90
2445.7  28738.50  1659.06  5.77
2447.9  28473.50  1607.38  5.65
2450.1  28208.89  1570.09  5.57
2452.3  27898.06  1528.13  5.48
2454.5  27561.76  1478.61  5.36
2456.6  27199.40  1430.23  5.26
2458.8  26876.85  1397.83  5.20
2461.0  26609.56  1365.98  5.13
2463.1  26342.78  1324.05  5.03
2465.3  26076.60  1291.39  4.95
2467.5  25830.94  1261.13  4.88
2469.6  25619.38  1234.36  4.82
2471.8  25329.36  1201.33  4.74
2473.9  25023.25  1172.73  4.69
2476.1  24706.50  1137.50  4.60
2478.2  24369.53  1112.04  4.56
2480.4  24118.69  1082.17  4.49
2482.5  23805.63  1052.87  4.42
2484.6  23480.19  1028.50  4.38
2486.8  23243.85  1016.58  4.37
2488.9  22964.75  994.35  4.33
2491.1  22633.80  967.87  4.28
2493.2  22261.53  942.03  4.23
2495.3  21885.50  925.93  4.23
2497.4  21565.95  913.68  4.24
2499.5  21289.18  873.90  4.10
2501.7  21162.03  866.86  4.10
2503.8  21050.46  856.73  4.07
2505.9  20986.88  849.90  4.05
2508.0  20954.31  849.56  4.05
2510.1  20977.15  849.46  4.05
2512.2  21070.39  844.10  4.01
2514.3  21199.64  844.76  3.98
2516.4  21349.88  896.35  4.20
