/*** Spectra Vista SIG Data ***/
name= 9_20220824_ACSA_7_avg.sig
comm= Averaged Ref/Tar of files: HR.082422.0024_moc.sig,HR.082422.0025_moc.sig
data=
337.3  3473.75  248.13  7.14
338.8  3607.50  230.88  6.40
340.3  3794.85  234.25  6.17
341.8  3932.35  237.77  6.05
343.2  4173.60  230.88  5.53
344.7  4350.30  221.78  5.10
346.2  4534.35  220.59  4.86
347.7  4719.00  220.22  4.67
349.2  4951.80  211.68  4.27
350.6  5178.23  205.66  3.97
352.1  5501.65  214.35  3.90
353.6  5794.90  215.14  3.71
355.1  6095.18  228.99  3.76
356.6  6391.13  229.43  3.59
358.0  6667.10  236.06  3.54
359.5  6983.40  222.48  3.19
361.0  7301.70  239.40  3.28
362.5  7699.33  245.91  3.19
364.0  8086.35  263.81  3.26
365.4  8458.10  264.14  3.12
366.9  8840.00  270.73  3.06
368.4  9218.95  267.30  2.90
369.9  9593.88  275.66  2.87
371.3  10039.20  293.70  2.93
372.8  10487.25  307.98  2.94
374.3  10938.13  317.13  2.90
375.8  11372.90  323.40  2.84
377.2  11809.10  317.42  2.69
378.7  12239.50  317.42  2.59
380.2  12669.90  317.42  2.51
381.7  13242.25  335.11  2.53
383.1  13744.50  344.96  2.51
384.6  14296.75  361.47  2.53
386.1  14809.70  367.54  2.48
387.6  15307.60  355.74  2.32
389.0  15838.80  364.48  2.30
390.5  16354.80  387.63  2.37
392.0  16954.45  396.75  2.34
393.4  17577.98  409.89  2.33
394.9  18165.60  417.60  2.30
396.4  18733.50  414.00  2.21
397.9  19321.25  415.13  2.15
399.3  19905.45  430.53  2.16
400.8  20488.35  443.67  2.17
402.2  21186.65  466.45  2.20
403.7  21811.95  476.69  2.19
405.2  22443.90  487.71  2.17
406.6  23084.00  487.20  2.11
408.1  23707.40  497.20  2.10
409.6  24320.60  513.63  2.11
411.0  25043.55  533.75  2.13
412.5  25718.88  541.45  2.11
414.0  26406.00  558.28  2.11
415.4  27149.25  576.38  2.12
416.9  27871.65  585.96  2.10
418.4  28591.43  605.07  2.12
419.8  29356.60  618.80  2.11
421.3  30106.43  641.70  2.13
422.7  30937.20  664.68  2.15
424.2  31758.75  691.88  2.18
425.7  32567.40  704.16  2.16
427.1  33359.10  724.79  2.17
428.6  34193.00  744.00  2.18
430.0  34978.38  764.82  2.19
431.5  35879.70  788.04  2.20
432.9  36800.80  817.47  2.22
434.4  37746.38  836.58  2.22
435.9  38626.00  865.20  2.24
437.3  39517.50  885.50  2.24
438.8  40412.78  909.53  2.25
440.2  41314.35  932.47  2.26
441.7  42330.60  956.76  2.26
443.1  43287.75  983.15  2.27
444.6  44304.20  1008.70  2.28
446.0  45282.75  1038.00  2.29
447.5  46297.35  1062.44  2.29
448.9  47278.50  1088.76  2.30
450.4  48329.40  1121.47  2.32
451.8  49257.00  1146.60  2.33
453.3  50221.08  1174.14  2.34
454.7  51290.28  1198.93  2.34
456.2  52212.30  1214.06  2.33
457.6  53232.75  1242.54  2.33
459.1  54246.08  1271.21  2.34
460.5  55238.75  1297.38  2.35
462.0  56345.15  1325.45  2.35
463.4  57430.40  1356.30  2.36
464.8  58469.25  1376.40  2.35
466.3  59508.08  1396.89  2.35
467.7  60550.65  1421.58  2.35
469.2  61662.58  1449.73  2.35
470.6  62691.10  1478.06  2.36
472.0  63773.83  1503.21  2.36
473.5  64819.63  1528.33  2.36
474.9  65906.25  1553.25  2.36
476.4  67118.40  1589.76  2.37
477.8  68237.00  1615.30  2.37
479.2  69310.00  1647.20  2.38
480.7  70464.30  1679.10  2.38
482.1  71657.55  1702.21  2.38
483.6  72914.70  1734.00  2.38
485.0  74054.10  1765.95  2.38
486.4  75296.25  1801.29  2.39
487.9  76444.88  1836.90  2.40
489.3  77659.65  1870.08  2.41
490.7  78778.75  1905.42  2.42
492.2  80070.90  1949.22  2.43
493.6  81234.25  1989.47  2.45
495.0  82397.25  2035.80  2.47
496.5  83632.83  2086.79  2.50
497.9  84792.15  2136.68  2.52
499.3  86024.85  2186.58  2.54
500.7  87328.65  2250.24  2.58
502.2  88519.80  2312.64  2.61
503.6  89833.80  2391.48  2.66
505.0  90947.20  2472.92  2.72
506.5  92314.20  2567.90  2.78
507.9  93575.40  2665.54  2.85
509.3  95001.20  2782.40  2.93
510.7  96305.63  2901.60  3.01
512.2  97778.63  3045.54  3.11
513.6  99330.70  3211.53  3.23
515.0  100798.35  3394.09  3.37
516.4  102230.10  3597.62  3.52
517.8  103917.63  3827.88  3.68
519.3  105309.15  4067.68  3.86
520.7  106934.55  4341.45  4.06
522.1  108278.30  4617.34  4.26
523.5  109712.70  4915.04  4.48
524.9  111223.35  5220.09  4.69
526.3  112676.20  5524.75  4.90
527.8  114211.35  5830.11  5.10
529.2  115385.60  6120.92  5.30
530.6  117016.10  6433.14  5.50
532.0  118832.00  6731.20  5.66
533.4  120193.05  6980.27  5.81
534.8  121101.33  7181.18  5.93
536.3  122885.40  7414.92  6.03
537.7  125017.20  7663.32  6.13
539.1  126553.10  7858.42  6.21
540.5  127778.20  8025.30  6.28
541.9  129595.65  8223.66  6.35
543.3  130913.25  8391.88  6.41
544.7  132262.80  8554.56  6.47
546.1  134104.85  8756.17  6.53
547.5  135419.20  8919.68  6.59
549.0  137258.00  9110.20  6.64
550.4  138836.88  9273.50  6.68
551.8  140435.08  9424.09  6.71
553.2  142030.53  9542.73  6.72
554.6  143447.20  9617.92  6.70
556.0  145055.25  9675.18  6.67
557.4  146738.90  9703.44  6.61
558.8  148439.70  9706.23  6.54
560.2  149949.88  9671.58  6.45
561.6  151694.18  9624.36  6.34
563.0  153364.48  9551.11  6.23
564.4  155011.15  9452.80  6.10
565.8  156591.25  9335.13  5.96
567.2  158390.50  9208.45  5.81
568.6  159960.38  9054.53  5.66
570.0  161453.23  8885.36  5.50
571.4  163274.80  8727.29  5.35
572.8  165095.00  8572.93  5.19
574.2  166790.40  8422.40  5.05
575.6  168401.25  8284.50  4.92
577.0  169985.90  8160.86  4.80
578.4  171796.63  8067.15  4.70
579.8  173364.30  7975.13  4.60
581.2  175152.90  7905.73  4.51
582.5  176634.90  7839.00  4.44
583.9  178215.40  7778.56  4.36
585.3  180079.43  7741.71  4.30
586.7  181613.58  7705.62  4.24
588.1  183160.25  7675.13  4.19
589.5  184877.00  7663.60  4.15
590.9  186582.80  7668.16  4.11
592.3  188463.35  7683.11  4.08
593.7  189960.23  7691.19  4.05
595.0  191643.98  7715.52  4.03
596.4  193136.30  7738.92  4.01
597.8  194673.68  7758.71  3.99
599.2  196284.00  7777.44  3.96
600.6  198116.10  7805.79  3.94
602.0  199441.80  7802.61  3.91
603.3  201298.80  7812.93  3.88
604.7  203032.73  7797.49  3.84
606.1  204571.20  7769.40  3.80
607.5  206271.03  7733.95  3.75
608.9  208024.30  7696.59  3.70
610.2  209449.80  7640.33  3.65
611.6  211107.53  7595.12  3.60
613.0  212718.45  7537.12  3.54
614.4  214146.90  7478.70  3.49
615.8  215660.25  7435.35  3.45
617.1  217236.60  7388.22  3.40
618.5  218921.60  7364.48  3.36
619.9  220487.03  7340.12  3.33
621.3  222160.28  7341.53  3.30
622.6  223809.00  7344.40  3.28
624.0  225322.80  7360.38  3.27
625.4  226832.93  7379.79  3.25
626.8  228460.05  7408.31  3.24
628.1  229810.90  7434.30  3.23
629.5  231713.55  7482.52  3.23
630.9  233373.80  7525.27  3.22
632.2  234781.23  7553.88  3.22
633.6  236444.88  7579.53  3.21
635.0  238013.60  7581.76  3.19
636.3  239587.70  7563.56  3.16
637.7  240991.25  7530.33  3.12
639.1  242707.50  7490.00  3.09
640.4  244233.15  7434.11  3.04
641.8  245485.90  7368.86  3.00
643.2  247122.75  7314.55  2.96
644.5  248528.50  7252.55  2.92
645.9  250274.25  7202.88  2.88
647.2  252133.35  7176.02  2.85
648.6  254056.50  7152.30  2.82
650.0  255528.00  7128.00  2.79
651.3  255936.73  7094.01  2.77
652.7  257191.90  7094.79  2.76
654.0  259365.40  7121.90  2.75
655.4  260910.40  7105.80  2.72
656.8  261027.30  7046.08  2.70
658.1  262321.20  7005.22  2.67
659.5  264895.05  7020.83  2.65
660.8  266850.00  7020.00  2.63
662.2  267792.00  6970.88  2.60
663.5  269432.60  6941.81  2.58
664.9  270747.10  6926.14  2.56
666.2  271483.80  6890.88  2.54
667.6  273235.68  6907.36  2.53
668.9  274399.55  6937.70  2.53
670.3  275660.00  6981.00  2.53
671.6  277226.25  7035.75  2.54
673.0  278443.13  7110.98  2.55
674.3  279719.70  7191.34  2.57
675.7  281103.05  7289.17  2.59
677.0  282250.38  7400.40  2.62
678.4  283659.98  7523.74  2.65
679.7  284761.23  7669.11  2.69
681.1  286136.15  7827.80  2.74
682.4  287344.20  8009.04  2.79
683.8  288670.20  8207.94  2.84
685.1  289704.75  8429.63  2.91
686.4  291042.00  8689.08  2.99
687.8  292365.00  9006.80  3.08
689.1  293455.25  9389.50  3.20
690.5  294885.90  9887.64  3.35
691.8  295681.10  10527.29  3.56
693.1  297100.05  11397.48  3.84
694.5  298298.00  12517.05  4.20
695.8  299572.00  13932.10  4.65
697.1  300800.50  15702.05  5.22
698.5  301887.30  17814.96  5.90
699.8  303028.70  20307.73  6.70
701.1  304230.48  23151.18  7.61
702.5  305033.85  26266.24  8.61
703.8  306022.50  29650.50  9.69
705.1  307244.93  33233.85  10.82
706.5  308327.50  36959.03  11.99
707.8  309368.70  40802.16  13.19
709.1  310272.85  44725.91  14.42
710.5  311478.40  48789.06  15.66
711.8  312356.10  52886.68  16.93
713.1  313404.20  57083.54  18.21
714.4  314363.10  61320.54  19.51
715.8  315255.10  65611.06  20.81
717.1  316632.45  70044.90  22.12
718.4  317609.60  74439.68  23.44
719.7  318762.93  78900.74  24.75
721.0  319297.50  83223.00  26.06
722.4  320097.25  87584.20  27.36
723.7  321109.05  91968.06  28.64
725.0  322217.78  96313.10  29.89
726.3  323224.83  100544.13  31.11
727.6  323772.63  104570.46  32.30
729.0  324755.55  108595.73  33.44
730.3  325527.45  112431.08  34.54
731.6  326484.45  116185.22  35.59
732.9  327339.60  119745.22  36.58
734.2  328185.00  123158.20  37.53
735.5  329279.43  126493.93  38.42
736.8  330069.90  129558.42  39.25
738.1  330943.30  132487.26  40.03
739.5  331946.93  135297.81  40.76
740.8  332688.68  137833.41  41.43
742.1  333471.50  140226.50  42.05
743.4  334225.00  142460.00  42.62
744.7  335230.30  144665.62  43.15
746.0  336166.35  146675.10  43.63
747.3  336776.85  148392.14  44.06
748.6  337531.00  150065.85  44.46
749.9  338286.00  151600.80  44.81
751.2  339060.90  153008.88  45.13
752.5  339976.15  154389.60  45.41
753.8  340565.58  155537.38  45.67
755.1  341302.00  156639.60  45.89
756.4  341934.90  157611.11  46.09
757.7  342964.48  158697.67  46.27
759.0  344858.75  160103.63  46.43
760.3  346077.60  161140.32  46.56
761.6  347741.80  162323.84  46.68
762.9  348285.00  162944.95  46.78
764.2  348704.70  163444.40  46.87
765.5  349000.85  163863.39  46.95
766.8  349465.60  164331.52  47.02
768.1  350007.60  164794.56  47.08
769.3  350657.30  165264.05  47.13
770.6  351331.50  165743.50  47.18
771.9  352131.15  166255.04  47.21
773.2  352529.20  166583.04  47.25
774.5  353152.80  166995.40  47.29
775.8  353902.95  167433.86  47.31
777.1  354493.15  167804.89  47.34
778.4  354865.50  168046.18  47.35
779.6  355659.63  168499.14  47.38
780.9  356160.00  168822.00  47.40
782.2  356647.50  169121.70  47.42
783.5  357002.50  169348.20  47.44
784.8  357570.00  169660.80  47.45
786.0  358006.95  169898.33  47.46
787.3  358405.83  170147.56  47.47
788.6  358858.70  170422.88  47.49
789.9  359352.00  170705.08  47.50
791.2  360051.48  171064.36  47.51
792.4  360779.48  171443.62  47.52
793.7  361321.20  171716.08  47.52
795.0  361961.33  172061.01  47.54
796.2  362648.10  172425.55  47.55
797.5  363362.40  172819.38  47.56
798.8  364085.60  173187.24  47.57
800.0  364848.23  173544.61  47.57
801.3  365368.10  173821.50  47.57
802.6  366016.50  174140.24  47.58
803.8  366694.20  174492.02  47.59
805.1  367257.63  174783.18  47.59
806.4  367703.10  175023.78  47.60
807.7  368282.70  175338.27  47.61
808.9  368895.45  175648.92  47.61
810.2  369436.55  175926.31  47.62
811.4  369962.60  176215.44  47.63
812.7  370621.88  176556.25  47.64
814.0  371502.20  177002.61  47.65
815.2  372201.25  177345.65  47.65
816.5  372611.85  177580.37  47.66
817.7  373137.80  177861.78  47.67
819.0  373626.55  178145.00  47.68
820.2  373868.00  178270.40  47.68
821.5  374613.50  178662.51  47.69
822.7  375012.83  178881.53  47.70
824.0  375324.30  179083.44  47.71
825.2  375860.25  179360.33  47.72
826.5  376167.18  179550.45  47.73
827.7  376804.15  179872.84  47.74
829.0  377228.95  180116.84  47.75
830.2  377550.75  180304.59  47.76
831.5  378080.85  180580.12  47.76
832.7  378423.68  180773.57  47.77
834.0  378782.18  180975.43  47.78
835.2  379177.98  181190.24  47.79
836.4  379478.55  181390.00  47.80
837.7  379942.00  181667.56  47.81
838.9  380403.03  181945.77  47.83
840.1  380801.93  182170.89  47.84
841.4  381286.90  182432.78  47.85
842.6  381711.20  182659.56  47.85
843.8  382013.40  182878.88  47.87
845.1  382570.10  183189.71  47.88
846.3  383017.30  183449.24  47.90
847.5  383426.40  183686.58  47.91
848.8  383839.80  183953.88  47.92
850.0  384232.45  184165.94  47.93
851.2  384824.25  184474.53  47.94
852.5  385285.60  184721.04  47.94
853.7  385823.25  184983.75  47.95
854.9  386222.30  185238.64  47.96
856.1  386770.15  185518.45  47.97
857.4  386941.63  185664.16  47.98
858.6  387529.25  185931.66  47.98
859.8  387945.00  186160.88  47.99
861.0  388486.80  186437.16  47.99
862.2  388922.40  186699.81  48.00
863.5  389363.33  186903.02  48.00
864.7  389934.60  187206.36  48.01
865.9  390341.20  187419.56  48.01
867.1  390696.35  187599.50  48.02
868.3  391166.10  187843.56  48.02
869.5  391715.70  188126.42  48.03
870.8  392292.00  188404.20  48.03
872.0  392888.33  188688.47  48.03
873.2  393407.10  188919.81  48.02
874.4  393848.33  189176.72  48.03
875.6  394248.05  189369.90  48.03
876.8  394701.10  189624.28  48.04
878.0  395267.65  189868.91  48.04
879.2  395893.50  190144.59  48.03
880.4  396549.75  190414.13  48.02
881.6  397079.63  190682.80  48.02
882.8  397526.40  190870.88  48.01
884.0  398158.43  191209.55  48.02
885.2  398684.20  191449.10  48.02
886.5  399291.90  191738.30  48.02
887.7  399801.03  191969.31  48.02
888.8  400605.98  192298.17  48.00
890.0  401140.55  192628.82  48.02
891.2  401785.60  192928.30  48.02
892.4  402525.90  193242.84  48.01
893.6  403224.75  193528.61  48.00
894.8  404196.25  193936.00  47.98
896.0  405138.50  194371.20  47.98
897.2  406022.50  194769.90  47.97
898.4  406744.80  195127.02  47.97
899.6  407397.75  195451.20  47.98
900.8  407783.90  195647.72  47.98
902.0  408228.15  195761.28  47.95
903.2  408596.63  195865.92  47.94
904.3  408911.40  196044.06  47.94
905.5  409543.60  196366.32  47.95
906.7  410189.00  196650.10  47.94
907.9  410855.20  196906.50  47.93
909.1  411281.55  197069.49  47.92
910.2  411526.88  197201.31  47.92
911.4  411822.45  197252.64  47.90
912.6  412054.50  197372.89  47.90
913.8  412310.85  197480.39  47.90
915.0  412834.80  197720.88  47.89
916.2  413078.25  197806.05  47.89
917.3  413175.60  197748.72  47.86
918.5  413327.70  197856.08  47.87
919.7  413724.75  197956.44  47.85
920.8  413707.75  198021.02  47.86
922.0  413952.00  198055.55  47.85
923.2  414141.00  198170.70  47.85
924.4  414433.13  198236.03  47.83
925.5  415007.40  198356.14  47.80
926.7  415592.63  198584.65  47.78
927.9  416448.00  198969.60  47.78
929.0  417906.00  199594.26  47.76
930.2  420280.00  200623.66  47.74
931.4  422901.00  201766.68  47.71
932.5  425816.00  203076.66  47.69
933.7  427309.65  203712.95  47.67
934.9  427997.50  204027.25  47.67
936.0  427545.63  203711.95  47.65
937.2  425371.95  202643.16  47.64
938.3  423725.25  201716.62  47.61
939.5  422323.20  200874.24  47.56
940.7  422702.10  200916.72  47.53
941.8  424177.65  201563.33  47.52
943.0  425718.75  202158.15  47.49
944.2  426487.75  202412.73  47.46
945.3  426260.25  202107.75  47.41
946.5  425590.20  201573.63  47.36
947.6  425833.10  201569.90  47.34
948.8  425690.85  201359.15  47.30
949.9  425791.80  201269.04  47.27
951.1  425514.05  200926.05  47.22
952.2  425544.00  200613.60  47.14
953.4  425277.00  200244.95  47.09
954.5  425201.40  199985.76  47.03
955.7  425187.00  199848.60  47.00
956.8  425122.90  199422.08  46.91
958.0  424837.00  199084.20  46.86
959.1  424588.73  198773.44  46.82
960.3  424303.88  198514.42  46.79
961.4  424300.95  198241.66  46.72
962.6  424357.50  198225.30  46.71
963.7  424166.93  198026.34  46.69
964.9  424232.25  197908.11  46.65
966.0  424081.58  197767.58  46.63
967.2  424224.90  197848.35  46.64
968.3  423848.70  197651.34  46.63
969.5  423835.70  197491.78  46.60
970.6  423848.30  197545.65  46.61
971.8  424285.23  197560.62  46.56
972.9  424001.55  197513.54  46.58
974.0  424647.70  197625.76  46.54
975.2  424700.63  197579.60  46.52
976.3  424493.60  197475.57  46.52
977.5  424312.35  197482.99  46.54
978.6  424106.00  197569.38  46.58
979.7  424300.28  197667.02  46.59
980.9  424771.35  197685.52  46.54
982.0  424755.75  197547.42  46.51
983.2  425089.60  197523.61  46.47
984.3  424707.80  197399.40  46.48
985.4  424095.48  197409.79  46.55
986.6  424360.38  197502.60  46.54
987.7  425250.70  197754.62  46.50
988.9  425359.80  197995.68  46.55
990.0  425704.50  198225.48  46.56
993.1  372132.89  172064.95  46.24
996.9  372899.18  172842.08  46.35
1000.7  374062.03  173784.27  46.46
1004.5  374637.17  174403.47  46.55
1008.4  374463.71  174702.48  46.65
1012.2  374588.63  175090.74  46.74
1016.0  374752.80  175522.25  46.84
1019.8  375063.15  175952.70  46.91
1023.7  375129.26  176266.15  46.99
1027.5  374909.07  176430.66  47.06
1031.3  375206.58  176734.52  47.10
1035.1  375088.47  176836.08  47.15
1038.9  375028.87  176956.85  47.18
1042.7  374833.92  176988.06  47.22
1046.5  374677.33  176987.90  47.24
1050.3  374728.61  177065.58  47.25
1054.2  374431.75  177013.38  47.28
1058.0  373939.07  176788.33  47.28
1061.8  373786.14  176768.75  47.29
1065.6  373524.57  176634.62  47.29
1069.4  373508.07  176630.43  47.29
1073.2  373131.49  176405.65  47.28
1077.0  372670.30  176141.66  47.26
1080.8  372166.67  175780.14  47.23
1084.6  371060.67  175135.80  47.20
1088.4  370327.86  174712.52  47.18
1092.2  369456.75  174164.95  47.14
1096.0  368859.91  173733.85  47.10
1099.8  368358.90  173304.58  47.05
1103.6  367690.73  172806.80  47.00
1107.4  366798.62  172129.43  46.93
1111.2  366498.70  171833.00  46.89
1114.9  365793.17  171250.38  46.82
1118.7  365168.93  170636.58  46.73
1122.5  364473.20  169904.80  46.62
1126.3  363326.43  168895.78  46.49
1130.1  362779.85  167992.39  46.31
1133.9  361123.70  166361.25  46.07
1137.7  359722.90  164619.52  45.76
1141.4  357952.08  162511.26  45.40
1145.2  357231.60  160697.31  44.98
1149.0  356082.71  158774.69  44.59
1152.8  354428.35  156748.25  44.23
1156.6  352753.68  154973.50  43.93
1160.3  350984.00  153435.57  43.72
1164.1  348548.03  151839.14  43.56
1167.9  346725.00  150696.21  43.46
1171.7  345444.75  149900.63  43.39
1175.4  344259.10  149231.84  43.35
1179.2  343246.53  148611.55  43.30
1183.0  342930.00  148293.65  43.24
1186.7  342400.10  147869.05  43.19
1190.5  341298.73  147233.13  43.14
1194.3  340087.17  146570.97  43.10
1198.0  338837.13  145974.03  43.08
1201.8  337356.93  145334.52  43.08
1205.6  336116.67  144887.50  43.11
1209.3  335115.68  144673.09  43.17
1213.1  334076.78  144448.39  43.24
1216.8  333074.78  144275.73  43.32
1220.6  331941.87  144051.60  43.40
1224.3  330672.08  143756.50  43.47
1228.1  329412.00  143487.95  43.56
1231.9  328143.20  143164.49  43.63
1235.6  326689.05  142708.29  43.68
1239.4  325322.88  142313.63  43.75
1243.1  324079.56  141902.22  43.79
1246.9  322847.51  141481.79  43.82
1250.6  321849.53  141121.25  43.85
1254.3  320785.30  140709.41  43.86
1258.1  319777.73  140294.10  43.87
1261.8  318504.67  139750.80  43.88
1265.6  317066.87  139089.27  43.87
1269.3  315600.48  138376.38  43.85
1273.1  315525.12  138235.90  43.81
1276.8  315782.00  138206.32  43.77
1280.6  315663.90  137999.06  43.72
1284.3  314322.40  137222.32  43.66
1288.0  312863.23  136339.51  43.58
1291.8  311547.65  135441.58  43.47
1295.5  310147.20  134462.12  43.35
1299.2  308844.38  133480.01  43.22
1302.9  307374.91  132344.18  43.06
1306.7  305802.47  131088.13  42.87
1310.4  304299.18  129743.67  42.64
1314.1  302918.18  128384.11  42.38
1317.9  301687.71  126967.86  42.09
1321.6  300278.48  125363.80  41.75
1325.3  298653.60  123554.14  41.37
1329.0  297291.40  121803.80  40.97
1332.8  295187.20  119634.90  40.53
1336.5  293349.00  117545.70  40.07
1340.2  292974.50  116034.75  39.61
1343.9  292517.08  114495.94  39.14
1347.6  291896.85  112908.60  38.68
1351.4  292097.50  111699.64  38.24
1355.1  292440.13  110563.75  37.81
1358.8  292544.00  109285.72  37.36
1362.5  291991.10  107659.65  36.87
1366.2  290231.65  105351.07  36.30
1369.9  288353.50  102737.33  35.63
1373.6  286367.96  99663.64  34.80
1377.3  284530.50  96047.36  33.76
1381.0  283304.67  91834.75  32.42
1384.8  281255.00  86454.64  30.74
1388.4  278861.22  80432.70  28.84
1392.2  277003.25  74136.13  26.76
1395.9  275405.65  67751.41  24.60
1399.6  273766.24  61615.69  22.51
1403.3  272556.13  56135.69  20.60
1407.0  271453.00  51389.47  18.93
1410.7  270252.68  47454.95  17.56
1414.3  269031.47  44328.65  16.48
1418.1  267879.42  41955.97  15.66
1421.7  266991.03  40196.27  15.06
1425.4  266059.95  38905.43  14.62
1429.1  265172.63  37987.24  14.33
1432.8  263713.63  37277.16  14.14
1436.5  262875.55  36868.00  14.02
1440.2  262049.27  36629.48  13.98
1443.9  260755.73  36446.36  13.98
1447.6  259151.20  36306.60  14.01
1451.2  258074.67  36291.75  14.06
1454.9  256777.35  36314.55  14.14
1458.6  255667.93  36456.08  14.26
1462.3  254514.33  36714.62  14.43
1466.0  253158.41  37093.00  14.65
1469.7  251477.20  37598.19  14.95
1473.3  250431.17  38346.29  15.31
1477.0  248552.53  39075.77  15.72
1480.7  246981.88  39928.86  16.17
1484.4  245094.95  40750.18  16.63
1488.0  243554.67  41671.15  17.11
1491.7  241929.83  42568.06  17.60
1495.4  240212.50  43456.63  18.09
1499.0  238597.50  44323.39  18.58
1502.7  237283.92  45245.68  19.07
1506.4  235864.34  46117.94  19.55
1510.0  234435.27  46957.45  20.03
1513.7  232982.75  47750.51  20.50
1517.4  231641.00  48537.79  20.95
1521.0  230420.93  49317.83  21.40
1524.7  229192.17  50039.09  21.83
1528.3  227892.75  50713.80  22.25
1532.0  226671.32  51364.50  22.66
1535.7  225267.76  51923.71  23.05
1539.3  224013.15  52474.83  23.42
1543.0  223040.68  53053.56  23.79
1546.6  222347.67  53669.57  24.14
1550.3  221357.75  54171.78  24.47
1553.9  220281.23  54621.74  24.80
1557.6  219018.07  54984.92  25.11
1561.2  217759.50  55292.82  25.39
1564.9  216453.31  55567.96  25.67
1568.5  215150.02  55811.00  25.94
1572.2  214009.60  56062.52  26.20
1575.8  212926.00  56319.00  26.45
1579.5  211932.70  56561.42  26.69
1583.1  210919.88  56787.73  26.92
1586.8  209720.00  56934.00  27.15
1590.4  208661.63  57096.62  27.36
1594.0  207354.44  57181.27  27.58
1597.7  206200.03  57289.75  27.78
1601.3  204899.63  57341.93  27.99
1604.9  203610.49  57358.12  28.17
1608.6  202296.88  57345.65  28.35
1612.2  201258.75  57375.28  28.51
1615.8  200108.03  57353.40  28.66
1619.5  198980.50  57319.77  28.81
1623.1  197670.23  57199.49  28.94
1626.7  196432.60  57068.91  29.05
1630.3  195209.08  56926.13  29.16
1634.0  193984.00  56751.00  29.26
1637.6  192854.00  56563.07  29.33
1641.2  191684.15  56303.37  29.37
1644.8  190349.63  55932.49  29.38
1648.5  189236.99  55585.59  29.37
1652.1  188206.80  55219.63  29.34
1655.7  187255.40  54850.55  29.29
1659.3  186394.46  54528.80  29.25
1662.9  185002.50  54072.14  29.23
1666.6  183612.20  53642.23  29.21
1670.2  182266.29  53212.81  29.20
1673.8  180870.28  52747.59  29.16
1677.4  179769.75  52317.18  29.10
1681.0  178991.78  51903.57  29.00
1684.6  178562.58  51511.81  28.85
1688.2  177851.35  50924.84  28.63
1691.8  177209.23  50382.72  28.43
1695.4  176804.20  49893.73  28.22
1699.0  176479.10  49458.80  28.03
1702.6  176199.67  49016.93  27.82
1706.2  175637.58  48455.23  27.59
1709.8  174744.17  47802.95  27.36
1713.4  174043.68  47259.01  27.15
1717.0  173179.75  46765.93  27.00
1720.6  172394.70  46357.62  26.89
1724.2  171697.20  46003.12  26.79
1727.8  170968.00  45662.78  26.71
1731.4  170473.88  45375.00  26.62
1735.0  170244.07  45141.33  26.52
1738.6  169980.90  44846.94  26.38
1742.2  169397.53  44418.08  26.22
1745.8  168764.20  43938.44  26.04
1749.4  167800.88  43350.34  25.83
1753.0  166315.40  42629.02  25.63
1756.6  164631.25  41896.51  25.45
1760.1  163302.75  41267.68  25.27
1763.7  161598.00  40565.43  25.10
1767.3  160156.95  39964.45  24.95
1770.9  158939.67  39419.80  24.80
1774.5  157510.24  38835.65  24.66
1778.0  156352.63  38370.90  24.54
1781.6  155257.20  37983.22  24.46
1785.2  154111.43  37640.85  24.42
1788.8  152947.90  37353.09  24.42
1792.3  151724.00  37069.23  24.43
1795.9  151245.14  36967.55  24.44
1799.5  150744.67  36878.22  24.46
1803.1  150061.68  36737.93  24.48
1806.6  150441.38  36847.38  24.49
1810.2  151513.83  37118.50  24.50
1813.8  152423.95  37348.64  24.50
1817.3  152425.00  37354.42  24.51
1820.9  151654.90  37160.45  24.50
1824.5  150454.03  36849.09  24.49
1828.0  149624.29  36591.01  24.46
1831.6  148852.38  36324.71  24.40
1835.2  148169.17  36015.72  24.31
1838.7  147774.93  35702.18  24.16
1842.3  147405.00  35318.57  23.96
1845.8  146631.79  34727.38  23.68
1849.4  146145.90  34072.64  23.31
1852.9  145484.09  33217.83  22.83
1856.5  144614.85  32118.22  22.21
1860.0  143863.53  30817.54  21.42
1863.6  143634.23  29405.83  20.47
1867.1  143494.05  27757.28  19.34
1870.7  143458.48  25764.60  17.96
1874.2  142692.30  23302.35  16.33
1877.8  141473.13  20644.42  14.59
1881.3  140022.75  17927.90  12.80
1884.9  139066.58  15409.79  11.08
1888.4  138029.75  13053.85  9.46
1891.9  137049.67  11045.19  8.06
1895.5  135941.22  9444.37  6.95
1899.0  135394.63  8294.04  6.13
1901.3  165949.17  6578.50  3.96
1904.1  165894.00  5901.75  3.56
1906.8  165139.20  5372.10  3.25
1909.6  163488.15  4957.58  3.03
1912.4  161910.70  4646.08  2.87
1915.1  160785.35  4436.30  2.76
1917.9  159499.50  4265.75  2.67
1920.6  158506.03  4161.47  2.63
1923.3  157499.30  4067.12  2.58
1926.1  156227.07  4008.42  2.57
1928.8  155056.00  3982.00  2.57
1931.6  154166.37  3979.20  2.58
1934.3  153294.22  4005.36  2.61
1937.0  152464.03  4037.00  2.65
1939.8  151544.75  4077.34  2.69
1942.5  150337.00  4125.00  2.74
1945.2  148703.50  4174.78  2.81
1947.9  147379.63  4244.10  2.88
1950.7  146333.97  4321.75  2.95
1953.4  144634.75  4407.33  3.05
1956.1  143302.83  4491.75  3.13
1958.8  142116.43  4602.43  3.24
1961.5  140695.60  4701.20  3.34
1964.2  139230.00  4818.45  3.46
1966.9  137677.65  4945.83  3.59
1969.6  136467.00  5076.00  3.72
1972.3  135102.00  5206.50  3.85
1975.0  134068.65  5354.25  3.99
1977.7  132981.78  5523.64  4.15
1980.4  131859.43  5680.80  4.31
1983.1  130767.43  5853.25  4.48
1985.8  129856.20  6029.10  4.64
1988.4  128847.33  6201.00  4.81
1991.1  127928.73  6388.67  4.99
1993.8  127078.60  6570.21  5.17
1996.5  126440.97  6768.39  5.35
1999.1  125760.25  6970.89  5.54
2001.8  125079.73  7165.67  5.73
2004.5  124404.30  7361.15  5.92
2007.1  123686.35  7551.45  6.11
2009.8  122947.30  7731.15  6.29
2012.4  122356.67  7923.03  6.48
2015.1  121816.33  8106.70  6.65
2017.8  121013.43  8279.37  6.84
2020.4  120512.70  8461.57  7.02
2023.1  120167.37  8637.65  7.19
2025.7  119938.00  8809.67  7.35
2028.3  119600.00  8974.34  7.50
2031.0  119204.80  9134.87  7.66
2033.6  118929.00  9278.55  7.80
2036.2  118668.00  9426.45  7.94
2038.9  118085.10  9530.85  8.07
2041.5  117736.02  9653.71  8.20
2044.1  117189.00  9744.00  8.31
2046.8  116823.60  9852.75  8.43
2049.4  116205.90  9931.05  8.55
2052.0  115917.53  10025.87  8.65
2054.6  115526.25  10115.00  8.76
2057.2  114974.33  10187.43  8.86
2059.8  114642.47  10279.14  8.97
2062.4  113778.65  10333.61  9.08
2065.0  113262.60  10410.14  9.19
2067.6  112375.27  10464.36  9.31
2070.2  111773.82  10529.73  9.42
2072.8  111146.22  10590.75  9.53
2075.4  110713.75  10666.25  9.63
2078.0  110090.30  10715.67  9.73
2080.6  109533.60  10771.20  9.83
2083.2  108855.70  10818.07  9.94
2085.8  108359.98  10878.16  10.04
2088.4  107687.17  10904.75  10.13
2090.9  106884.45  10932.67  10.23
2093.5  106015.30  10945.19  10.32
2096.1  105259.47  10948.43  10.40
2098.7  104495.32  10957.21  10.49
2101.2  103542.40  10955.97  10.58
2103.8  102878.67  10973.44  10.67
2106.4  102214.93  10990.90  10.75
2108.9  101559.93  10999.64  10.83
2111.5  100712.80  10982.17  10.90
2114.0  100092.73  10995.27  10.99
2116.6  99592.50  11011.88  11.06
2119.1  99028.27  11010.93  11.12
2121.7  98551.25  11025.00  11.19
2124.2  98160.37  11037.23  11.24
2126.8  97354.47  11014.30  11.31
2129.3  96958.40  11022.00  11.37
2131.9  96386.40  11013.20  11.43
2134.4  95960.55  11018.25  11.48
2136.9  95575.78  11028.66  11.54
2139.4  95059.53  11016.83  11.59
2142.0  94625.07  11025.70  11.65
2144.5  94348.90  11049.35  11.71
2147.0  94112.67  11072.87  11.77
2149.5  93612.40  11072.87  11.83
2152.1  93453.62  11103.40  11.88
2154.6  93395.73  11142.94  11.93
2157.1  92858.92  11127.08  11.98
2159.6  92459.25  11136.17  12.04
2162.1  92301.30  11156.60  12.09
2164.6  92064.00  11179.20  12.14
2167.1  91750.68  11189.90  12.20
2169.6  91429.33  11189.04  12.24
2172.1  90976.03  11176.95  12.29
2174.6  90665.07  11184.87  12.34
2177.1  90224.72  11191.06  12.40
2179.5  89812.67  11198.64  12.47
2182.0  89329.90  11201.30  12.54
2184.5  88794.48  11184.94  12.60
2187.0  88192.23  11169.07  12.66
2189.5  87521.68  11138.18  12.73
2191.9  86754.00  11091.25  12.78
2194.4  86131.45  11063.68  12.85
2196.9  85401.60  11025.60  12.91
2199.3  84747.67  10986.17  12.96
2201.8  83872.13  10911.07  13.01
2204.3  83412.22  10891.60  13.06
2206.7  82779.40  10844.85  13.10
2209.2  82308.40  10827.19  13.15
2211.6  81694.80  10781.10  13.20
2214.1  81410.90  10765.90  13.22
2216.5  80847.40  10698.20  13.23
2219.0  80499.73  10668.40  13.25
2221.4  80116.75  10630.67  13.27
2223.9  79640.75  10561.25  13.26
2226.3  79144.92  10486.88  13.25
2228.7  78602.15  10397.27  13.23
2231.1  78021.90  10281.15  13.18
2233.6  77440.27  10151.87  13.11
2236.0  76883.92  10025.75  13.04
2238.4  76398.00  9891.88  12.95
2240.9  75960.20  9759.50  12.85
2243.3  75433.73  9590.64  12.71
2245.7  74863.80  9412.70  12.57
2248.1  74381.23  9249.07  12.43
2250.5  73866.68  9064.87  12.27
2252.9  73255.00  8870.34  12.11
2255.3  72714.60  8691.33  11.95
2257.7  72250.00  8510.00  11.78
2260.1  71778.47  8332.68  11.61
2262.5  71170.00  8140.00  11.44
2264.9  70652.05  7966.70  11.28
2267.3  70030.00  7785.00  11.12
2269.7  69551.07  7625.34  10.96
2272.1  69004.82  7477.44  10.84
2274.5  68445.73  7332.76  10.71
2276.8  67973.10  7206.99  10.60
2279.2  67405.35  7060.13  10.47
2281.6  66973.53  6940.97  10.36
2284.0  66518.60  6822.55  10.26
2286.3  66049.07  6703.20  10.15
2288.7  65641.77  6583.53  10.03
2291.1  65104.47  6452.12  9.91
2293.4  64659.47  6349.93  9.82
2295.8  64055.70  6221.20  9.71
2298.2  63466.20  6080.63  9.58
2300.5  62814.15  5946.08  9.47
2302.9  62072.33  5817.67  9.37
2305.2  61357.10  5701.05  9.29
2307.6  60682.63  5581.32  9.20
2309.9  59923.00  5471.50  9.13
2312.2  59344.33  5388.84  9.08
2314.6  58736.25  5304.38  9.03
2316.9  58032.45  5211.23  8.98
2319.2  57472.80  5110.77  8.89
2321.6  56838.37  5020.34  8.83
2323.9  56291.67  4927.09  8.75
2326.2  55755.73  4835.85  8.67
2328.6  55238.70  4754.75  8.61
2330.9  54736.50  4677.75  8.55
2333.2  54281.92  4598.46  8.47
2335.5  53831.70  4526.10  8.41
2337.8  53388.28  4448.13  8.33
2340.1  52805.98  4378.03  8.29
2342.4  52368.33  4300.84  8.21
2344.8  51952.42  4230.21  8.14
2347.1  51389.80  4145.40  8.07
2349.4  50852.93  4065.15  7.99
2351.6  50280.07  3993.55  7.94
2353.9  49771.37  3922.35  7.88
2356.2  49257.95  3851.93  7.82
2358.5  48675.20  3774.40  7.75
2360.8  48115.20  3707.20  7.70
2363.1  47682.05  3645.42  7.65
2365.4  47211.40  3587.75  7.60
2367.7  46740.00  3534.00  7.56
2369.9  46212.20  3457.90  7.48
2372.2  45591.47  3382.67  7.42
2374.5  45010.35  3297.53  7.33
2376.7  44375.67  3217.82  7.25
2379.0  43776.23  3129.37  7.15
2381.3  43166.67  3056.67  7.08
2383.5  42638.93  2992.00  7.02
2385.8  42042.30  2924.02  6.95
2388.0  41524.20  2843.80  6.85
2390.3  41011.20  2776.80  6.77
2392.5  40524.00  2706.00  6.68
2394.8  40075.20  2649.90  6.61
2397.0  39615.33  2572.27  6.49
2399.3  39145.05  2509.77  6.41
2401.5  38710.00  2450.00  6.33
2403.8  38169.35  2370.96  6.21
2406.0  37672.17  2315.71  6.15
2408.2  37262.87  2256.47  6.06
2410.4  36850.80  2197.07  5.96
2412.7  36443.33  2136.34  5.86
2414.9  36065.15  2093.58  5.80
2417.1  35648.90  2032.00  5.70
2419.3  35251.20  1971.20  5.59
2421.6  34887.92  1924.59  5.52
2423.8  34504.30  1873.68  5.43
2426.0  34146.17  1817.67  5.32
2428.2  33790.40  1770.54  5.24
2430.4  33480.33  1726.95  5.16
2432.6  33226.67  1673.34  5.04
2434.8  32908.73  1637.42  4.98
2437.0  32535.53  1591.85  4.89
2439.2  32169.67  1534.14  4.77
2441.4  31847.47  1486.04  4.67
2443.6  31612.53  1464.57  4.63
2445.7  31348.57  1416.10  4.52
2447.9  31062.00  1391.67  4.48
2450.1  30783.55  1355.83  4.40
2452.3  30421.42  1312.85  4.32
2454.5  30068.67  1269.41  4.22
2456.6  29688.93  1226.94  4.13
2458.8  29329.30  1186.90  4.05
2461.0  29020.75  1153.34  3.97
2463.1  28750.80  1134.90  3.95
2465.3  28461.83  1090.18  3.83
2467.5  28202.00  1054.63  3.74
2469.6  27953.83  1036.71  3.71
2471.8  27630.67  1013.63  3.67
2473.9  27331.00  1003.04  3.67
2476.1  26981.50  985.84  3.65
2478.2  26627.87  959.70  3.60
2480.4  26340.60  928.68  3.53
2482.5  26012.00  905.78  3.48
2484.6  25665.75  880.46  3.43
2486.8  25402.60  863.50  3.40
2488.9  25063.93  844.41  3.37
2491.1  24704.40  817.14  3.31
2493.2  24301.27  814.30  3.35
2495.3  23937.77  801.67  3.35
2497.4  23586.50  772.80  3.28
2499.5  23271.63  752.53  3.23
2501.7  23138.13  755.93  3.27
2503.8  23018.85  752.25  3.27
2505.9  22960.00  734.58  3.20
2508.0  22929.32  700.67  3.06
2510.1  22926.43  706.40  3.08
2512.2  23029.25  715.65  3.11
2514.3  23197.63  711.88  3.07
2516.4  23344.50  738.75  3.16
