/*** Spectra Vista SIG Data ***/
name= 50_20221021_QUPA_14_avg.sig
comm= Averaged Ref/Tar of files: HR.102122.0063_moc.sig,HR.102122.0064_moc.sig
data=
337.3  4621.58  333.98  7.23
338.8  4858.10  344.95  7.10
340.3  5089.50  315.00  6.19
341.8  5253.33  352.18  6.70
343.2  5595.45  331.16  5.92
344.7  5869.22  315.71  5.38
346.2  6113.88  305.96  5.00
347.7  6417.32  286.60  4.47
349.2  6633.90  292.68  4.41
350.6  6970.72  301.11  4.32
352.1  7382.15  299.21  4.05
353.6  7762.50  307.61  3.96
355.1  8166.31  307.34  3.76
356.6  8610.80  297.37  3.45
358.0  8982.82  307.48  3.42
359.5  9355.80  311.59  3.33
361.0  9844.40  325.50  3.31
362.5  10361.26  337.18  3.25
364.0  10897.67  346.74  3.18
365.4  11401.13  337.04  2.96
366.9  11861.00  353.73  2.98
368.4  12377.65  362.17  2.93
369.9  12897.02  387.15  3.00
371.3  13534.13  419.65  3.10
372.8  14116.73  446.63  3.16
374.3  14729.18  426.39  2.89
375.8  15343.22  437.69  2.85
377.2  15936.33  428.94  2.69
378.7  16538.15  441.97  2.67
380.2  17158.65  442.24  2.58
381.7  17829.07  463.58  2.60
383.1  18537.33  488.83  2.64
384.6  19224.13  480.58  2.50
386.1  19950.36  494.72  2.48
387.6  20609.79  500.83  2.43
389.0  21363.95  511.77  2.40
390.5  22079.04  520.30  2.36
392.0  22886.15  545.30  2.38
393.4  23721.49  561.40  2.37
394.9  24485.35  583.75  2.38
396.4  25299.72  581.82  2.30
397.9  26074.45  605.80  2.32
399.3  26811.36  626.49  2.34
400.8  27709.82  648.50  2.34
402.2  28621.30  661.42  2.31
403.7  29498.25  685.32  2.32
405.2  30339.67  691.17  2.28
406.6  31201.20  718.34  2.30
408.1  32034.74  737.40  2.30
409.6  32922.52  774.98  2.35
411.0  33867.69  793.65  2.34
412.5  34870.32  824.50  2.36
414.0  35858.82  843.88  2.35
415.4  36813.34  867.57  2.36
416.9  37752.22  899.59  2.38
418.4  38746.48  926.08  2.39
419.8  39786.60  961.08  2.42
421.3  40877.03  995.64  2.44
422.7  41974.30  1022.65  2.44
424.2  43086.79  1054.08  2.45
425.7  44177.24  1080.95  2.45
427.1  45282.75  1112.22  2.46
428.6  46403.53  1152.91  2.48
430.0  47534.63  1191.59  2.51
431.5  48774.28  1225.51  2.51
432.9  50022.04  1257.64  2.51
434.4  51291.99  1292.77  2.52
435.9  52503.45  1325.75  2.53
437.3  53770.88  1368.95  2.55
438.8  54997.61  1407.69  2.56
440.2  56251.39  1446.79  2.57
441.7  57642.00  1483.24  2.57
443.1  58976.90  1526.07  2.59
444.6  60331.62  1562.95  2.59
446.0  61695.89  1607.86  2.61
447.5  63155.50  1658.97  2.63
448.9  64476.54  1701.15  2.64
450.4  65891.45  1747.31  2.65
451.8  67218.25  1796.09  2.67
453.3  68567.18  1839.81  2.68
454.7  69959.73  1890.41  2.70
456.2  71259.14  1934.10  2.71
457.6  72683.10  1977.85  2.72
459.1  74068.42  2019.58  2.73
460.5  75437.63  2065.52  2.74
462.0  76968.72  2118.40  2.75
463.4  78454.67  2168.46  2.76
464.8  79928.37  2216.63  2.77
466.3  81340.51  2255.57  2.77
467.7  82822.00  2302.56  2.78
469.2  84267.44  2350.52  2.79
470.6  85771.14  2399.39  2.80
472.0  87302.22  2447.83  2.80
473.5  88799.59  2504.85  2.82
474.9  90368.28  2557.27  2.83
476.4  91950.30  2609.16  2.84
477.8  93510.50  2652.40  2.84
479.2  95032.72  2704.48  2.85
480.7  96620.03  2766.84  2.86
482.1  98243.03  2822.07  2.87
483.6  99914.10  2892.06  2.89
485.0  101543.74  2948.22  2.90
486.4  103155.68  3016.86  2.92
487.9  104789.82  3081.45  2.94
489.3  106411.17  3159.50  2.97
490.7  108005.63  3243.60  3.00
492.2  109701.09  3343.24  3.05
493.6  111343.88  3440.34  3.09
495.0  113016.16  3543.01  3.13
496.5  114679.14  3668.46  3.20
497.9  116360.25  3802.66  3.27
499.3  118053.39  3956.83  3.35
500.7  119797.70  4140.37  3.46
502.2  121547.57  4341.32  3.57
503.6  123295.50  4584.63  3.72
505.0  124952.75  4854.22  3.88
506.5  126800.89  5170.74  4.08
507.9  128574.69  5534.37  4.30
509.3  130330.38  5952.28  4.57
510.7  132249.49  6426.78  4.86
512.2  134229.76  6964.57  5.19
513.6  136381.73  7592.10  5.57
515.0  138453.35  8280.05  5.98
516.4  140546.63  9035.55  6.43
517.8  142725.13  9858.17  6.91
519.3  144849.87  10736.74  7.41
520.7  146955.20  11658.44  7.93
522.1  148882.34  12602.78  8.46
523.5  150826.63  13569.77  9.00
524.9  153010.69  14557.08  9.51
526.3  155018.44  15505.06  10.00
527.8  157121.24  16453.22  10.47
529.2  158880.75  17362.25  10.93
530.6  160980.80  18293.61  11.36
532.0  163217.77  19194.10  11.76
533.4  165176.84  20002.66  12.11
534.8  166892.08  20749.15  12.43
536.3  169127.93  21518.96  12.72
537.7  171499.08  22284.21  12.99
539.1  173646.38  22995.59  13.24
540.5  175640.40  23674.55  13.48
541.9  178002.04  24386.38  13.70
543.3  179953.72  25035.10  13.91
544.7  182106.30  25712.81  14.12
546.1  184393.77  26412.21  14.32
547.5  186427.60  27067.89  14.52
549.0  188678.50  27728.06  14.70
550.4  190888.59  28349.65  14.85
551.8  193189.74  28929.78  14.97
553.2  195359.82  29423.19  15.06
554.6  197444.78  29823.23  15.10
556.0  199618.13  30155.49  15.11
557.4  201975.10  30428.85  15.07
558.8  204251.34  30629.98  15.00
560.2  206571.38  30779.35  14.90
561.6  208874.78  30852.48  14.77
563.0  211052.67  30858.18  14.62
564.4  213431.00  30840.54  14.45
565.8  215691.80  30758.78  14.26
567.2  218168.09  30644.58  14.05
568.6  220426.88  30440.53  13.81
570.0  222559.70  30131.81  13.54
571.4  225105.69  29806.29  13.24
572.8  227565.95  29445.38  12.94
574.2  229783.14  29059.56  12.65
575.6  232090.88  28708.77  12.37
577.0  234344.02  28381.23  12.11
578.4  236899.26  28127.65  11.87
579.8  239198.82  27877.36  11.65
581.2  241565.10  27674.78  11.46
582.5  243741.60  27470.91  11.27
583.9  246011.90  27319.46  11.10
585.3  248346.20  27199.16  10.95
586.7  250573.52  27103.28  10.82
588.1  252796.27  27038.09  10.70
589.5  255287.33  27030.26  10.59
590.9  257563.24  27038.22  10.50
592.3  259924.29  27094.40  10.42
593.7  262129.63  27169.41  10.36
595.0  264385.47  27283.55  10.32
596.4  266751.40  27407.92  10.27
597.8  268799.53  27494.26  10.23
599.2  271112.48  27575.90  10.17
600.6  273573.71  27627.87  10.10
602.0  275690.07  27600.57  10.01
603.3  278013.23  27531.60  9.90
604.7  280346.75  27392.67  9.77
606.1  282579.00  27166.83  9.61
607.5  285033.73  26905.60  9.44
608.9  287412.68  26575.53  9.25
610.2  289665.46  26193.00  9.04
611.6  291927.84  25802.29  8.84
613.0  294110.24  25394.21  8.63
614.4  296159.97  24981.40  8.44
615.8  298515.80  24615.30  8.25
617.1  300599.68  24276.04  8.08
618.5  303024.87  24009.54  7.92
619.9  305151.45  23786.04  7.79
621.3  307401.48  23632.84  7.69
622.6  309626.25  23541.80  7.60
624.0  311711.22  23489.02  7.54
625.4  313954.66  23510.69  7.49
626.8  316203.07  23571.14  7.45
628.1  318197.73  23654.91  7.43
629.5  320420.56  23789.04  7.42
630.9  322533.14  23935.36  7.42
632.2  324606.21  24046.67  7.41
633.6  326526.76  24099.87  7.38
635.0  328675.05  24084.39  7.33
636.3  330892.73  23977.12  7.25
637.7  332900.18  23738.48  7.13
639.1  335180.58  23406.56  6.98
640.4  337260.69  22961.43  6.81
641.8  339224.37  22440.69  6.62
643.2  341294.40  21857.56  6.40
644.5  343369.25  21237.00  6.18
645.9  345426.55  20610.77  5.97
647.2  346991.49  20002.72  5.76
648.6  348991.23  19488.34  5.58
650.0  351022.50  19058.71  5.43
651.3  353021.63  18675.84  5.29
652.7  356129.40  18363.50  5.16
654.0  358534.70  18011.69  5.02
655.4  360354.36  17611.46  4.89
656.8  361383.38  17136.02  4.74
658.1  363448.34  16643.68  4.58
659.5  366044.44  16123.69  4.40
660.8  368070.68  15563.10  4.23
662.2  369856.98  15013.10  4.06
663.5  372024.49  14506.84  3.90
664.9  373510.84  14021.50  3.75
666.2  375022.62  13626.54  3.63
667.6  377170.43  13341.21  3.54
668.9  378890.92  13139.75  3.47
670.3  381328.32  13012.03  3.41
671.6  382865.45  12942.91  3.38
673.0  384585.50  12941.75  3.37
674.3  386415.38  12994.42  3.36
675.7  388304.33  13105.27  3.37
677.0  389960.03  13257.64  3.40
678.4  391691.54  13446.89  3.43
679.7  393364.37  13719.46  3.49
681.1  395227.63  14085.56  3.56
682.4  396784.02  14556.07  3.67
683.8  398534.98  15225.71  3.82
685.1  400165.50  16128.50  4.03
686.4  401911.69  17407.81  4.33
687.8  403676.28  19188.57  4.75
689.1  405466.08  21621.95  5.33
690.5  407047.53  24851.84  6.11
691.8  408742.22  29033.89  7.10
693.1  410631.30  34212.26  8.33
694.5  412372.18  40265.77  9.76
695.8  414176.80  47013.94  11.35
697.1  415904.50  54296.57  13.06
698.5  417531.99  61951.28  14.84
699.8  419260.79  69795.24  16.65
701.1  420813.39  77656.85  18.45
702.5  422199.48  85397.67  20.23
703.8  423863.70  92994.28  21.94
705.1  425324.19  100260.79  23.57
706.5  426978.52  107248.85  25.12
707.8  428362.73  113884.84  26.59
709.1  429920.38  120241.38  27.97
710.5  431510.29  126348.86  29.28
711.8  432867.20  132135.91  30.53
713.1  434314.95  137730.17  31.71
714.4  435788.18  143076.60  32.83
715.8  437320.92  148246.01  33.90
717.1  439062.53  153275.65  34.91
718.4  440651.80  158054.47  35.87
719.7  442238.69  162639.59  36.78
721.0  443320.08  166848.62  37.64
722.4  444606.20  170927.50  38.44
723.7  446022.65  174844.42  39.20
725.0  447385.69  178540.54  39.91
726.3  448929.45  182134.16  40.57
727.6  450036.64  185340.65  41.18
729.0  451364.38  188442.30  41.75
730.3  452707.49  191362.74  42.27
731.6  453868.30  194054.42  42.76
732.9  455190.34  196630.78  43.20
734.2  456394.82  199013.22  43.61
735.5  457740.37  201316.49  43.98
736.8  459079.52  203470.55  44.32
738.1  460404.98  205473.92  44.63
739.5  461730.39  207365.69  44.91
740.8  462993.03  209133.83  45.17
742.1  464095.54  210705.84  45.40
743.4  465210.93  212217.15  45.62
744.7  466512.63  213715.75  45.81
746.0  467653.48  215058.69  45.99
747.3  468679.18  216272.11  46.15
748.6  469785.85  217425.50  46.28
749.9  470954.33  218544.18  46.40
751.2  471790.33  219498.61  46.52
752.5  472857.00  220500.51  46.63
753.8  473708.13  221365.98  46.73
755.1  474765.63  222272.58  46.82
756.4  475591.58  223024.25  46.89
757.7  477068.33  224040.09  46.96
759.0  479703.53  225558.56  47.02
760.3  481540.65  226677.42  47.07
761.6  483653.07  227916.66  47.12
762.9  484525.25  228539.24  47.17
764.2  485034.45  228984.37  47.21
765.5  485547.03  229360.28  47.24
766.8  485949.15  229711.94  47.27
768.1  486677.55  230189.81  47.30
769.3  487551.15  230718.84  47.32
770.6  488461.80  231297.23  47.35
771.9  489336.56  231818.92  47.37
773.2  490170.27  232307.58  47.39
774.5  490863.00  232713.38  47.41
775.8  491632.62  233165.41  47.43
777.1  492426.64  233630.67  47.44
778.4  493133.37  234056.92  47.46
779.6  494045.44  234585.03  47.48
780.9  494533.39  234907.15  47.50
782.2  495194.75  235292.91  47.52
783.5  495694.00  235594.32  47.53
784.8  496275.87  235936.28  47.54
786.0  496758.04  236234.65  47.56
787.3  497262.16  236537.64  47.57
788.6  497828.52  236891.62  47.58
789.9  498336.40  237195.52  47.60
791.2  499237.88  237688.55  47.61
792.4  500050.88  238128.94  47.62
793.7  500954.42  238628.83  47.63
795.0  501708.29  239029.88  47.64
796.2  502565.48  239515.92  47.66
797.5  503466.93  239970.39  47.66
798.8  504392.41  240470.01  47.68
800.0  505161.12  240908.30  47.69
801.3  505902.99  241312.69  47.70
802.6  506625.30  241736.66  47.72
803.8  507443.18  242184.43  47.73
805.1  508106.44  242545.64  47.74
806.4  508747.35  242913.54  47.75
807.7  509444.17  243305.38  47.76
808.9  510247.37  243745.44  47.77
810.2  510821.68  244108.38  47.79
811.4  511589.85  244512.93  47.79
812.7  512523.78  245008.43  47.80
814.0  513480.60  245526.75  47.82
815.2  514392.48  246045.55  47.83
816.5  515147.24  246457.17  47.84
817.7  515775.83  246800.29  47.85
819.0  516349.13  247111.15  47.86
820.2  516765.50  247393.67  47.87
821.5  517619.68  247845.55  47.88
822.7  518283.44  248230.28  47.89
824.0  518846.28  248547.66  47.90
825.2  519386.48  248873.70  47.92
826.5  519887.63  249182.78  47.93
827.7  520742.39  249599.58  47.93
829.0  521374.92  249949.94  47.94
830.2  522011.28  250282.55  47.95
831.5  522710.74  250646.26  47.95
832.7  523320.12  250983.27  47.96
834.0  523802.71  251292.93  47.97
835.2  524526.82  251667.66  47.98
836.4  525023.33  251991.31  48.00
837.7  525653.02  252328.80  48.00
838.9  526552.14  252781.71  48.01
840.1  527139.60  253104.02  48.01
841.4  527861.30  253508.50  48.03
842.6  528492.30  253856.88  48.03
843.8  529073.40  254255.71  48.06
845.1  529779.70  254653.74  48.07
846.3  530515.28  255010.09  48.07
847.5  531267.78  255422.15  48.08
848.8  531925.13  255792.24  48.09
850.0  532704.73  256222.62  48.10
851.2  533408.73  256641.03  48.11
852.5  534247.45  257059.06  48.12
853.7  535002.42  257450.63  48.12
854.9  535769.35  257897.64  48.14
856.1  536601.30  258306.71  48.14
857.4  537205.73  258639.07  48.15
858.6  537996.68  259067.05  48.15
859.8  538788.68  259516.91  48.17
861.0  539558.85  259919.54  48.17
862.2  540330.87  260353.87  48.18
863.5  541034.47  260727.50  48.19
864.7  541871.83  261130.37  48.19
865.9  542585.88  261495.08  48.19
867.1  543193.19  261797.76  48.20
868.3  544088.28  262247.90  48.20
869.5  544924.65  262732.89  48.21
870.8  545798.48  263208.47  48.22
872.0  546586.27  263627.82  48.23
873.2  547286.80  263940.66  48.23
874.4  547975.80  264303.92  48.23
875.6  548776.86  264722.19  48.24
876.8  549707.85  265199.70  48.24
878.0  550547.88  265604.26  48.24
879.2  551322.55  266017.38  48.25
880.4  552242.88  266435.86  48.25
881.6  552909.63  266840.84  48.26
882.8  553813.15  267240.37  48.25
884.0  554601.34  267632.67  48.26
885.2  555586.18  268050.06  48.25
886.5  556542.24  268524.00  48.25
887.7  557254.84  268899.67  48.25
888.8  558168.00  269470.83  48.28
890.0  558927.15  269765.03  48.26
891.2  559746.90  270182.55  48.27
892.4  560744.74  270704.24  48.28
893.6  561978.35  271238.73  48.26
894.8  563206.62  271880.17  48.27
896.0  564365.97  272407.77  48.27
897.2  565592.12  272989.65  48.27
898.4  566755.95  273610.80  48.28
899.6  567675.68  274070.22  48.28
900.8  568193.58  274295.64  48.28
902.0  568686.68  274447.03  48.26
903.2  568843.93  274599.23  48.27
904.3  569491.35  274850.54  48.26
905.5  570247.75  275266.48  48.27
906.7  571298.53  275712.30  48.26
907.9  572039.93  276075.04  48.26
909.1  572687.45  276385.17  48.26
910.2  572736.72  276531.99  48.28
911.4  572998.95  276619.52  48.28
912.6  573192.53  276736.00  48.28
913.8  573850.55  276963.35  48.26
915.0  574249.40  277058.57  48.25
916.2  574520.25  277134.99  48.24
917.3  574706.12  277275.66  48.25
918.5  574867.03  277436.34  48.26
919.7  574821.35  277444.04  48.27
920.8  575001.31  277500.14  48.26
922.0  575258.48  277484.27  48.24
923.2  575507.33  277602.69  48.24
924.4  575742.50  277726.89  48.24
925.5  576212.10  277930.29  48.23
926.7  576730.54  278158.87  48.23
927.9  577726.59  278663.67  48.23
929.0  580138.88  279660.68  48.21
930.2  583363.65  281090.13  48.18
931.4  587088.74  282838.13  48.18
932.5  590630.10  284446.39  48.16
933.7  592772.18  285381.01  48.14
934.9  593514.69  285783.38  48.15
936.0  592685.62  285314.46  48.14
937.2  589936.15  283885.51  48.12
938.3  587225.70  282320.39  48.08
939.5  585203.85  281316.22  48.07
940.7  585342.73  281178.26  48.04
941.8  587253.67  282095.08  48.04
943.0  588875.74  282829.05  48.03
944.2  590076.93  283290.85  48.01
945.3  589683.00  282846.35  47.97
946.5  588246.75  281900.19  47.92
947.6  588557.83  281863.00  47.89
948.8  587964.47  281435.58  47.87
949.9  588090.30  281293.92  47.83
951.1  587723.09  280951.75  47.80
952.2  587186.67  280434.83  47.76
953.4  586901.40  280007.46  47.71
954.5  586162.17  279262.91  47.64
955.7  585662.90  278750.27  47.60
956.8  585790.45  278406.93  47.53
958.0  584684.33  277855.80  47.52
959.1  584342.04  277319.07  47.46
960.3  583882.89  276928.80  47.43
961.4  584107.05  276768.07  47.38
962.6  583991.20  276489.77  47.34
963.7  583746.53  276341.52  47.34
964.9  583740.20  276052.13  47.29
966.0  583740.00  275992.24  47.28
967.2  583692.38  275915.31  47.27
968.3  584361.68  276128.99  47.25
969.5  584118.08  276023.97  47.25
970.6  584346.79  275967.99  47.23
971.8  584190.95  275767.53  47.21
972.9  584329.09  275760.74  47.19
974.0  584747.73  275798.77  47.17
975.2  584360.94  275322.87  47.12
976.3  584520.18  275522.45  47.14
977.5  584079.18  275321.86  47.14
978.6  584230.80  275327.03  47.13
979.7  583524.73  275059.82  47.14
980.9  583536.52  274750.47  47.08
982.0  582872.05  274291.45  47.06
983.2  583250.53  274282.15  47.03
984.3  582259.18  273835.98  47.03
985.4  581314.64  273826.00  47.10
986.6  581335.45  273357.95  47.02
987.7  580225.66  273544.15  47.14
988.9  581568.98  273448.46  47.02
990.0  582400.80  273132.76  46.90
993.1  634703.89  295823.72  46.61
996.9  633204.10  295714.62  46.70
1000.7  632685.22  296044.12  46.79
1004.5  632028.65  296389.08  46.89
1008.4  632127.67  296996.48  46.98
1012.2  632510.96  297637.29  47.06
1016.0  631969.88  297830.84  47.13
1019.8  630557.68  297616.63  47.20
1023.7  628858.02  297172.63  47.26
1027.5  626460.08  296405.30  47.31
1031.3  624868.53  295982.88  47.37
1035.1  623569.46  295653.38  47.41
1038.9  622999.69  295663.18  47.46
1042.7  622621.13  295788.08  47.51
1046.5  622169.21  295823.29  47.55
1050.3  621328.30  295599.17  47.58
1054.2  620145.94  295227.93  47.61
1058.0  619503.95  295037.19  47.62
1061.8  618848.72  294912.08  47.65
1065.6  617464.60  294280.98  47.66
1069.4  615809.72  293509.30  47.66
1073.2  614018.41  292563.84  47.65
1077.0  612830.47  291940.65  47.64
1080.8  612749.75  291805.39  47.62
1084.6  612839.33  291782.21  47.61
1088.4  612820.85  291756.04  47.61
1092.2  611985.24  291241.40  47.59
1096.0  610974.87  290573.02  47.56
1099.8  609832.87  289772.53  47.52
1103.6  608392.98  288867.10  47.48
1107.4  606969.60  287943.79  47.44
1111.2  606108.93  287286.65  47.40
1114.9  605463.17  286635.77  47.34
1118.7  605267.80  286109.61  47.27
1122.5  605186.24  285472.84  47.17
1126.3  603585.36  284000.35  47.05
1130.1  603097.28  282711.89  46.88
1133.9  600477.09  280048.01  46.64
1137.7  598302.55  277198.17  46.33
1141.4  595258.76  273675.47  45.98
1145.2  594273.44  270848.36  45.58
1149.0  592545.87  267866.56  45.21
1152.8  589839.60  264718.45  44.88
1156.6  587022.12  261961.82  44.63
1160.3  584477.17  259725.73  44.44
1164.1  580941.00  257400.42  44.31
1167.9  578600.09  255835.94  44.22
1171.7  576683.65  254610.86  44.15
1175.4  574638.82  253377.71  44.09
1179.2  572872.27  252207.22  44.03
1183.0  572805.96  251802.49  43.96
1186.7  572955.13  251540.34  43.90
1190.5  572293.07  251027.77  43.86
1194.3  570484.02  250088.57  43.84
1198.0  568112.79  248970.85  43.82
1201.8  565935.22  247997.79  43.82
1205.6  564636.50  247539.49  43.84
1209.3  563869.61  247515.09  43.90
1213.1  563149.40  247556.47  43.96
1216.8  561979.48  247542.05  44.05
1220.6  560310.45  247268.83  44.13
1224.3  558519.71  246929.53  44.21
1228.1  556568.64  246562.82  44.30
1231.9  554492.85  246017.76  44.37
1235.6  552276.78  245366.38  44.43
1239.4  550235.40  244800.10  44.49
1243.1  548391.48  244229.12  44.54
1246.9  546693.69  243656.38  44.57
1250.6  545107.90  243082.23  44.59
1254.3  543449.18  242474.64  44.62
1258.1  541710.17  241764.30  44.63
1261.8  539640.29  240878.24  44.64
1265.6  537957.01  240091.54  44.63
1269.3  536628.24  239442.38  44.62
1273.1  537161.11  239560.16  44.60
1276.8  536939.24  239231.87  44.55
1280.6  535728.31  238386.88  44.50
1284.3  533218.79  236922.39  44.43
1288.0  531689.05  235813.80  44.35
1291.8  530912.47  234971.70  44.26
1295.5  529850.34  233927.78  44.15
1299.2  528126.99  232481.70  44.02
1302.9  525833.31  230619.64  43.86
1306.7  523313.41  228517.08  43.67
1310.4  520868.41  226245.43  43.44
1314.1  518772.98  223979.48  43.17
1317.9  516734.02  221538.58  42.87
1321.6  514474.52  218851.51  42.54
1325.3  512167.73  215938.01  42.16
1329.0  510182.93  213048.89  41.76
1332.8  507393.88  209657.75  41.32
1336.5  504876.87  206366.05  40.87
1340.2  504068.68  203811.17  40.43
1343.9  504129.95  201588.56  39.99
1347.6  504997.60  199697.10  39.54
1351.4  507187.00  198450.97  39.13
1355.1  510888.45  197834.00  38.72
1358.8  512930.07  196504.87  38.31
1362.5  513810.26  194458.47  37.85
1366.2  510865.44  190555.28  37.30
1369.9  505634.07  185281.97  36.64
1373.6  501562.40  179619.39  35.81
1377.3  500072.29  173797.23  34.75
1381.0  499165.92  166809.45  33.42
1384.8  495910.65  157518.04  31.76
1388.4  491084.43  146742.48  29.88
1392.2  487523.12  135750.09  27.84
1395.9  485812.35  125159.64  25.76
1399.6  482499.90  114724.16  23.78
1403.3  480083.44  105502.40  21.98
1407.0  477318.73  97469.17  20.42
1410.7  474961.59  90851.23  19.13
1414.3  472231.99  85447.23  18.09
1418.1  469754.51  81256.32  17.30
1421.7  467622.72  78008.75  16.68
1425.4  465851.28  75593.96  16.23
1429.1  463154.07  73655.25  15.90
1432.8  461444.60  72351.25  15.68
1436.5  459356.16  71361.14  15.54
1440.2  457279.39  70696.71  15.46
1443.9  455607.38  70301.14  15.43
1447.6  452872.20  69927.23  15.44
1451.2  450543.85  69733.89  15.48
1454.9  448819.54  69732.50  15.54
1458.6  446244.63  69831.72  15.65
1462.3  445233.80  70394.65  15.81
1466.0  444573.90  71287.46  16.04
1469.7  442762.33  72301.31  16.33
1473.3  441055.34  73581.20  16.68
1477.0  437783.63  74778.60  17.08
1480.7  435233.77  76207.86  17.51
1484.4  432268.44  77600.05  17.95
1488.0  429832.26  79177.03  18.42
1491.7  427248.04  80729.23  18.90
1495.4  424722.26  82278.17  19.37
1499.0  422453.37  83842.40  19.85
1502.7  420389.06  85438.81  20.32
1506.4  418243.89  86969.55  20.79
1510.0  416113.53  88461.34  21.26
1513.7  413943.25  89874.13  21.71
1517.4  411958.32  91285.79  22.16
1521.0  410095.23  92659.52  22.59
1524.7  408213.55  93908.92  23.00
1528.3  406349.89  95109.55  23.41
1532.0  404441.27  96238.49  23.80
1535.7  402334.46  97227.69  24.17
1539.3  400354.21  98197.46  24.53
1543.0  399009.31  99253.24  24.87
1546.6  397939.33  100336.88  25.21
1550.3  396653.16  101279.15  25.53
1553.9  394887.55  102066.96  25.85
1557.6  393145.31  102779.11  26.14
1561.2  391227.99  103369.93  26.42
1564.9  389171.52  103907.74  26.70
1568.5  387101.49  104394.87  26.97
1572.2  385336.43  104919.98  27.23
1575.8  383811.05  105479.58  27.48
1579.5  382340.97  105988.18  27.72
1583.1  380613.94  106418.39  27.96
1586.8  378792.04  106779.86  28.19
1590.4  376986.03  107109.37  28.41
1594.0  375090.92  107396.53  28.63
1597.7  373742.05  107825.64  28.85
1601.3  372267.23  108213.88  29.07
1604.9  370604.24  108492.14  29.27
1608.6  368458.32  108562.30  29.46
1612.2  366232.60  108557.22  29.64
1615.8  364188.49  108558.67  29.81
1619.5  362380.97  108596.34  29.97
1623.1  360258.51  108502.69  30.12
1626.7  358194.67  108397.55  30.26
1630.3  356305.77  108264.37  30.39
1634.0  354537.78  108133.02  30.50
1637.6  352879.64  107972.32  30.60
1641.2  351187.75  107706.24  30.67
1644.8  349330.45  107283.35  30.71
1648.5  347412.18  106789.49  30.74
1652.1  345826.39  106310.83  30.74
1655.7  344409.84  105826.84  30.73
1659.3  343061.46  105339.70  30.71
1662.9  340717.57  104549.00  30.68
1666.6  338153.25  103703.59  30.67
1670.2  335732.77  102903.29  30.65
1673.8  333320.74  102041.28  30.61
1677.4  331430.89  101284.07  30.56
1681.0  330191.21  100612.94  30.47
1684.6  329534.96  100037.08  30.36
1688.2  328379.30  99191.70  30.21
1691.8  327181.28  98401.21  30.08
1695.4  326517.51  97729.11  29.93
1699.0  325871.61  97049.95  29.78
1702.6  325393.87  96364.24  29.61
1706.2  324293.36  95461.51  29.44
1709.8  322685.96  94401.47  29.25
1713.4  321484.69  93487.45  29.08
1717.0  320136.30  92569.72  28.92
1720.6  318820.19  91664.77  28.75
1724.2  317696.34  90830.86  28.59
1727.8  316616.32  90061.36  28.44
1731.4  315984.34  89491.09  28.32
1735.0  315934.74  89123.78  28.21
1738.6  315572.18  88624.14  28.08
1742.2  314918.70  87922.50  27.92
1745.8  313752.65  87019.85  27.74
1749.4  312106.21  85956.33  27.54
1753.0  309473.27  84583.50  27.33
1756.6  306733.15  83213.56  27.13
1760.1  304363.87  81984.43  26.94
1763.7  301521.95  80689.05  26.76
1767.3  299185.06  79604.79  26.61
1770.9  297202.53  78672.57  26.47
1774.5  294873.29  77707.64  26.35
1778.0  293209.71  76972.23  26.25
1781.6  291513.22  76306.66  26.18
1785.2  289598.80  75625.08  26.11
1788.8  287603.08  75032.78  26.09
1792.3  285843.20  74517.72  26.07
1795.9  285344.53  74394.86  26.07
1799.5  285743.61  74520.57  26.08
1803.1  288051.08  75238.24  26.12
1806.6  291037.56  76154.80  26.17
1810.2  293392.08  76872.31  26.20
1813.8  293932.94  77068.18  26.22
1817.3  293431.95  76928.14  26.22
1820.9  292458.44  76627.76  26.20
1824.5  291303.70  76254.77  26.18
1828.0  291138.83  76091.35  26.14
1831.6  291974.43  76130.68  26.07
1835.2  292223.16  75911.26  25.98
1838.7  292553.66  75555.53  25.83
1842.3  291633.63  74725.50  25.62
1845.8  289703.46  73397.80  25.34
1849.4  289049.14  72122.24  24.95
1852.9  287474.03  70270.85  24.44
1856.5  285838.56  68008.11  23.79
1860.0  284862.70  65418.04  22.96
1863.6  284918.36  62556.30  21.96
1867.1  286346.88  59443.30  20.76
1870.7  288129.51  55673.69  19.32
1874.2  286311.93  50589.44  17.67
1877.8  281387.88  44720.53  15.89
1881.3  276523.79  38830.70  14.04
1884.9  273586.20  33488.37  12.24
1888.4  271178.14  28571.87  10.54
1891.9  269148.40  24405.64  9.07
1895.5  267585.95  21070.63  7.87
1899.0  267072.11  18630.78  6.98
1901.3  299683.32  15017.59  5.01
1904.1  299856.59  13456.75  4.49
1906.8  298296.50  12289.87  4.12
1909.6  294923.32  11286.95  3.83
1912.4  291622.09  10475.27  3.59
1915.1  288676.52  9894.90  3.43
1917.9  285809.33  9454.13  3.31
1920.6  283439.19  9123.94  3.22
1923.3  281104.52  8900.67  3.17
1926.1  278103.31  8707.59  3.13
1928.8  274923.70  8569.00  3.12
1931.6  273344.81  8532.38  3.12
1934.3  270550.65  8541.28  3.16
1937.0  267760.02  8548.32  3.19
1939.8  265228.45  8590.25  3.24
1942.5  261923.72  8663.19  3.31
1945.2  258829.41  8764.38  3.39
1947.9  256370.42  8879.53  3.46
1950.7  253399.24  9034.03  3.57
1953.4  250569.62  9197.09  3.67
1956.1  248391.31  9405.79  3.79
1958.8  246553.66  9636.23  3.91
1961.5  244221.20  9859.43  4.04
1964.2  241670.27  10107.67  4.18
1966.9  239307.84  10365.79  4.33
1969.6  237248.62  10656.92  4.49
1972.3  235209.49  10958.69  4.66
1975.0  233376.72  11248.39  4.82
1977.7  231664.54  11586.78  5.00
1980.4  229956.34  11921.62  5.18
1983.1  228171.54  12260.89  5.37
1985.8  226601.70  12620.85  5.57
1988.4  225028.99  12978.49  5.77
1991.1  223630.87  13367.09  5.98
1993.8  222413.93  13761.57  6.19
1996.5  221325.24  14154.72  6.40
1999.1  220275.40  14551.45  6.61
2001.8  219280.98  14933.30  6.81
2004.5  218314.95  15322.98  7.02
2007.1  217177.98  15693.61  7.23
2009.8  215800.44  16042.72  7.43
2012.4  214830.28  16404.83  7.64
2015.1  213947.95  16770.57  7.84
2017.8  212962.78  17107.81  8.03
2020.4  212132.09  17448.57  8.23
2023.1  211720.41  17787.55  8.40
2025.7  211454.89  18131.75  8.57
2028.3  210869.23  18443.56  8.75
2031.0  210359.77  18734.39  8.91
2033.6  210063.23  19041.30  9.06
2036.2  209725.62  19310.67  9.21
2038.9  208916.10  19517.05  9.34
2041.5  208248.93  19742.44  9.48
2044.1  207560.49  19955.75  9.61
2046.8  206785.05  20141.29  9.74
2049.4  206018.60  20296.25  9.85
2052.0  205746.30  20508.05  9.97
2054.6  205350.98  20679.90  10.07
2057.2  204526.08  20834.66  10.19
2059.8  203576.84  20999.07  10.32
2062.4  202428.55  21141.38  10.44
2065.0  201462.76  21262.15  10.55
2067.6  200066.85  21360.89  10.68
2070.2  199010.73  21475.54  10.79
2072.8  198224.04  21593.10  10.89
2075.4  197463.79  21741.75  11.01
2078.0  196791.73  21893.86  11.13
2080.6  195865.82  22019.32  11.24
2083.2  194843.84  22116.61  11.35
2085.8  193927.73  22220.17  11.46
2088.4  193035.74  22317.69  11.56
2090.9  191778.13  22398.46  11.68
2093.5  190353.20  22431.40  11.78
2096.1  189055.09  22476.26  11.89
2098.7  187880.51  22536.51  12.00
2101.2  186416.20  22567.14  12.11
2103.8  185317.90  22654.43  12.22
2106.4  184228.98  22711.63  12.33
2108.9  183360.93  22799.29  12.43
2111.5  182457.61  22867.02  12.53
2114.0  181835.44  22983.54  12.64
2116.6  180447.85  22988.59  12.74
2119.1  179587.34  23068.12  12.85
2121.7  179044.06  23157.63  12.93
2124.2  178768.50  23308.95  13.04
2126.8  177754.91  23333.45  13.13
2129.3  176977.57  23389.26  13.22
2131.9  176748.14  23525.07  13.31
2134.4  176109.89  23594.16  13.40
2136.9  175769.83  23672.87  13.47
2139.4  174941.75  23705.02  13.55
2142.0  174480.17  23784.83  13.63
2144.5  174039.42  23881.07  13.72
2147.0  173701.70  23950.12  13.79
2149.5  173257.08  24026.55  13.87
2152.1  173357.82  24177.39  13.95
2154.6  173350.00  24306.00  14.02
2157.1  173038.44  24359.28  14.08
2159.6  172280.41  24382.65  14.15
2162.1  172112.15  24468.00  14.22
2164.6  171651.88  24518.60  14.28
2167.1  171001.98  24529.25  14.34
2169.6  170914.55  24622.31  14.41
2172.1  170256.20  24641.37  14.47
2174.6  169909.75  24668.70  14.52
2177.1  169120.17  24658.56  14.58
2179.5  168674.61  24686.93  14.64
2182.0  168267.13  24754.53  14.71
2184.5  167508.04  24751.95  14.78
2187.0  166785.79  24734.15  14.83
2189.5  165903.37  24713.10  14.90
2191.9  164865.72  24657.67  14.96
2194.4  163685.68  24595.13  15.03
2196.9  162751.84  24559.83  15.09
2199.3  161684.27  24482.20  15.14
2201.8  160628.67  24399.41  15.19
2204.3  160001.45  24385.45  15.24
2206.7  159040.53  24311.40  15.29
2209.2  158180.75  24236.49  15.32
2211.6  156858.17  24108.55  15.37
2214.1  156348.59  24048.66  15.38
2216.5  155893.47  24021.18  15.41
2219.0  155043.59  23888.07  15.41
2221.4  154880.34  23841.31  15.39
2223.9  154026.17  23667.79  15.37
2226.3  153115.97  23470.74  15.33
2228.7  152348.95  23280.14  15.28
2231.1  151703.09  23055.95  15.20
2233.6  150900.07  22806.34  15.11
2236.0  150065.18  22530.05  15.01
2238.4  149381.69  22246.56  14.89
2240.9  148775.37  21960.10  14.76
2243.3  148060.58  21623.17  14.60
2245.7  147335.46  21278.92  14.44
2248.1  146568.07  20946.90  14.29
2250.5  145902.99  20611.06  14.13
2252.9  145272.25  20268.22  13.95
2255.3  144624.19  19883.97  13.75
2257.7  143904.37  19530.80  13.57
2260.1  143192.32  19207.99  13.41
2262.5  142353.60  18867.40  13.25
2264.9  141595.18  18542.62  13.10
2267.3  140795.90  18247.30  12.96
2269.7  140076.07  17956.97  12.82
2272.1  139397.88  17696.22  12.69
2274.5  138719.15  17470.43  12.59
2276.8  138112.14  17216.92  12.47
2279.2  137422.65  16977.63  12.35
2281.6  136904.15  16786.08  12.26
2284.0  136494.05  16620.45  12.18
2286.3  136002.57  16414.07  12.07
2288.7  135528.15  16237.63  11.98
2291.1  134978.44  16026.25  11.87
2293.4  134385.22  15799.14  11.76
2295.8  133738.03  15562.69  11.64
2298.2  133011.28  15334.30  11.53
2300.5  132080.65  15042.80  11.39
2302.9  130968.14  14767.34  11.28
2305.2  129875.04  14504.04  11.17
2307.6  128778.85  14229.69  11.05
2309.9  127841.10  14016.49  10.96
2312.2  127025.17  13846.75  10.90
2314.6  126226.62  13664.54  10.83
2316.9  125338.39  13490.20  10.76
2319.2  124709.94  13340.32  10.70
2321.6  124087.14  13185.81  10.63
2323.9  123380.88  13038.93  10.57
2326.2  122695.47  12875.95  10.49
2328.6  122080.93  12737.38  10.43
2330.9  121662.29  12595.15  10.35
2333.2  121174.34  12417.79  10.25
2335.5  120694.27  12264.99  10.16
2337.8  120202.04  12100.46  10.07
2340.1  119603.39  11922.23  9.97
2342.4  119150.62  11765.09  9.87
2344.8  118541.51  11600.04  9.79
2347.1  117871.67  11410.57  9.68
2349.4  117285.21  11262.35  9.60
2351.6  116604.83  11114.73  9.53
2353.9  115797.27  10946.72  9.45
2356.2  115127.84  10812.49  9.39
2358.5  114395.65  10668.20  9.33
2360.8  113725.59  10500.88  9.23
2363.1  113289.20  10346.76  9.13
2365.4  112839.75  10229.50  9.07
2367.7  112343.00  10118.90  9.01
2369.9  111686.51  9922.04  8.88
2372.2  110768.54  9739.60  8.79
2374.5  109851.53  9577.50  8.72
2376.7  109074.14  9380.88  8.60
2379.0  108110.44  9215.88  8.52
2381.3  107071.44  9009.81  8.41
2383.5  106297.87  8838.93  8.32
2385.8  105655.02  8672.61  8.21
2388.0  104950.67  8521.10  8.12
2390.3  104332.48  8354.88  8.01
2392.5  103842.29  8206.29  7.90
2394.8  103147.69  8060.93  7.81
2397.0  102656.80  7920.80  7.72
2399.3  102129.25  7783.10  7.62
2401.5  101472.35  7612.48  7.50
2403.8  100866.13  7428.90  7.37
2406.0  100378.27  7252.19  7.22
2408.2  99747.50  7114.14  7.13
2410.4  99125.04  6988.69  7.05
2412.7  98683.07  6846.90  6.94
2414.9  98231.49  6720.49  6.84
2417.1  97970.84  6598.47  6.74
2419.3  97548.62  6452.14  6.61
2421.6  96905.11  6319.49  6.52
2423.8  96395.57  6163.65  6.39
2426.0  95986.68  6001.56  6.25
2428.2  95676.70  5890.21  6.16
2430.4  95503.24  5791.26  6.06
2432.6  95309.60  5649.22  5.93
2434.8  94900.69  5524.91  5.82
2437.0  94449.12  5435.95  5.76
2439.2  94007.21  5301.83  5.64
2441.4  93433.15  5169.99  5.53
2443.6  93234.53  5033.51  5.40
2445.7  93138.49  4937.03  5.30
2447.9  92991.65  4887.30  5.26
2450.1  92498.34  4790.97  5.18
2452.3  91798.48  4665.93  5.08
2454.5  91351.75  4572.75  5.01
2456.6  90791.06  4435.19  4.89
2458.8  89949.24  4327.52  4.81
2461.0  89647.01  4219.36  4.71
2463.1  89289.89  4140.50  4.64
2465.3  88877.72  4016.55  4.52
2467.5  88549.13  3942.04  4.45
2469.6  88261.92  3892.34  4.41
2471.8  87880.17  3807.66  4.33
2473.9  87456.54  3778.04  4.32
2476.1  86858.50  3682.29  4.24
2478.2  86241.37  3585.25  4.16
2480.4  85639.25  3525.78  4.12
2482.5  85039.18  3470.40  4.08
2484.6  84441.13  3370.34  3.99
2486.8  83914.44  3318.74  3.95
2488.9  83528.22  3302.06  3.95
2491.1  82660.05  3178.55  3.85
2493.2  81797.34  3104.80  3.80
2495.3  80842.06  3078.85  3.81
2497.4  79994.54  2997.87  3.75
2499.5  79438.33  2919.06  3.67
2501.7  79348.82  2924.12  3.69
2503.8  79410.04  2935.04  3.70
2505.9  79803.44  2961.01  3.71
2508.0  80300.08  2919.20  3.64
2510.1  80756.66  2936.08  3.64
2512.2  81334.76  2965.02  3.65
2514.3  82000.96  2998.76  3.66
2516.4  83020.13  2975.84  3.58
