/*** Spectra Vista SIG Data ***/
name= 26_20220926_CECA_04_avg.sig
comm= Averaged Ref/Tar of files: HR.092622.0073_moc.sig,HR.092622.0074_moc.sig,HR.092622.0075_moc.sig
data=
337.3  3076.75  218.35  7.10
338.8  3222.70  218.05  6.77
340.3  3373.20  206.14  6.11
341.8  3520.83  207.29  5.89
343.2  3729.60  195.36  5.24
344.7  3881.15  193.35  4.98
346.2  4044.15  196.08  4.85
347.7  4247.10  199.25  4.69
349.2  4422.60  191.52  4.33
350.6  4700.80  200.76  4.27
352.1  4930.05  200.06  4.06
353.6  5170.30  203.57  3.94
355.1  5455.35  206.54  3.79
356.6  5735.63  205.39  3.58
358.0  5997.20  212.67  3.55
359.5  6303.60  214.24  3.40
361.0  6613.43  231.42  3.50
362.5  6996.73  234.20  3.35
364.0  7312.13  237.05  3.24
365.4  7671.30  251.03  3.27
366.9  8038.88  257.83  3.21
368.4  8373.43  261.84  3.13
369.9  8756.10  273.85  3.13
371.3  9158.10  291.92  3.19
372.8  9584.55  300.90  3.14
374.3  10024.38  304.58  3.04
375.8  10402.70  312.62  3.01
377.2  10813.80  319.21  2.95
378.7  11217.30  322.80  2.88
380.2  11620.80  329.97  2.84
381.7  12161.25  338.71  2.79
383.1  12639.55  341.37  2.70
384.6  13163.80  352.47  2.68
386.1  13647.63  360.33  2.64
387.6  14094.85  366.52  2.60
389.0  14552.40  378.77  2.60
390.5  15053.85  389.40  2.59
392.0  15631.95  402.04  2.57
393.4  16185.40  413.39  2.55
394.9  16756.20  421.08  2.51
396.4  17284.50  427.80  2.48
397.9  17835.00  440.75  2.47
399.3  18411.28  445.72  2.42
400.8  18967.93  455.30  2.40
402.2  19590.90  474.63  2.42
403.7  20198.93  487.92  2.42
405.2  20834.00  492.44  2.36
406.6  21390.40  513.49  2.40
408.1  21989.80  527.33  2.40
409.6  22608.50  538.51  2.38
411.0  23292.85  557.95  2.40
412.5  23948.75  566.44  2.37
414.0  24592.63  578.65  2.35
415.4  25300.88  593.60  2.35
416.9  25982.70  614.23  2.36
418.4  26686.58  637.44  2.39
419.8  27409.20  660.05  2.41
421.3  28127.85  679.73  2.42
422.7  28901.40  700.64  2.42
424.2  29666.25  724.50  2.44
425.7  30432.10  745.45  2.45
427.1  31206.90  770.15  2.47
428.6  32023.00  797.73  2.49
430.0  32778.00  821.47  2.51
431.5  33640.95  843.76  2.51
432.9  34515.40  869.23  2.52
434.4  35397.08  897.70  2.54
435.9  36246.00  922.13  2.54
437.3  37111.25  947.83  2.55
438.8  37955.70  973.78  2.57
440.2  38834.95  998.95  2.57
441.7  39798.00  1025.55  2.58
443.1  40704.00  1051.17  2.58
444.6  41684.20  1079.44  2.59
446.0  42635.85  1108.93  2.60
447.5  43596.03  1139.12  2.61
448.9  44543.70  1167.88  2.62
450.4  45545.15  1198.31  2.63
451.8  46423.00  1223.73  2.64
453.3  47357.65  1249.97  2.64
454.7  48365.43  1278.85  2.64
456.2  49223.45  1304.87  2.65
457.6  50219.33  1329.27  2.65
459.1  51207.98  1355.60  2.65
460.5  52135.75  1382.08  2.65
462.0  53207.35  1410.21  2.65
463.4  54252.00  1435.76  2.65
464.8  55250.25  1461.50  2.65
466.3  56198.18  1486.65  2.65
467.7  57172.65  1510.72  2.64
469.2  58256.43  1536.99  2.64
470.6  59248.85  1567.98  2.65
472.0  60297.30  1593.29  2.64
473.5  61316.63  1621.55  2.64
474.9  62343.75  1649.20  2.65
476.4  63489.60  1676.16  2.64
477.8  64568.50  1707.13  2.64
479.2  65583.50  1734.20  2.64
480.7  66686.33  1762.09  2.64
482.1  67828.30  1797.58  2.65
483.6  68998.75  1830.33  2.65
485.0  70102.43  1858.59  2.65
486.4  71295.00  1893.44  2.66
487.9  72379.13  1922.70  2.66
489.3  73521.93  1959.41  2.67
490.7  74582.13  1996.71  2.68
492.2  75807.90  2038.40  2.69
493.6  76912.50  2080.30  2.70
495.0  78024.38  2123.55  2.72
496.5  79215.65  2171.90  2.74
497.9  80330.95  2222.77  2.77
499.3  81490.28  2277.56  2.79
500.7  82743.20  2340.09  2.83
502.2  83891.60  2409.97  2.87
503.6  85161.80  2487.84  2.92
505.0  86229.90  2564.73  2.97
506.5  87556.65  2663.44  3.04
507.9  88712.80  2771.29  3.12
509.3  90058.00  2898.83  3.22
510.7  91274.63  3038.10  3.33
512.2  92668.95  3205.73  3.46
513.6  94164.70  3398.08  3.61
515.0  95592.00  3611.25  3.78
516.4  96985.35  3855.60  3.98
517.8  98606.63  4145.22  4.20
519.3  99946.58  4453.33  4.46
520.7  101497.20  4801.35  4.73
522.1  102800.10  5165.16  5.02
523.5  104152.70  5552.59  5.33
524.9  105615.45  5957.58  5.64
526.3  107065.35  6367.57  5.95
527.8  108568.35  6787.44  6.25
529.2  109574.60  7177.83  6.55
530.6  111091.60  7592.99  6.83
532.0  112840.00  8002.40  7.09
533.4  114152.18  8356.77  7.32
534.8  115044.28  8650.91  7.52
536.3  116693.40  8980.12  7.70
537.7  118679.40  9318.96  7.85
539.1  120168.75  9597.07  7.99
540.5  121379.65  9840.83  8.11
541.9  123131.18  10118.65  8.22
543.3  124408.10  10357.31  8.33
544.7  125719.20  10595.92  8.43
546.1  127520.25  10875.11  8.53
547.5  128755.20  11101.44  8.62
549.0  130438.00  11350.53  8.70
550.4  131962.50  11569.92  8.77
551.8  133520.15  11771.16  8.82
553.2  135033.23  11928.93  8.83
554.6  136396.00  12032.11  8.82
556.0  137924.10  12102.60  8.77
557.4  139532.05  12138.07  8.70
558.8  141184.35  12132.96  8.59
560.2  142645.88  12073.73  8.46
561.6  144323.70  11999.87  8.31
563.0  145927.23  11885.63  8.14
564.4  147531.20  11748.48  7.96
565.8  149047.50  11578.42  7.77
567.2  150801.00  11396.43  7.56
568.6  152304.38  11169.35  7.33
570.0  153748.78  10915.00  7.10
571.4  155473.50  10668.41  6.86
572.8  157251.88  10433.77  6.64
574.2  158883.20  10197.97  6.42
575.6  160436.25  9984.00  6.22
577.0  161962.90  9787.31  6.04
578.4  163709.00  9627.80  5.88
579.8  165228.53  9472.23  5.73
581.2  166957.80  9351.06  5.60
582.5  168386.40  9232.08  5.48
583.9  169908.20  9133.20  5.38
585.3  171720.00  9059.82  5.28
586.7  173220.13  8981.87  5.19
588.1  174709.13  8920.77  5.11
589.5  176375.50  8882.07  5.04
590.9  178002.00  8853.60  4.97
592.3  179828.95  8851.93  4.92
593.7  181290.53  8843.77  4.88
595.0  182897.33  8850.96  4.84
596.4  184356.20  8854.35  4.80
597.8  185848.05  8861.36  4.77
599.2  187400.40  8866.88  4.73
600.6  189161.70  8876.23  4.69
602.0  190460.48  8851.55  4.65
603.3  192260.95  8830.99  4.59
604.7  193925.18  8786.64  4.53
606.1  195421.80  8723.44  4.46
607.5  197066.60  8646.50  4.39
608.9  198779.40  8564.88  4.31
610.2  200165.18  8457.75  4.23
611.6  201796.28  8354.34  4.14
613.0  203369.30  8253.84  4.06
614.4  204733.05  8142.18  3.98
615.8  206197.88  8053.50  3.91
617.1  207740.40  7975.24  3.84
618.5  209375.60  7915.04  3.78
619.9  210890.25  7864.48  3.73
621.3  212527.35  7826.94  3.68
622.6  214125.25  7810.03  3.65
624.0  215604.75  7803.28  3.62
625.4  217083.08  7812.42  3.60
626.8  218666.18  7832.98  3.58
628.1  219962.33  7852.90  3.57
629.5  221765.50  7894.54  3.56
630.9  223275.25  7924.51  3.55
632.2  224562.28  7946.56  3.54
633.6  226084.25  7952.85  3.52
635.0  227590.40  7937.23  3.49
636.3  229121.20  7904.95  3.45
637.7  230514.13  7841.92  3.40
639.1  232155.00  7774.67  3.35
640.4  233645.83  7685.09  3.29
641.8  234862.20  7569.68  3.22
643.2  236433.93  7469.56  3.16
644.5  237797.50  7363.27  3.10
645.9  239425.65  7269.30  3.04
647.2  240840.95  7192.55  2.99
648.6  242574.75  7136.10  2.94
650.0  243972.00  7093.44  2.91
651.3  244615.53  7039.23  2.88
652.7  246312.30  7019.49  2.85
654.0  248396.30  7010.45  2.82
655.4  249841.75  6981.30  2.79
656.8  249995.10  6909.88  2.76
658.1  251311.70  6873.56  2.74
659.5  253720.43  6847.75  2.70
660.8  255397.50  6804.00  2.66
662.2  256412.80  6731.95  2.63
663.5  258047.50  6689.30  2.59
664.9  259188.80  6641.79  2.56
666.2  259939.80  6606.72  2.54
667.6  261649.00  6602.25  2.52
668.9  262686.55  6604.33  2.51
670.3  264248.75  6623.00  2.51
671.6  265544.25  6649.30  2.50
673.0  266739.00  6681.75  2.50
674.3  268028.80  6744.92  2.52
675.7  269359.15  6819.70  2.53
677.0  270444.98  6892.36  2.55
678.4  271766.48  6995.14  2.57
679.7  272845.70  7109.67  2.61
681.1  274171.50  7240.60  2.64
682.4  275299.70  7396.13  2.69
683.8  276515.20  7572.93  2.74
685.1  277513.88  7785.05  2.81
686.4  278765.40  8051.20  2.89
687.8  280060.75  8383.80  2.99
689.1  281128.75  8811.00  3.13
690.5  282436.95  9395.94  3.33
691.8  283319.85  10188.67  3.60
693.1  284619.90  11294.80  3.97
694.5  285785.50  12764.27  4.47
695.8  287036.75  14651.00  5.10
697.1  288197.00  16971.50  5.89
698.5  289266.10  19745.97  6.83
699.8  290398.73  22950.12  7.90
701.1  291532.48  26559.98  9.11
702.5  292360.75  30457.53  10.42
703.8  293310.00  34620.00  11.80
705.1  294485.10  38992.59  13.24
706.5  295529.00  43494.02  14.72
707.8  296517.45  48094.22  16.22
709.1  297391.33  52740.58  17.73
710.5  298529.90  57494.32  19.26
711.8  299422.10  62234.84  20.78
713.1  300425.60  67033.80  22.31
714.4  301317.60  71823.84  23.84
715.8  302142.70  76593.07  25.35
717.1  303490.65  81467.24  26.84
718.4  304438.40  86213.12  28.32
719.7  305570.10  90933.85  29.76
721.0  306090.00  95403.00  31.17
722.4  306882.95  99839.37  32.53
723.7  307858.80  104217.18  33.85
725.0  308900.93  108486.12  35.12
726.3  309872.20  112563.77  36.33
727.6  310420.00  116331.42  37.48
729.0  311321.50  120050.58  38.56
730.3  312149.93  123536.80  39.58
731.6  313103.75  126874.35  40.52
732.9  313886.65  129976.91  41.41
734.2  314697.63  132907.13  42.23
735.5  315729.03  135758.07  43.00
736.8  316537.20  138332.16  43.70
738.1  317415.90  140751.88  44.34
739.5  318408.93  143057.98  44.93
740.8  319129.53  145081.27  45.46
742.1  319820.48  146968.60  45.95
743.4  320500.00  148730.00  46.41
744.7  321409.23  150459.23  46.81
746.0  322274.55  152035.78  47.18
747.3  322865.73  153364.41  47.50
748.6  323574.50  154651.07  47.79
749.9  324246.00  155809.33  48.05
751.2  324861.45  156875.59  48.29
752.5  325672.10  157949.49  48.50
753.8  326250.40  158838.47  48.69
755.1  326950.00  159712.80  48.85
756.4  327570.73  160477.01  48.99
757.7  328597.15  161386.87  49.11
759.0  330435.00  162629.97  49.22
760.3  331610.40  163535.68  49.32
761.6  333165.00  164565.33  49.39
762.9  333706.25  165065.33  49.46
764.2  334098.00  165449.35  49.52
765.5  334353.30  165753.33  49.57
766.8  334804.80  166108.59  49.61
768.1  335321.20  166486.05  49.65
769.3  335892.20  166873.28  49.68
770.6  336545.95  167293.79  49.71
771.9  337254.75  167742.68  49.74
773.2  337590.80  167995.47  49.76
774.5  338223.60  168351.04  49.78
775.8  338900.95  168718.65  49.78
777.1  339451.75  169038.91  49.80
778.4  339799.90  169236.91  49.80
779.6  340559.33  169654.45  49.82
780.9  340980.00  169916.00  49.83
782.2  341431.75  170170.37  49.84
783.5  341752.50  170332.33  49.84
784.8  342249.98  170601.99  49.85
786.0  342650.00  170793.37  49.84
787.3  343014.55  170988.99  49.85
788.6  343391.75  171214.26  49.86
789.9  343831.60  171454.27  49.87
791.2  344448.05  171783.18  49.87
792.4  345116.35  172111.91  49.87
793.7  345623.20  172348.45  49.87
795.0  346198.88  172669.86  49.88
796.2  346836.15  172977.71  49.87
797.5  347527.80  173324.05  49.87
798.8  348128.68  173645.16  49.88
800.0  348794.48  173975.08  49.88
801.3  349231.40  174204.16  49.88
802.6  349842.83  174499.65  49.88
803.8  350485.90  174806.76  49.88
805.1  350928.38  175041.53  49.88
806.4  351396.30  175260.00  49.88
807.7  351892.35  175528.08  49.88
808.9  352419.60  175804.72  49.89
810.2  352944.20  176060.78  49.88
811.4  353361.20  176300.99  49.89
812.7  354046.88  176626.67  49.89
814.0  354836.45  177032.79  49.89
815.2  355501.25  177342.87  49.89
816.5  355913.23  177566.27  49.89
817.7  356340.60  177804.65  49.90
819.0  356811.40  178058.10  49.90
820.2  357016.00  178135.47  49.90
821.5  357691.15  178498.79  49.90
822.7  358034.70  178673.26  49.90
824.0  358387.20  178857.00  49.91
825.2  358860.38  179102.61  49.91
826.5  359148.18  179266.80  49.91
827.7  359659.23  179555.87  49.92
829.0  360077.75  179769.26  49.93
830.2  360441.05  179925.47  49.92
831.5  360929.55  180172.23  49.92
832.7  361261.95  180342.40  49.92
834.0  361609.48  180513.35  49.92
835.2  361949.78  180693.00  49.92
836.4  362246.50  180877.84  49.93
837.7  362598.00  181093.04  49.94
838.9  363054.40  181328.93  49.95
840.1  363434.18  181528.47  49.95
841.4  363875.50  181776.53  49.96
842.6  364313.40  181992.93  49.96
843.8  364667.80  182191.31  49.96
845.1  365121.20  182449.81  49.97
846.3  365588.30  182695.99  49.97
847.5  365948.10  182935.48  49.99
848.8  366350.40  183158.72  50.00
850.0  366753.10  183364.02  50.00
851.2  367312.05  183658.14  50.00
852.5  367731.70  183872.28  50.00
853.7  368271.00  184144.20  50.00
854.9  368705.80  184392.56  50.01
856.1  369162.30  184639.17  50.02
857.4  369374.95  184755.30  50.02
858.6  369886.20  185007.17  50.02
859.8  370323.75  185222.00  50.02
861.0  370866.60  185449.68  50.00
862.2  371366.88  185704.76  50.01
863.5  371766.20  185921.41  50.01
864.7  372292.80  186194.80  50.01
865.9  372651.80  186406.64  50.02
867.1  372974.50  186561.40  50.02
868.3  373501.50  186775.70  50.01
869.5  374013.60  187037.06  50.01
870.8  374544.00  187312.80  50.01
872.0  375103.58  187590.45  50.01
873.2  375588.90  187820.50  50.01
874.4  375999.98  188023.68  50.01
875.6  376378.45  188205.18  50.00
876.8  376958.10  188441.41  49.99
878.0  377467.95  188687.71  49.99
879.2  377958.45  188937.90  49.99
880.4  378570.38  189170.90  49.97
881.6  379065.15  189402.89  49.97
882.8  379464.80  189609.71  49.97
884.0  380064.25  189876.29  49.96
885.2  380618.00  190110.21  49.95
886.5  381255.35  190375.93  49.93
887.7  381796.03  190612.93  49.93
888.8  382350.98  190922.96  49.93
890.0  382927.90  191174.27  49.92
891.2  383607.80  191447.84  49.91
892.4  384281.10  191722.44  49.89
893.6  384821.90  191967.74  49.88
894.8  385721.50  192398.07  49.88
896.0  386578.75  192809.67  49.88
897.2  387283.00  193171.33  49.88
898.4  388023.90  193537.96  49.88
899.6  388596.38  193775.35  49.87
900.8  388912.83  193897.66  49.86
902.0  389191.05  193993.04  49.85
903.2  389604.75  194100.58  49.82
904.3  389974.20  194245.76  49.81
905.5  390541.85  194503.40  49.80
906.7  391121.00  194796.27  49.80
907.9  391510.00  195033.39  49.82
909.1  391896.90  195154.38  49.80
910.2  392105.18  195180.19  49.78
911.4  392394.60  195285.87  49.77
912.6  392606.50  195338.95  49.75
913.8  392718.08  195418.42  49.76
915.0  393217.65  195571.74  49.74
916.2  393305.25  195583.70  49.73
917.3  393261.98  195590.34  49.74
918.5  393552.50  195618.36  49.71
919.7  393860.70  195676.24  49.68
920.8  393887.03  195724.12  49.69
922.0  394009.00  195710.90  49.67
923.2  394212.00  195741.00  49.65
924.4  394368.75  195754.50  49.64
925.5  394663.90  195821.39  49.62
926.7  395375.38  196059.87  49.59
927.9  396059.40  196463.20  49.60
929.0  397452.15  197141.76  49.60
930.2  399716.30  198091.97  49.56
931.4  402215.63  199253.79  49.54
932.5  404994.85  200446.62  49.49
933.7  406278.75  201110.64  49.50
934.9  406791.88  201307.75  49.49
936.0  406537.63  200998.42  49.44
937.2  404194.35  199863.60  49.45
938.3  402664.35  198863.93  49.39
939.5  401173.20  197941.44  49.34
940.7  401214.60  197914.20  49.33
941.8  402775.80  198557.71  49.30
943.0  404029.50  199182.60  49.30
944.2  404935.05  199405.09  49.24
945.3  404586.00  199082.00  49.21
946.5  403822.80  198533.70  49.16
947.6  403902.60  198404.28  49.12
948.8  403766.03  198164.20  49.08
949.9  403683.00  198031.68  49.06
951.1  403456.30  197610.70  48.98
952.2  403308.00  197308.80  48.92
953.4  403101.25  196915.13  48.85
954.5  402877.80  196644.24  48.81
955.7  402696.00  196350.00  48.76
956.8  402461.30  196022.84  48.71
958.0  402022.50  195658.33  48.67
959.1  401790.50  195327.37  48.61
960.3  401536.35  194926.81  48.55
961.4  401315.05  194645.23  48.50
962.6  401341.50  194549.13  48.47
963.7  401106.38  194297.40  48.44
964.9  401137.95  194192.94  48.41
966.0  400678.65  194012.82  48.42
967.2  400715.55  194026.98  48.42
968.3  400512.60  193671.54  48.36
969.5  400351.40  193503.18  48.33
970.6  400461.58  193330.26  48.28
971.8  400331.23  193308.78  48.29
972.9  400272.45  193288.09  48.29
974.0  400205.20  193367.33  48.32
975.2  400139.63  193213.20  48.29
976.3  400472.43  193077.66  48.21
977.5  400109.15  192869.25  48.20
978.6  400100.00  192741.51  48.17
979.7  399666.23  192711.89  48.22
980.9  399519.55  192635.16  48.22
982.0  398838.45  192491.95  48.26
983.2  398521.50  192107.80  48.21
984.3  398061.60  191707.63  48.16
985.4  397481.03  191624.04  48.21
986.6  397338.88  191361.35  48.16
987.7  397857.25  191754.15  48.20
988.9  397094.40  191469.36  48.22
990.0  398051.90  191627.67  48.14
993.1  374965.79  179686.80  47.92
996.9  374355.00  179759.73  48.02
1000.7  374692.62  180256.75  48.11
1004.5  374809.92  180663.60  48.20
1008.4  374307.83  180770.47  48.29
1012.2  374066.58  180945.06  48.37
1016.0  373657.80  181056.69  48.46
1019.8  373163.18  181075.13  48.52
1023.7  372397.46  180905.87  48.58
1027.5  371284.85  180595.69  48.64
1031.3  370847.30  180529.88  48.68
1035.1  370275.33  180384.63  48.72
1038.9  370073.55  180383.84  48.74
1042.7  369809.33  180370.96  48.77
1046.5  369691.50  180376.88  48.79
1050.3  369687.28  180425.72  48.80
1054.2  369361.42  180314.83  48.82
1058.0  368894.05  180096.68  48.82
1061.8  368807.53  180082.82  48.83
1065.6  368448.93  179869.63  48.82
1069.4  368014.87  179625.95  48.81
1073.2  367140.51  179140.57  48.79
1077.0  366425.10  178713.09  48.77
1080.8  366155.21  178453.57  48.74
1084.6  365621.67  178071.13  48.70
1088.4  365425.63  177906.66  48.68
1092.2  364835.25  177472.28  48.64
1096.0  364266.13  177044.01  48.60
1099.8  363704.03  176576.77  48.55
1103.6  362955.92  176012.71  48.49
1107.4  361940.91  175329.56  48.44
1111.2  361706.60  175000.69  48.38
1114.9  361077.50  174467.92  48.32
1118.7  360676.80  173948.30  48.23
1122.5  360201.40  173328.38  48.12
1126.3  359221.04  172391.83  47.99
1130.1  358821.10  171538.29  47.81
1133.9  357186.90  169892.90  47.56
1137.7  355713.70  168111.04  47.26
1141.4  353812.44  165938.72  46.90
1145.2  352971.68  164096.29  46.49
1149.0  351768.96  162162.29  46.10
1152.8  350083.00  160146.66  45.75
1156.6  348389.07  158380.20  45.46
1160.3  346677.00  156870.05  45.25
1164.1  344355.67  155301.05  45.10
1167.9  342652.08  154175.30  44.99
1171.7  341357.63  153336.38  44.92
1175.4  340041.10  152537.61  44.86
1179.2  338772.35  151760.54  44.80
1183.0  338386.00  151358.48  44.73
1186.7  338087.40  151018.57  44.67
1190.5  337436.47  150535.33  44.61
1194.3  336447.90  149937.13  44.56
1198.0  335116.65  149249.42  44.54
1201.8  333505.15  148500.89  44.53
1205.6  332364.67  148092.33  44.56
1209.3  331637.05  147980.31  44.62
1213.1  331020.60  147928.78  44.69
1216.8  330387.84  147925.27  44.77
1220.6  329395.73  147746.13  44.85
1224.3  328262.08  147494.87  44.93
1228.1  326909.40  147160.09  45.02
1231.9  325536.78  146753.42  45.08
1235.6  323921.78  146208.40  45.14
1239.4  322473.25  145751.27  45.20
1243.1  321173.68  145283.66  45.24
1246.9  319955.03  144813.46  45.26
1250.6  318908.47  144409.45  45.28
1254.3  317777.72  143952.04  45.30
1258.1  316641.97  143460.07  45.31
1261.8  315255.87  142837.41  45.31
1265.6  313887.95  142182.26  45.30
1269.3  312740.15  141604.22  45.28
1273.1  312934.22  141581.29  45.24
1276.8  313026.80  141475.77  45.20
1280.6  312357.83  141003.51  45.14
1284.3  310599.60  140013.83  45.08
1288.0  309160.13  139128.44  45.00
1291.8  308283.08  138409.16  44.90
1295.5  307323.87  137610.42  44.78
1299.2  306203.60  136688.94  44.64
1302.9  304737.10  135529.39  44.47
1306.7  303102.57  134232.47  44.29
1310.4  301541.08  132841.85  44.05
1314.1  300087.88  131443.74  43.80
1317.9  298782.92  129985.63  43.51
1321.6  297316.11  128350.05  43.17
1325.3  295654.28  126532.80  42.80
1329.0  294357.00  124794.97  42.40
1332.8  292384.40  122669.80  41.95
1336.5  290677.33  120656.83  41.51
1340.2  290487.17  119255.50  41.05
1343.9  290342.29  117873.28  40.60
1347.6  290228.25  116504.04  40.14
1351.4  291229.50  115636.64  39.71
1355.1  292597.80  114920.98  39.28
1358.8  293680.00  114027.43  38.83
1362.5  293640.95  112564.13  38.33
1366.2  291830.50  110196.06  37.76
1369.9  289258.38  107256.04  37.08
1373.6  286778.98  103923.98  36.24
1377.3  285134.70  100260.86  35.16
1381.0  284355.50  96080.81  33.79
1384.8  282457.50  90610.00  32.08
1388.4  279612.43  84266.42  30.14
1392.2  277566.17  77721.56  28.00
1395.9  276014.60  71185.34  25.79
1399.6  274308.26  64882.58  23.65
1403.3  272997.37  59242.33  21.70
1407.0  271578.60  54317.51  20.00
1410.7  270048.90  50207.03  18.59
1414.3  268463.83  46908.24  17.47
1418.1  267023.08  44380.79  16.62
1421.7  265840.40  42472.31  15.98
1425.4  264654.65  41050.47  15.51
1429.1  263542.88  40014.54  15.18
1432.8  261941.67  39212.01  14.97
1436.5  261127.42  38737.65  14.83
1440.2  260399.20  38465.23  14.77
1443.9  259237.55  38248.92  14.75
1447.6  257703.60  38084.20  14.78
1451.2  256568.22  38043.84  14.83
1454.9  255232.05  38035.16  14.90
1458.6  254068.21  38168.98  15.02
1462.3  252905.77  38431.64  15.20
1466.0  251578.13  38829.82  15.43
1469.7  249918.83  39353.74  15.75
1473.3  248903.33  40124.17  16.12
1477.0  246972.50  40865.69  16.55
1480.7  245345.56  41727.34  17.01
1484.4  243384.92  42550.77  17.48
1488.0  241838.67  43495.05  17.99
1491.7  240237.20  44414.95  18.49
1495.4  238567.41  45328.41  19.00
1499.0  237031.50  46232.22  19.50
1502.7  235755.75  47191.93  20.02
1506.4  234385.43  48090.16  20.52
1510.0  232984.23  48957.50  21.01
1513.7  231525.00  49771.75  21.50
1517.4  230193.33  50574.14  21.97
1521.0  228980.00  51368.15  22.43
1524.7  227755.67  52096.26  22.87
1528.3  226480.25  52781.09  23.30
1532.0  225287.88  53433.60  23.72
1535.7  223913.36  53984.53  24.11
1539.3  222668.11  54533.86  24.49
1543.0  221723.90  55120.79  24.86
1546.6  221023.83  55741.83  25.22
1550.3  220037.05  56240.15  25.56
1553.9  219004.20  56684.64  25.88
1557.6  217764.07  57041.08  26.19
1561.2  216504.00  57344.47  26.49
1564.9  215219.92  57617.01  26.77
1568.5  213900.52  57849.87  27.05
1572.2  212759.15  58106.79  27.31
1575.8  211666.00  58364.00  27.57
1579.5  210686.20  58607.26  27.82
1583.1  209668.13  58840.20  28.06
1586.8  208404.00  58972.00  28.30
1590.4  207272.33  59122.43  28.52
1594.0  205935.28  59199.53  28.75
1597.7  204965.21  59365.55  28.96
1601.3  203864.85  59488.43  29.18
1604.9  202779.08  59585.60  29.38
1608.6  201513.82  59596.97  29.57
1612.2  200375.18  59610.26  29.75
1615.8  199143.75  59571.43  29.91
1619.5  197978.50  59533.51  30.07
1623.1  196692.57  59434.15  30.22
1626.7  195482.30  59329.86  30.35
1630.3  194304.50  59215.42  30.48
1634.0  193214.00  59092.00  30.58
1637.6  192235.07  58969.48  30.68
1641.2  191234.55  58777.17  30.74
1644.8  189996.93  58462.92  30.77
1648.5  188926.98  58160.34  30.78
1652.1  187967.10  57846.26  30.77
1655.7  187056.60  57522.17  30.75
1659.3  186252.88  57250.23  30.74
1662.9  184846.67  56814.41  30.74
1666.6  183429.33  56383.22  30.74
1670.2  182013.24  55922.05  30.72
1673.8  180576.45  55411.00  30.69
1677.4  179432.55  54945.53  30.62
1681.0  178625.83  54504.43  30.51
1684.6  178224.58  54110.18  30.36
1688.2  177568.35  53533.49  30.15
1691.8  176898.11  52968.62  29.94
1695.4  176449.20  52456.83  29.73
1699.0  176080.57  51988.27  29.53
1702.6  175741.00  51499.67  29.30
1706.2  175118.88  50890.24  29.06
1709.8  174209.83  50203.36  28.82
1713.4  173488.57  49639.12  28.61
1717.0  172619.25  49140.68  28.47
1720.6  171818.48  48717.40  28.35
1724.2  171085.28  48337.81  28.25
1727.8  170350.95  47970.80  28.16
1731.4  169914.25  47663.20  28.05
1735.0  169726.70  47415.13  27.94
1738.6  169501.95  47098.22  27.79
1742.2  168932.28  46637.99  27.61
1745.8  168327.63  46124.60  27.40
1749.4  167377.65  45511.24  27.19
1753.0  165911.53  44760.41  26.98
1756.6  164275.71  44003.25  26.79
1760.1  162946.06  43372.38  26.62
1763.7  161245.33  42666.10  26.46
1767.3  159823.10  42045.59  26.31
1770.9  158592.18  41476.69  26.15
1774.5  157161.60  40877.69  26.01
1778.0  156063.99  40416.34  25.90
1781.6  154984.50  40041.45  25.84
1785.2  153840.98  39713.22  25.81
1788.8  152706.30  39439.04  25.83
1792.3  151495.50  39158.37  25.85
1795.9  150981.78  39072.20  25.88
1799.5  150588.00  39023.43  25.91
1803.1  150837.52  39141.90  25.95
1806.6  152390.29  39584.43  25.98
1810.2  154104.30  40054.63  25.99
1813.8  155161.05  40342.22  26.00
1817.3  154971.00  40295.71  26.00
1820.9  153937.20  40018.95  26.00
1824.5  152611.40  39643.40  25.98
1828.0  151551.58  39316.75  25.94
1831.6  150889.95  39059.71  25.89
1835.2  150421.67  38786.31  25.79
1838.7  150114.80  38469.73  25.63
1842.3  149790.00  38080.71  25.42
1845.8  148757.33  37390.31  25.14
1849.4  148157.65  36662.48  24.75
1852.9  147381.09  35713.29  24.23
1856.5  146403.80  34505.78  23.57
1860.0  145474.36  33075.01  22.74
1863.6  145348.32  31566.86  21.72
1867.1  145620.65  29848.35  20.50
1870.7  146064.85  27773.94  19.01
1874.2  145183.05  25089.37  17.28
1877.8  143153.60  22094.05  15.43
1881.3  140823.63  19026.77  13.51
1884.9  139298.68  16219.37  11.64
1888.4  137949.38  13627.89  9.88
1891.9  136542.47  11424.08  8.37
1895.5  135192.67  9669.58  7.15
1899.0  134399.63  8414.86  6.26
1901.3  175092.17  7012.11  4.00
1904.1  174988.50  6202.75  3.54
1906.8  173965.80  5574.20  3.20
1909.6  171837.75  5085.97  2.96
1912.4  169776.72  4709.21  2.77
1915.1  168294.50  4436.30  2.64
1917.9  166656.17  4243.78  2.55
1920.6  165224.33  4108.57  2.49
1923.3  163744.93  3998.09  2.44
1926.1  161940.03  3927.99  2.43
1928.8  160160.00  3876.89  2.42
1931.6  158698.23  3873.27  2.44
1934.3  157370.98  3882.02  2.47
1937.0  156121.80  3906.51  2.50
1939.8  154776.50  3949.92  2.55
1942.5  153153.00  3993.00  2.61
1945.2  151180.15  4033.70  2.67
1947.9  149607.03  4100.29  2.74
1950.7  148384.97  4189.90  2.82
1953.4  146582.95  4275.22  2.92
1956.1  145186.17  4388.17  3.02
1958.8  143951.82  4499.95  3.13
1961.5  142462.00  4615.33  3.24
1964.2  140940.80  4741.10  3.36
1966.9  139351.90  4874.93  3.50
1969.6  138123.00  5031.00  3.64
1972.3  136748.50  5188.70  3.79
1975.0  135705.90  5357.20  3.95
1977.7  134586.42  5530.99  4.11
1980.4  133428.67  5710.02  4.28
1983.1  132319.00  5892.47  4.45
1985.8  131396.10  6092.90  4.64
1988.4  130364.00  6300.67  4.83
1991.1  129439.57  6509.53  5.03
1993.8  128569.28  6715.25  5.22
1996.5  127923.03  6936.42  5.42
1999.1  127233.70  7163.32  5.63
2001.8  126564.67  7381.50  5.83
2004.5  125892.10  7603.35  6.04
2007.1  125182.80  7810.95  6.24
2009.8  124423.60  8017.49  6.44
2012.4  123847.35  8243.28  6.66
2015.1  123309.90  8446.28  6.85
2017.8  122524.27  8621.82  7.04
2020.4  122029.23  8820.59  7.23
2023.1  121678.20  9016.08  7.41
2025.7  121446.00  9218.44  7.59
2028.3  121116.67  9412.00  7.77
2031.0  120733.07  9580.61  7.94
2033.6  120451.50  9744.00  8.09
2036.2  120199.20  9894.80  8.23
2038.9  119607.60  10013.70  8.37
2041.5  119244.00  10154.92  8.52
2044.1  118685.40  10263.10  8.65
2046.8  118320.00  10379.10  8.77
2049.4  117693.60  10460.30  8.89
2052.0  117402.20  10573.16  9.01
2054.6  117005.00  10672.08  9.12
2057.2  116441.53  10756.56  9.24
2059.8  116109.67  10878.82  9.37
2062.4  115234.33  10942.32  9.50
2065.0  114694.87  11030.20  9.62
2067.6  113804.80  11073.07  9.73
2070.2  113212.07  11151.52  9.85
2072.8  112575.75  11229.97  9.98
2075.4  112131.25  11319.58  10.09
2078.0  111521.98  11389.05  10.21
2080.6  110968.00  11457.60  10.33
2083.2  110284.67  11507.71  10.43
2085.8  109782.88  11573.51  10.54
2088.4  109109.33  11621.72  10.65
2090.9  108321.57  11658.57  10.76
2093.5  107435.50  11677.20  10.87
2096.1  106673.58  11702.33  10.97
2098.7  105900.65  11725.75  11.07
2101.2  104931.00  11728.87  11.18
2103.8  104276.00  11757.98  11.28
2106.4  103612.27  11784.18  11.37
2108.9  102957.27  11813.29  11.47
2111.5  102110.13  11816.20  11.57
2114.0  101481.33  11833.67  11.66
2116.6  100948.75  11865.00  11.75
2119.1  100395.87  11884.68  11.84
2121.7  99907.50  11911.67  11.92
2124.2  99501.67  11948.97  12.01
2126.8  98707.10  11936.55  12.09
2129.3  98313.60  11968.00  12.17
2131.9  97715.20  11970.93  12.25
2134.4  97270.35  11991.75  12.33
2136.9  96881.63  12022.11  12.41
2139.4  96354.07  12035.02  12.49
2142.0  95919.60  12052.76  12.57
2144.5  95648.30  12089.17  12.64
2147.0  95399.07  12131.47  12.72
2149.5  94907.73  12146.35  12.80
2152.1  94747.22  12190.38  12.87
2154.6  94692.27  12249.07  12.94
2157.1  94166.92  12250.39  13.01
2159.6  93749.08  12256.44  13.07
2162.1  93584.40  12291.07  13.13
2164.6  93333.53  12311.73  13.19
2167.1  93008.80  12336.28  13.26
2169.6  92682.80  12350.33  13.33
2172.1  92231.77  12351.12  13.39
2174.6  91906.80  12374.09  13.46
2177.1  91477.97  12374.69  13.53
2179.5  91079.73  12381.85  13.59
2182.0  90592.15  12382.52  13.67
2184.5  90061.23  12386.00  13.75
2187.0  89446.87  12363.96  13.82
2189.5  88792.45  12337.82  13.90
2191.9  88008.00  12296.17  13.97
2194.4  87372.95  12271.75  14.05
2196.9  86611.20  12227.20  14.12
2199.3  85965.67  12192.89  14.18
2201.8  85069.33  12121.24  14.25
2204.3  84609.85  12107.22  14.31
2206.7  83971.25  12059.68  14.36
2209.2  83494.40  12031.31  14.41
2211.6  82863.00  11982.30  14.46
2214.1  82575.05  11973.17  14.50
2216.5  81999.67  11916.69  14.53
2219.0  81671.87  11883.58  14.55
2221.4  81286.92  11850.42  14.58
2223.9  80810.92  11794.22  14.59
2226.3  80295.25  11704.97  14.58
2228.7  79748.62  11596.44  14.54
2231.1  79150.50  11477.40  14.50
2233.6  78562.73  11347.18  14.44
2236.0  77994.58  11195.92  14.35
2238.4  77488.83  11037.25  14.24
2240.9  77033.00  10886.93  14.13
2243.3  76486.67  10708.13  14.00
2245.7  75928.45  10520.47  13.86
2248.1  75427.73  10322.14  13.68
2250.5  74904.95  10106.46  13.49
2252.9  74271.60  9883.61  13.31
2255.3  73719.55  9664.77  13.11
2257.7  73270.00  9460.00  12.91
2260.1  72771.77  9250.73  12.71
2262.5  72150.00  9026.67  12.51
2264.9  71620.43  8825.27  12.32
2267.3  71000.00  8626.67  12.15
2269.7  70514.27  8444.72  11.98
2272.1  69956.40  8277.11  11.83
2274.5  69394.15  8106.47  11.68
2276.8  68914.67  7953.23  11.54
2279.2  68340.00  7792.10  11.40
2281.6  67899.67  7660.73  11.28
2284.0  67417.50  7514.40  11.15
2286.3  66950.93  7370.31  11.01
2288.7  66537.90  7243.74  10.89
2291.1  65984.53  7101.93  10.76
2293.4  65542.40  6967.65  10.63
2295.8  64931.20  6815.17  10.50
2298.2  64325.25  6668.85  10.37
2300.5  63631.80  6513.60  10.24
2302.9  62878.33  6348.11  10.10
2305.2  62170.80  6204.03  9.98
2307.6  61487.33  6090.27  9.90
2309.9  60698.00  5958.89  9.82
2312.2  60119.33  5855.56  9.74
2314.6  59522.85  5758.05  9.67
2316.9  58829.40  5661.45  9.62
2319.2  58271.03  5556.53  9.54
2321.6  57637.88  5454.71  9.46
2323.9  57083.33  5364.58  9.40
2326.2  56538.23  5258.40  9.30
2328.6  56022.45  5165.78  9.22
2330.9  55513.50  5082.00  9.15
2333.2  55043.92  4995.33  9.08
2335.5  54602.10  4914.87  9.00
2337.8  54143.12  4830.93  8.92
2340.1  53560.82  4733.88  8.84
2342.4  53126.67  4651.11  8.75
2344.8  52705.67  4570.45  8.67
2347.1  52135.53  4485.37  8.60
2349.4  51580.03  4391.98  8.51
2351.6  50985.13  4307.52  8.45
2353.9  50499.57  4225.77  8.37
2356.2  49991.65  4153.93  8.31
2358.5  49414.40  4061.87  8.22
2360.8  48832.00  3972.27  8.13
2363.1  48388.70  3899.66  8.06
2365.4  47900.70  3830.70  8.00
2367.7  47424.00  3762.00  7.93
2369.9  46910.65  3686.90  7.86
2372.2  46279.47  3592.89  7.76
2374.5  45680.25  3515.05  7.69
2376.7  45061.05  3426.91  7.61
2379.0  44427.70  3342.64  7.52
2381.3  43820.00  3251.11  7.42
2383.5  43307.73  3168.00  7.32
2385.8  42713.00  3078.94  7.21
2388.0  42185.00  3009.00  7.13
2390.3  41652.00  2931.07  7.04
2392.5  41160.00  2848.00  6.92
2394.8  40704.40  2774.93  6.82
2397.0  40246.27  2705.73  6.72
2399.3  39778.58  2627.54  6.61
2401.5  39322.50  2556.17  6.50
2403.8  38785.18  2479.76  6.39
2406.0  38255.75  2408.83  6.30
2408.2  37861.27  2335.42  6.17
2410.4  37425.03  2288.61  6.12
2412.7  37033.97  2211.73  5.97
2414.9  36672.35  2163.15  5.90
2417.1  36258.50  2095.50  5.78
2419.3  35840.00  2030.93  5.67
2421.6  35443.33  1976.25  5.58
2423.8  35087.80  1923.39  5.48
2426.0  34717.43  1860.94  5.36
2428.2  34352.27  1811.91  5.27
2430.4  34036.13  1760.03  5.17
2432.6  33773.33  1711.11  5.07
2434.8  33470.13  1653.01  4.94
2437.0  33099.73  1607.52  4.86
2439.2  32750.88  1558.92  4.76
2441.4  32420.07  1513.30  4.67
2443.6  32179.02  1464.57  4.55
2445.7  31917.78  1425.35  4.47
2447.9  31632.58  1377.75  4.36
2450.1  31303.40  1334.75  4.26
2452.3  30943.73  1298.73  4.20
2454.5  30579.27  1262.32  4.13
2456.6  30202.53  1217.42  4.03
2458.8  29829.80  1186.90  3.98
2461.0  29539.75  1134.11  3.84
2463.1  29245.50  1100.95  3.76
2465.3  28974.00  1073.11  3.70
2467.5  28733.00  1052.17  3.66
2469.6  28461.00  1024.28  3.60
2471.8  28171.27  996.11  3.54
2473.9  27874.00  965.33  3.46
2476.1  27482.00  940.33  3.42
2478.2  27130.57  924.15  3.41
2480.4  26862.50  900.53  3.35
2482.5  26522.95  887.71  3.35
2484.6  26164.42  857.08  3.28
2486.8  25889.30  837.33  3.23
2488.9  25569.00  804.95  3.15
2491.1  25228.00  788.04  3.12
2493.2  24828.17  761.08  3.07
2495.3  24418.77  764.26  3.13
2497.4  24101.70  745.97  3.10
2499.5  23773.32  722.86  3.04
2501.7  23614.70  712.11  3.02
2503.8  23520.35  707.67  3.01
2505.9  23489.58  700.42  2.98
2508.0  23489.85  688.99  2.93
2510.1  23498.70  691.49  2.94
2512.2  23616.45  697.30  2.95
2514.3  23786.12  696.05  2.93
2516.4  23974.90  755.17  3.15
