/*** Spectra Vista SIG Data ***/
name= 48_20220825_CECA_33_avg.sig
comm= Averaged Ref/Tar of files: HR.082522.0062_moc.sig,HR.082522.0063_moc.sig
data=
337.3  3225.63  273.65  8.48
338.8  3367.00  272.11  8.08
340.3  3560.60  248.98  6.99
341.8  3703.73  249.53  6.74
343.2  3907.20  257.52  6.59
344.7  4051.75  262.00  6.47
346.2  4248.40  262.61  6.18
347.7  4404.40  260.67  5.92
349.2  4611.60  245.16  5.32
350.6  4884.43  230.85  4.73
352.1  5144.40  249.06  4.84
353.6  5413.20  246.87  4.56
355.1  5691.08  255.93  4.50
356.6  5997.83  260.33  4.34
358.0  6284.30  257.94  4.10
359.5  6550.80  260.45  3.98
361.0  6852.83  272.75  3.98
362.5  7230.93  271.01  3.75
364.0  7598.88  281.02  3.70
365.4  7952.30  287.43  3.61
366.9  8315.13  293.62  3.53
368.4  8673.45  307.04  3.54
369.9  9053.38  308.09  3.40
371.3  9451.80  326.51  3.45
372.8  9876.60  329.98  3.34
374.3  10293.13  339.40  3.30
375.8  10753.05  344.19  3.20
377.2  11163.50  356.62  3.19
378.7  11593.90  365.84  3.16
380.2  12024.30  373.53  3.11
381.7  12539.60  380.67  3.04
383.1  12989.90  387.31  2.98
384.6  13568.43  387.67  2.86
386.1  14025.98  392.25  2.80
387.6  14526.05  404.25  2.78
389.0  15008.00  420.38  2.80
390.5  15531.75  420.25  2.71
392.0  16081.60  445.87  2.77
393.4  16684.63  451.93  2.71
394.9  17252.10  461.60  2.68
396.4  17802.00  461.32  2.59
397.9  18373.13  476.63  2.59
399.3  18968.43  488.41  2.57
400.8  19541.20  502.78  2.57
402.2  20180.10  515.55  2.55
403.7  20800.80  520.71  2.50
405.2  21402.20  536.41  2.51
406.6  21993.60  559.45  2.54
408.1  22622.60  571.46  2.53
409.6  23245.05  580.74  2.50
411.0  23954.70  592.92  2.48
412.5  24635.98  612.85  2.49
414.0  25285.38  636.28  2.52
415.4  25976.63  656.45  2.53
416.9  26657.33  675.18  2.53
418.4  27377.55  697.91  2.55
419.8  28119.00  720.20  2.56
421.3  28876.50  747.12  2.59
422.7  29667.00  775.05  2.61
424.2  30459.38  804.22  2.64
425.7  31214.50  828.51  2.65
427.1  32013.98  855.46  2.67
428.6  32829.00  884.83  2.70
430.0  33597.45  903.13  2.69
431.5  34491.68  935.59  2.71
432.9  35379.75  966.90  2.73
434.4  36285.23  1000.71  2.76
435.9  37142.00  1027.20  2.77
437.3  38005.00  1052.47  2.77
438.8  38878.80  1080.18  2.78
440.2  39764.73  1107.65  2.79
441.7  40749.40  1142.07  2.80
443.1  41671.25  1173.20  2.82
444.6  42640.50  1207.82  2.83
446.0  43608.98  1240.04  2.84
447.5  44591.25  1269.98  2.85
448.9  45562.80  1308.43  2.87
450.4  46594.10  1339.40  2.87
451.8  47489.00  1375.03  2.90
453.3  48416.73  1406.50  2.90
454.7  49458.95  1441.72  2.91
456.2  50334.35  1471.76  2.92
457.6  51334.43  1504.63  2.93
459.1  52340.60  1534.28  2.93
460.5  53299.38  1562.20  2.93
462.0  54397.55  1593.63  2.93
463.4  55457.60  1623.65  2.93
464.8  56457.38  1649.15  2.92
466.3  57446.40  1681.40  2.93
467.7  58439.40  1705.09  2.92
469.2  59523.18  1738.06  2.92
470.6  60541.45  1765.08  2.92
472.0  61606.28  1796.37  2.92
473.5  62644.38  1831.81  2.92
474.9  63697.50  1862.68  2.92
476.4  64872.00  1894.22  2.92
477.8  65946.00  1930.57  2.93
479.2  66975.50  1964.55  2.93
480.7  68104.88  2000.03  2.94
482.1  69273.30  2035.39  2.94
483.6  70501.55  2074.20  2.94
485.0  71607.83  2109.63  2.95
486.4  72837.30  2149.66  2.95
487.9  73929.38  2192.92  2.97
489.3  75112.23  2242.41  2.99
490.7  76201.88  2285.32  3.00
492.2  77454.30  2333.10  3.01
493.6  78582.60  2384.60  3.03
495.0  79720.88  2441.96  3.06
496.5  80947.30  2509.85  3.10
497.9  82062.60  2581.54  3.15
499.3  83251.28  2648.21  3.18
500.7  84530.50  2736.62  3.24
502.2  85716.60  2828.65  3.30
503.6  87001.40  2938.36  3.38
505.0  88090.45  3057.25  3.47
506.5  89433.08  3199.00  3.58
507.9  90625.23  3351.72  3.70
509.3  91996.80  3529.59  3.84
510.7  93263.63  3729.38  4.00
512.2  94680.98  3960.36  4.18
513.6  96202.40  4227.51  4.39
515.0  97668.85  4528.43  4.64
516.4  99069.08  4856.76  4.90
517.8  100725.38  5234.32  5.20
519.3  102057.83  5632.42  5.52
520.7  103646.85  6073.22  5.86
522.1  104966.23  6522.73  6.21
523.5  106348.90  6997.66  6.58
524.9  107791.65  7480.79  6.94
526.3  109203.50  7955.64  7.29
527.8  110766.15  8426.74  7.61
529.2  111958.60  8872.31  7.92
530.6  113504.75  9325.21  8.22
532.0  115262.00  9768.00  8.47
533.4  116622.83  10142.08  8.70
534.8  117530.58  10443.60  8.89
536.3  119221.80  10786.61  9.05
537.7  121237.20  11128.68  9.18
539.1  122744.68  11404.50  9.29
540.5  123982.45  11639.61  9.39
541.9  125792.33  11924.71  9.48
543.3  127116.65  12158.05  9.56
544.7  128489.40  12395.06  9.65
546.1  130316.45  12673.75  9.73
547.5  131566.40  12893.44  9.80
549.0  133331.00  13152.55  9.86
550.4  134841.88  13368.98  9.91
551.8  136425.05  13565.22  9.94
553.2  137987.18  13719.56  9.94
554.6  139349.60  13810.61  9.91
556.0  140904.90  13865.75  9.84
557.4  142546.95  13883.29  9.74
558.8  144216.90  13861.02  9.61
560.2  145716.88  13785.71  9.46
561.6  147409.50  13696.96  9.29
563.0  149048.78  13572.01  9.11
564.4  150675.10  13419.90  8.91
565.8  152235.00  13226.91  8.69
567.2  154026.00  13029.31  8.46
568.6  155566.88  12775.02  8.21
570.0  157030.30  12487.67  7.95
571.4  158788.50  12217.20  7.69
572.8  160589.38  11955.88  7.45
574.2  162254.40  11698.24  7.21
575.6  163845.00  11453.47  6.99
577.0  165398.10  11234.79  6.79
578.4  167167.00  11051.95  6.61
579.8  168716.93  10880.93  6.45
581.2  170465.03  10740.94  6.30
582.5  171931.50  10605.89  6.17
583.9  173483.60  10492.90  6.05
585.3  175309.43  10412.23  5.94
586.7  176839.65  10326.04  5.84
588.1  178346.63  10256.02  5.75
589.5  180038.25  10211.95  5.67
590.9  181684.80  10179.34  5.60
592.3  183531.20  10178.05  5.55
593.7  185016.98  10174.04  5.50
595.0  186667.88  10188.55  5.46
596.4  188150.55  10199.79  5.42
597.8  189652.88  10209.34  5.38
599.2  191228.40  10217.93  5.34
600.6  193025.95  10224.85  5.30
602.0  194326.88  10195.33  5.25
603.3  196163.35  10173.73  5.19
604.7  197863.58  10127.71  5.12
606.1  199396.20  10049.56  5.04
607.5  201063.08  9964.73  4.96
608.9  202783.65  9861.10  4.86
610.2  204190.88  9733.37  4.77
611.6  205807.28  9612.08  4.67
613.0  207400.85  9495.30  4.58
614.4  208807.05  9369.37  4.49
615.8  210292.88  9255.96  4.40
617.1  211856.40  9165.24  4.33
618.5  213519.60  9087.20  4.26
619.9  215084.18  9026.64  4.20
621.3  216733.28  8989.01  4.15
622.6  218380.00  8966.57  4.11
624.0  219884.40  8955.71  4.07
625.4  221393.70  8958.94  4.05
626.8  223013.70  8981.25  4.03
628.1  224359.30  8999.78  4.01
629.5  226210.73  9049.09  4.00
630.9  227787.73  9084.38  3.99
632.2  229128.55  9103.94  3.97
633.6  230725.13  9109.03  3.95
635.0  232234.40  9094.87  3.92
636.3  233792.20  9056.31  3.87
637.7  235205.38  8981.39  3.82
639.1  236915.00  8892.00  3.75
640.4  238435.75  8776.90  3.68
641.8  239674.95  8642.07  3.61
643.2  241300.68  8517.59  3.53
644.5  242670.25  8384.57  3.46
645.9  244370.25  8280.36  3.39
647.2  246029.35  8184.27  3.33
648.6  247880.25  8111.57  3.27
650.0  249372.00  8041.37  3.22
651.3  249956.58  7977.67  3.19
652.7  251314.15  7929.86  3.16
654.0  253434.30  7919.48  3.12
655.4  254966.13  7878.20  3.09
656.8  255193.40  7796.48  3.06
658.1  256396.50  7727.08  3.01
659.5  258799.80  7682.60  2.97
660.8  260572.50  7613.36  2.92
662.2  261452.80  7534.08  2.88
663.5  263142.00  7489.23  2.85
664.9  264426.50  7435.07  2.81
666.2  265245.60  7388.80  2.79
667.6  267073.98  7391.49  2.77
668.9  268182.65  7393.35  2.76
670.3  269462.13  7424.03  2.76
671.6  270987.00  7482.68  2.76
673.0  272226.00  7559.80  2.78
674.3  273509.60  7643.45  2.79
675.7  274899.98  7743.91  2.82
677.0  276039.33  7873.00  2.85
678.4  277448.93  8015.21  2.89
679.7  278572.20  8176.94  2.94
681.1  279911.00  8370.84  2.99
682.4  281045.70  8576.07  3.05
683.8  282327.50  8818.53  3.12
685.1  283354.88  9088.95  3.21
686.4  284692.80  9424.85  3.31
687.8  286001.50  9840.22  3.44
689.1  287091.75  10380.58  3.62
690.5  288471.45  11095.82  3.85
691.8  289320.68  12049.17  4.16
693.1  290690.10  13341.50  4.59
694.5  291859.75  14993.55  5.14
695.8  293111.00  17057.95  5.82
697.1  294362.25  19546.80  6.64
698.5  295440.50  22469.76  7.61
699.8  296566.33  25809.34  8.70
701.1  297768.10  29544.23  9.92
702.5  298607.10  33565.36  11.24
703.8  299632.50  37840.50  12.63
705.1  300831.38  42340.97  14.07
706.5  301928.25  46976.63  15.56
707.8  302954.25  51731.95  17.08
709.1  303865.58  56549.87  18.61
710.5  305071.13  61486.88  20.15
711.8  305978.30  66413.23  21.71
713.1  307026.40  71426.27  23.26
714.4  307985.30  76434.21  24.82
715.8  308832.70  81436.42  26.37
717.1  310195.65  86564.11  27.91
718.4  311158.40  91555.84  29.42
719.7  312335.08  96560.95  30.92
721.0  312907.50  101305.93  32.38
722.4  313738.15  106022.37  33.79
723.7  314767.05  110685.38  35.16
725.0  315854.78  115241.72  36.49
726.3  316811.00  119598.44  37.75
727.6  317404.45  123633.90  38.95
729.0  318336.55  127609.72  40.09
730.3  319149.53  131356.31  41.16
731.6  320095.05  134942.01  42.16
732.9  320938.98  138298.06  43.09
734.2  321803.63  141466.84  43.96
735.5  322880.63  144547.01  44.77
736.8  323694.60  147332.07  45.52
738.1  324609.80  149951.33  46.19
739.5  325661.43  152453.77  46.81
740.8  326398.60  154654.03  47.38
742.1  327153.88  156728.07  47.91
743.4  327850.00  158637.86  48.39
744.7  328810.68  160529.47  48.82
746.0  329702.10  162253.76  49.21
747.3  330319.03  163688.91  49.55
748.6  331067.75  165089.87  49.87
749.9  331812.00  166372.52  50.14
751.2  332471.10  167530.35  50.39
752.5  333360.20  168696.64  50.60
753.8  333968.60  169650.66  50.80
755.1  334724.00  170585.26  50.96
756.4  335363.23  171398.64  51.11
757.7  336419.65  172363.20  51.23
759.0  338276.28  173694.92  51.35
760.3  339556.80  174666.93  51.44
761.6  341198.20  175792.56  51.52
762.9  341784.75  176326.83  51.59
764.2  342194.90  176735.31  51.65
765.5  342487.83  177068.57  51.70
766.8  342937.60  177452.03  51.74
768.1  343513.80  177855.75  51.78
769.3  344159.55  178280.88  51.80
770.6  344847.10  178731.47  51.83
771.9  345650.90  179193.00  51.84
773.2  346025.60  179474.21  51.87
774.5  346660.60  179866.22  51.89
775.8  347354.00  180278.71  51.90
777.1  347992.70  180627.56  51.91
778.4  348362.58  180834.28  51.91
779.6  349179.58  181298.72  51.92
780.9  349680.00  181579.72  51.93
782.2  350143.75  181857.82  51.94
783.5  350475.50  182054.50  51.95
784.8  351035.10  182353.66  51.95
786.0  351465.45  182583.50  51.95
787.3  351890.50  182817.59  51.95
788.6  352366.40  183061.95  51.95
789.9  352847.60  183329.32  51.96
791.2  353536.48  183694.15  51.96
792.4  354217.45  184062.68  51.96
793.7  354741.40  184323.15  51.96
795.0  355399.28  184665.17  51.96
796.2  356111.13  185034.04  51.96
797.5  356868.83  185409.68  51.95
798.8  357568.98  185783.70  51.96
800.0  358248.35  186134.82  51.96
801.3  358725.70  186378.11  51.96
802.6  359378.33  186704.04  51.95
803.8  360077.05  187052.92  51.95
805.1  360598.00  187329.50  51.95
806.4  361073.70  187584.81  51.95
807.7  361665.00  187867.93  51.95
808.9  362235.00  188180.81  51.95
810.2  362792.15  188453.49  51.95
811.4  363346.10  188720.91  51.94
812.7  364000.00  189059.47  51.94
814.0  364918.20  189513.39  51.93
815.2  365563.00  189857.53  51.94
816.5  366016.95  190084.10  51.93
817.7  366496.05  190332.36  51.93
819.0  367065.60  190606.46  51.93
820.2  367268.00  190703.55  51.92
821.5  368005.30  191094.35  51.93
822.7  368402.68  191308.87  51.93
824.0  368760.60  191464.64  51.92
825.2  369293.18  191739.96  51.92
826.5  369643.23  191895.98  51.91
827.7  370224.73  192211.15  51.92
829.0  370651.08  192424.77  51.92
830.2  371023.35  192600.69  51.91
831.5  371511.20  192861.14  51.91
832.7  371905.28  193029.03  51.90
834.0  372264.83  193222.43  51.90
835.2  372664.88  193428.57  51.90
836.4  372969.85  193596.48  51.91
837.7  373383.80  193843.98  51.92
838.9  373849.10  194090.60  51.92
840.1  374247.00  194320.31  51.92
841.4  374743.40  194573.62  51.92
842.6  375179.80  194809.12  51.92
843.8  375567.40  195004.06  51.92
845.1  376160.30  195314.07  51.92
846.3  376586.60  195539.65  51.92
847.5  377031.90  195783.06  51.93
848.8  377474.40  196041.96  51.94
850.0  377904.80  196271.71  51.94
851.2  378479.25  196589.86  51.94
852.5  378919.90  196824.14  51.94
853.7  379494.00  197109.07  51.94
854.9  379942.80  197361.38  51.95
856.1  380476.85  197613.45  51.94
857.4  380701.73  197740.88  51.94
858.6  381282.10  198016.02  51.93
859.8  381701.25  198279.70  51.95
861.0  382309.20  198555.69  51.94
862.2  382809.95  198825.21  51.94
863.5  383186.38  199031.18  51.94
864.7  383836.20  199301.52  51.92
865.9  384249.00  199528.47  51.93
867.1  384541.90  199736.80  51.94
868.3  385103.25  199975.68  51.93
869.5  385663.70  200267.17  51.93
870.8  386325.00  200569.89  51.92
872.0  386856.98  200850.59  51.92
873.2  387311.40  201064.32  51.91
874.4  387846.23  201314.05  51.91
875.6  388344.70  201516.21  51.89
876.8  388894.30  201802.43  51.89
878.0  389388.85  202074.42  51.90
879.2  390025.35  202372.07  51.89
880.4  390612.38  202625.77  51.87
881.6  391159.38  202880.93  51.87
882.8  391620.00  203097.01  51.86
884.0  392357.90  203416.62  51.84
885.2  392896.00  203676.99  51.84
886.5  393605.50  204002.14  51.83
887.7  394129.45  204284.73  51.83
888.8  394855.65  204609.87  51.82
890.0  395501.10  204866.56  51.80
891.2  396163.60  205162.85  51.79
892.4  396824.40  205495.64  51.79
893.6  397540.10  205809.11  51.77
894.8  398429.00  206291.60  51.78
896.0  399481.25  206760.44  51.76
897.2  400380.50  207211.09  51.75
898.4  401118.30  207543.32  51.74
899.6  401788.50  207830.13  51.73
900.8  402301.80  208024.61  51.71
902.0  402559.80  208149.15  51.71
903.2  402844.80  208296.69  51.71
904.3  403296.30  208472.78  51.69
905.5  403954.85  208808.48  51.69
906.7  404627.50  209073.49  51.67
907.9  405097.70  209349.28  51.68
909.1  405559.58  209501.03  51.66
910.2  405724.05  209571.65  51.65
911.4  406185.98  209704.28  51.63
912.6  406463.20  209812.67  51.62
913.8  406642.50  209908.51  51.62
915.0  407087.10  210115.92  51.61
916.2  407374.50  210180.47  51.59
917.3  407394.23  210163.08  51.59
918.5  407733.40  210174.69  51.55
919.7  408199.65  210348.45  51.53
920.8  408386.75  210331.53  51.50
922.0  408427.25  210371.70  51.51
923.2  408681.00  210479.10  51.50
924.4  408898.13  210527.68  51.49
925.5  409255.10  210574.27  51.45
926.7  410040.00  210820.77  51.41
927.9  411097.80  211194.50  51.37
929.0  412608.60  211896.00  51.36
930.2  414876.40  213039.08  51.35
931.4  417384.90  214230.44  51.33
932.5  420180.20  215533.57  51.30
933.7  421733.28  216167.61  51.26
934.9  422331.88  216380.63  51.23
936.0  421965.38  216072.91  51.21
937.2  419912.10  214895.92  51.18
938.3  418376.45  213851.71  51.11
939.5  416739.60  212998.63  51.11
940.7  417029.40  212925.17  51.06
941.8  418739.48  213592.47  51.01
943.0  420162.00  214198.63  50.98
944.2  421008.25  214530.26  50.96
945.3  420702.75  214122.54  50.90
946.5  419960.70  213583.23  50.86
947.6  420302.80  213398.75  50.77
948.8  420452.18  213105.98  50.68
949.9  420462.00  212960.76  50.65
951.1  419899.35  212516.40  50.61
952.2  419628.00  212107.55  50.55
953.4  419474.00  211643.70  50.45
954.5  419725.80  211346.13  50.35
955.7  419832.00  211060.44  50.27
956.8  419675.40  210622.14  50.19
958.0  419078.00  210203.50  50.16
959.1  418945.60  209885.56  50.10
960.3  418554.50  209526.94  50.06
961.4  418671.75  209312.42  49.99
962.6  418843.25  209192.15  49.95
963.7  418769.78  208932.79  49.89
964.9  418709.70  208802.60  49.87
966.0  418680.90  208649.75  49.84
967.2  418677.75  208663.41  49.84
968.3  418421.70  208497.59  49.83
969.5  418244.20  208339.29  49.81
970.6  418362.53  208310.97  49.79
971.8  418895.58  208451.13  49.76
972.9  418693.73  208343.28  49.76
974.0  418781.50  208436.33  49.77
975.2  418901.50  208368.90  49.74
976.3  418398.68  208292.78  49.78
977.5  418261.55  208287.99  49.80
978.6  418104.50  208337.79  49.83
979.7  418354.13  208309.41  49.79
980.9  418007.48  208314.47  49.84
982.0  418516.40  208188.60  49.74
983.2  417425.73  208063.26  49.84
984.3  417094.60  207840.36  49.83
985.4  416574.00  207807.61  49.88
986.6  416990.88  207784.81  49.83
987.7  417424.00  208134.32  49.86
988.9  417776.40  208257.89  49.85
990.0  417699.80  208683.57  49.96
993.1  372132.89  183143.62  49.21
996.9  372552.55  183953.89  49.38
1000.7  373494.51  184932.08  49.51
1004.5  374061.33  185656.90  49.63
1008.4  373788.25  186003.41  49.76
1012.2  373734.38  186419.72  49.88
1016.0  373657.80  186832.03  50.00
1019.8  373729.13  187274.59  50.11
1023.7  373649.53  187583.60  50.20
1027.5  373366.08  187749.29  50.29
1031.3  373661.95  188127.97  50.35
1035.1  373573.84  188267.89  50.40
1038.9  373650.57  188447.37  50.43
1042.7  373537.25  188539.97  50.47
1046.5  373422.83  188588.57  50.50
1050.3  373499.78  188698.91  50.52
1054.2  373226.00  188646.88  50.54
1058.0  372753.79  188413.14  50.55
1061.8  372616.47  188394.80  50.56
1065.6  372383.30  188251.08  50.55
1069.4  372474.40  188268.67  50.55
1073.2  372093.45  188029.60  50.53
1077.0  371559.38  187697.00  50.52
1080.8  370988.54  187283.04  50.48
1084.6  369882.22  186577.13  50.44
1088.4  369221.87  186126.87  50.41
1092.2  368433.00  185534.84  50.36
1096.0  367877.59  185051.13  50.30
1099.8  367450.63  184605.20  50.24
1103.6  366822.22  184057.50  50.18
1107.4  365938.11  183359.66  50.11
1111.2  365750.80  183004.01  50.04
1114.9  365107.75  182377.63  49.95
1118.7  364542.75  181697.71  49.84
1122.5  363909.00  180883.67  49.71
1126.3  362846.58  179772.38  49.55
1130.1  362383.98  178703.64  49.31
1133.9  360761.10  176800.80  49.01
1137.7  359337.40  174703.09  48.62
1141.4  357522.97  172171.61  48.16
1145.2  356805.61  169965.31  47.64
1149.0  355686.04  167683.75  47.14
1152.8  354060.10  165370.55  46.71
1156.6  352387.93  163406.65  46.37
1160.3  350692.00  161762.79  46.13
1164.1  348281.47  160106.17  45.97
1167.9  346485.42  158941.30  45.87
1171.7  345184.88  158142.38  45.81
1175.4  343977.90  157456.94  45.78
1179.2  342918.58  156808.63  45.73
1183.0  342598.67  156478.93  45.67
1186.7  342046.60  156045.00  45.62
1190.5  341019.53  155394.74  45.57
1194.3  339833.80  154729.71  45.53
1198.0  338608.88  154117.66  45.51
1201.8  337131.68  153443.52  45.51
1205.6  335893.33  152970.58  45.54
1209.3  334961.57  152735.91  45.60
1213.1  334076.78  152516.14  45.65
1216.8  333158.74  152386.01  45.74
1220.6  332147.20  152178.40  45.82
1224.3  330973.33  151898.86  45.89
1228.1  329741.80  151619.32  45.98
1231.9  328523.70  151289.52  46.05
1235.6  327027.90  150824.56  46.12
1239.4  325676.75  150419.49  46.19
1243.1  324410.61  149985.36  46.23
1246.9  323193.15  149531.61  46.27
1250.6  322190.27  149141.29  46.29
1254.3  321103.75  148697.20  46.31
1258.1  320077.22  148263.13  46.32
1261.8  318731.73  147655.72  46.33
1265.6  317238.70  146935.91  46.32
1269.3  315769.73  146166.72  46.29
1273.1  315757.63  146015.72  46.24
1276.8  316077.20  145972.89  46.18
1280.6  315925.77  145707.76  46.12
1284.3  314535.60  144823.72  46.04
1288.0  313041.88  143822.28  45.94
1291.8  311726.31  142799.06  45.81
1295.5  310340.80  141687.54  45.66
1299.2  309098.92  140580.81  45.48
1302.9  307702.68  139297.69  45.27
1306.7  306190.38  137871.13  45.03
1310.4  304715.20  136317.53  44.74
1314.1  303344.25  134729.46  44.41
1317.9  302098.33  133055.54  44.04
1321.6  300688.66  131190.90  43.63
1325.3  299034.23  129087.34  43.17
1329.0  297688.77  127027.43  42.67
1332.8  295603.00  124535.40  42.13
1336.5  293791.73  122148.60  41.58
1340.2  293490.17  120389.75  41.02
1343.9  293186.25  118628.26  40.46
1347.6  292777.50  116851.66  39.91
1351.4  293322.00  115525.93  39.39
1355.1  294048.33  114313.97  38.88
1358.8  294464.00  112916.58  38.35
1362.5  294077.68  111066.80  37.77
1366.2  292169.65  108382.65  37.10
1369.9  290068.00  105275.07  36.29
1373.6  287964.60  101672.43  35.31
1377.3  286215.90  97505.61  34.07
1381.0  285131.50  92662.72  32.50
1384.8  283042.50  86510.36  30.56
1388.4  280491.52  79689.48  28.41
1392.2  278563.33  72698.97  26.10
1395.9  276976.10  65787.21  23.75
1399.6  275248.82  59292.75  21.54
1403.3  273974.38  53626.74  19.57
1407.0  272724.70  48819.15  17.90
1410.7  271428.30  44902.16  16.54
1414.3  270105.38  41833.44  15.49
1418.1  268858.08  39521.31  14.70
1421.7  267865.50  37816.12  14.12
1425.4  266854.25  36568.35  13.70
1429.1  265910.63  35690.87  13.42
1432.8  264360.78  35022.04  13.25
1436.5  263531.10  34643.81  13.15
1440.2  262656.37  34427.91  13.11
1443.9  261313.43  34262.04  13.11
1447.6  259705.60  34148.40  13.15
1451.2  258607.25  34149.46  13.21
1454.9  257307.60  34191.39  13.29
1458.6  256226.32  34366.96  13.41
1462.3  255100.63  34656.13  13.59
1466.0  253754.74  35077.18  13.82
1469.7  252070.87  35623.19  14.13
1473.3  251024.50  36401.00  14.50
1477.0  249098.90  37174.03  14.92
1480.7  247527.33  38065.09  15.38
1484.4  245596.17  38936.95  15.85
1488.0  244024.00  39908.00  16.35
1491.7  242425.95  40867.09  16.86
1495.4  240692.93  41828.17  17.38
1499.0  239105.00  42785.36  17.89
1502.7  237788.50  43787.54  18.41
1506.4  236395.60  44748.77  18.93
1510.0  234981.20  45686.00  19.44
1513.7  233525.83  46580.63  19.95
1517.4  232214.33  47472.00  20.44
1521.0  231005.87  48354.83  20.93
1524.7  229783.67  49182.02  21.40
1528.3  228500.13  49963.16  21.87
1532.0  227278.33  50711.10  22.31
1535.7  225902.63  51376.51  22.74
1539.3  224650.28  52028.84  23.16
1543.0  223685.07  52720.37  23.57
1546.6  222995.50  53440.21  23.96
1550.3  222004.05  54045.33  24.34
1553.9  220940.80  54591.67  24.71
1557.6  219700.80  55050.60  25.06
1561.2  218457.00  55454.24  25.38
1564.9  217146.23  55823.35  25.71
1568.5  215816.42  56153.13  26.02
1572.2  214684.00  56493.05  26.31
1575.8  213598.00  56841.00  26.61
1579.5  212611.35  57166.87  26.89
1583.1  211615.29  57485.13  27.16
1586.8  210364.00  57708.00  27.43
1590.4  209307.17  57959.67  27.69
1594.0  207978.88  58117.92  27.94
1597.7  206817.43  58302.01  28.19
1601.3  205523.33  58429.35  28.43
1604.9  204244.62  58532.76  28.66
1608.6  202940.12  58589.17  28.87
1612.2  201917.93  58691.62  29.07
1615.8  200792.80  58745.91  29.26
1619.5  199704.17  58775.06  29.43
1623.1  198438.40  58722.85  29.59
1626.7  197201.23  58653.08  29.74
1630.3  195974.50  58566.31  29.88
1634.0  194852.00  58473.00  30.01
1637.6  193852.73  58368.63  30.11
1641.2  192836.25  58203.13  30.18
1644.8  191619.38  57915.72  30.22
1648.5  190533.43  57626.87  30.25
1652.1  189560.40  57331.61  30.24
1655.7  188618.60  57020.10  30.23
1659.3  187767.82  56746.60  30.22
1662.9  186348.33  56315.54  30.22
1666.6  184906.33  55899.93  30.23
1670.2  183489.37  55484.23  30.24
1673.8  182031.58  55023.23  30.23
1677.4  180865.65  54614.36  30.20
1681.0  180061.48  54262.14  30.14
1684.6  179661.08  53962.31  30.04
1688.2  178983.35  53487.00  29.88
1691.8  178326.42  53049.44  29.75
1695.4  177897.60  52629.26  29.58
1699.0  177532.37  52209.90  29.41
1702.6  177203.00  51781.22  29.22
1706.2  176602.94  51252.51  29.02
1709.8  175682.88  50643.83  28.83
1713.4  174964.01  50101.37  28.64
1717.0  174094.25  49550.52  28.46
1720.6  173295.98  49023.45  28.29
1724.2  172592.70  48516.92  28.11
1727.8  171886.05  48017.03  27.94
1731.4  171396.50  47588.65  27.77
1735.0  171172.28  47257.53  27.61
1738.6  170907.90  46876.41  27.43
1742.2  170312.52  46358.84  27.22
1745.8  169637.33  45782.70  26.99
1749.4  168631.65  45096.98  26.74
1753.0  167138.67  44270.00  26.49
1756.6  165466.00  43430.19  26.25
1760.1  164124.69  42703.31  26.02
1763.7  162426.00  41902.72  25.80
1767.3  160991.58  41209.88  25.60
1770.9  159785.73  40588.54  25.40
1774.5  158343.95  39943.29  25.23
1778.0  157218.56  39422.38  25.07
1781.6  156120.75  38966.89  24.96
1785.2  154967.85  38545.57  24.87
1788.8  153823.70  38171.72  24.82
1792.3  152592.30  37803.70  24.77
1795.9  152128.17  37661.35  24.76
1799.5  151669.00  37532.86  24.75
1803.1  151116.82  37399.60  24.75
1806.6  151790.63  37541.28  24.73
1810.2  153122.20  37844.40  24.72
1813.8  154239.65  38100.67  24.70
1817.3  154341.20  38100.99  24.69
1820.9  153609.28  37891.24  24.67
1824.5  152415.28  37546.73  24.63
1828.0  151564.88  37263.19  24.59
1831.6  150848.93  36975.25  24.51
1835.2  150209.17  36641.07  24.39
1838.7  149809.60  36272.09  24.21
1842.3  149400.00  35820.00  23.98
1845.8  148527.96  35127.15  23.65
1849.4  147987.43  34357.82  23.22
1852.9  147286.24  33373.66  22.66
1856.5  146339.33  32111.31  21.94
1860.0  145571.01  30641.50  21.05
1863.6  145381.60  29049.22  19.98
1867.1  145397.70  27242.78  18.74
1870.7  145471.68  25075.13  17.24
1874.2  144592.65  22432.57  15.51
1877.8  143079.73  19635.35  13.72
1881.3  141345.13  16854.30  11.92
1884.9  140246.43  14340.47  10.23
1888.4  139094.61  12067.92  8.68
1891.9  138000.67  10166.65  7.37
1895.5  136871.23  8700.68  6.36
1899.0  136265.25  7665.05  5.63
1901.3  171784.33  5965.25  3.47
1904.1  171699.00  5353.50  3.12
1906.8  170835.60  4864.50  2.85
1909.6  168980.00  4497.85  2.66
1912.4  167236.42  4211.55  2.52
1915.1  165872.85  3998.78  2.41
1917.9  164377.33  3860.83  2.35
1920.6  163108.33  3755.90  2.30
1923.3  161823.20  3686.09  2.28
1926.1  160181.00  3627.04  2.26
1928.8  158634.67  3593.34  2.27
1931.6  157358.02  3599.25  2.29
1934.3  156176.52  3602.88  2.31
1937.0  155057.50  3633.30  2.34
1939.8  153873.00  3660.34  2.38
1942.5  152427.00  3701.50  2.43
1945.2  150615.85  3751.55  2.49
1947.9  149195.67  3817.69  2.56
1950.7  148082.20  3896.90  2.63
1953.4  146353.75  3958.48  2.70
1956.1  145007.25  4049.17  2.79
1958.8  143840.02  4145.92  2.88
1961.5  142406.80  4250.40  2.98
1964.2  140904.40  4358.90  3.09
1966.9  139351.90  4466.18  3.20
1969.6  138132.00  4599.00  3.33
1972.3  136757.40  4725.90  3.46
1975.0  135705.90  4871.93  3.59
1977.7  134604.05  5016.68  3.73
1980.4  133463.73  5167.95  3.87
1983.1  132362.58  5330.25  4.03
1985.8  131448.30  5498.40  4.18
1988.4  130424.67  5663.67  4.34
1991.1  129500.00  5844.77  4.51
1993.8  128629.60  6023.05  4.68
1996.5  127991.97  6221.23  4.86
1999.1  127328.48  6410.80  5.03
2001.8  126651.00  6595.87  5.21
2004.5  125987.25  6790.25  5.39
2007.1  125252.00  6980.55  5.57
2009.8  124509.93  7165.67  5.76
2012.4  123933.52  7345.71  5.93
2015.1  123387.60  7523.95  6.10
2017.8  122601.97  7696.62  6.28
2020.4  122098.17  7875.64  6.45
2023.1  121747.27  8054.90  6.62
2025.7  121524.00  8233.34  6.78
2028.3  121220.67  8402.34  6.93
2031.0  120811.22  8557.43  7.08
2033.6  120529.80  8708.70  7.23
2036.2  120286.20  8852.25  7.36
2038.9  119694.60  8978.40  7.50
2041.5  119348.60  9104.56  7.63
2044.1  118798.50  9204.60  7.75
2046.8  118424.40  9322.05  7.87
2049.4  117806.70  9413.40  7.99
2052.0  117541.93  9523.70  8.10
2054.6  117136.25  9616.25  8.21
2057.2  116563.80  9707.10  8.33
2059.8  116223.20  9811.90  8.44
2062.4  115356.37  9880.34  8.57
2065.0  114843.33  9969.10  8.68
2067.6  113944.27  10028.53  8.80
2070.2  113360.25  10106.98  8.92
2072.8  112732.65  10172.35  9.02
2075.4  112288.75  10263.75  9.14
2078.0  111662.52  10337.98  9.26
2080.6  111100.00  10401.60  9.36
2083.2  110416.17  10445.48  9.46
2085.8  109932.20  10522.44  9.57
2088.4  109259.50  10573.50  9.68
2090.9  108462.63  10597.63  9.77
2093.5  107584.53  10625.20  9.88
2096.1  106822.90  10662.97  9.98
2098.7  106058.75  10693.71  10.08
2101.2  105105.67  10689.60  10.17
2103.8  104424.47  10728.90  10.27
2106.4  103760.73  10746.37  10.36
2108.9  103114.47  10772.57  10.45
2111.5  102258.60  10781.30  10.54
2114.0  101629.80  10816.24  10.64
2116.6  101132.50  10845.63  10.72
2119.1  100571.20  10866.29  10.80
2121.7  100073.75  10898.13  10.89
2124.2  99668.23  10932.04  10.97
2126.8  98865.20  10926.47  11.05
2129.3  98472.00  10951.60  11.12
2131.9  97891.20  10960.40  11.20
2134.4  97447.35  10987.28  11.28
2136.9  97050.42  11015.34  11.35
2139.4  96540.27  11034.57  11.43
2142.0  96096.93  11052.30  11.50
2144.5  95835.20  11098.30  11.58
2147.0  95595.60  11139.87  11.65
2149.5  95095.33  11157.73  11.73
2152.1  94935.87  11211.20  11.81
2154.6  94882.67  11269.87  11.88
2157.1  94348.58  11272.42  11.95
2159.6  93930.75  11290.59  12.02
2162.1  93757.30  11334.05  12.09
2164.6  93525.33  11366.44  12.15
2167.1  93210.83  11378.15  12.21
2169.6  92876.35  11391.80  12.27
2172.1  92416.43  11384.70  12.32
2174.6  92101.40  11407.27  12.39
2177.1  91672.92  11404.58  12.44
2179.5  91256.75  11403.60  12.50
2182.0  90779.15  11402.33  12.56
2184.5  90248.90  11410.13  12.64
2187.0  89644.97  11381.32  12.70
2189.5  88963.15  11356.30  12.77
2191.9  88198.00  11319.25  12.83
2194.4  87563.95  11292.88  12.90
2196.9  86822.40  11246.40  12.95
2199.3  86159.00  11208.50  13.01
2201.8  85273.73  11144.67  13.07
2204.3  84796.37  11117.38  13.11
2206.7  84158.40  11076.33  13.16
2209.2  83682.18  11049.57  13.20
2211.6  83061.00  10998.90  13.24
2214.1  82764.10  10989.78  13.28
2216.5  82198.33  10926.67  13.29
2219.0  81860.60  10906.80  13.32
2221.4  81485.25  10863.71  13.33
2223.9  81019.17  10799.25  13.33
2226.3  80493.58  10710.00  13.31
2228.7  79936.40  10614.70  13.28
2231.1  79348.50  10503.90  13.24
2233.6  78751.47  10380.34  13.18
2236.0  78202.83  10253.84  13.11
2238.4  77707.00  10110.05  13.01
2240.9  77261.47  9963.14  12.90
2243.3  76725.07  9804.20  12.78
2245.7  76147.35  9641.55  12.66
2248.1  75656.97  9473.32  12.52
2250.5  75144.55  9289.49  12.36
2252.9  74520.77  9104.55  12.22
2255.3  73978.25  8925.15  12.06
2257.7  73520.00  8750.00  11.90
2260.1  73032.63  8578.50  11.75
2262.5  72410.00  8400.00  11.60
2264.9  71889.98  8226.27  11.44
2267.3  71280.00  8055.00  11.30
2269.7  70775.13  7916.30  11.19
2272.1  70206.82  7767.93  11.06
2274.5  69643.73  7622.28  10.94
2276.8  69165.08  7487.46  10.83
2279.2  68591.25  7341.53  10.70
2281.6  68171.47  7222.84  10.60
2284.0  67710.40  7100.30  10.49
2286.3  67254.93  6976.80  10.37
2288.7  66833.22  6858.48  10.26
2291.1  66281.30  6723.30  10.14
2293.4  65819.60  6601.47  10.03
2295.8  65209.30  6458.10  9.90
2298.2  64615.05  6323.85  9.79
2300.5  63942.30  6184.13  9.67
2302.9  63188.33  6034.67  9.55
2305.2  62469.50  5886.45  9.42
2307.6  61807.15  5751.54  9.31
2309.9  61028.67  5621.34  9.21
2312.2  60429.33  5528.33  9.15
2314.6  59823.00  5428.58  9.07
2316.9  59119.20  5330.25  9.02
2319.2  58550.93  5235.17  8.94
2321.6  57907.85  5139.75  8.88
2323.9  57343.75  5052.08  8.81
2326.2  56809.50  4950.62  8.71
2328.6  56294.15  4848.80  8.61
2330.9  55786.50  4756.50  8.53
2333.2  55308.50  4667.25  8.44
2335.5  54869.60  4584.95  8.36
2337.8  54401.92  4502.04  8.28
2340.1  53830.40  4410.39  8.19
2342.4  53386.67  4327.92  8.11
2344.8  52967.67  4246.59  8.02
2347.1  52387.77  4150.89  7.92
2349.4  51855.45  4076.17  7.86
2351.6  51271.57  3977.02  7.76
2353.9  50775.40  3911.32  7.70
2356.2  50247.33  3829.70  7.62
2358.5  49660.80  3757.60  7.57
2360.8  49078.40  3662.40  7.46
2363.1  48624.25  3583.73  7.37
2365.4  48149.30  3514.30  7.30
2367.7  47697.60  3448.50  7.23
2369.9  47139.65  3366.30  7.14
2372.2  46520.27  3285.20  7.06
2374.5  45911.25  3205.13  6.98
2376.7  45293.38  3119.08  6.89
2379.0  44672.00  3030.49  6.78
2381.3  44053.33  2951.67  6.70
2383.5  43542.40  2886.40  6.63
2385.8  42924.80  2818.12  6.57
2388.0  42385.60  2743.50  6.47
2390.3  41865.60  2664.07  6.36
2392.5  41388.00  2598.00  6.28
2394.8  40922.20  2534.95  6.19
2397.0  40440.40  2463.07  6.09
2399.3  39961.33  2387.94  5.98
2401.5  39518.50  2315.25  5.86
2403.8  38982.25  2260.11  5.80
2406.0  38466.83  2191.54  5.70
2408.2  38060.73  2125.57  5.58
2410.4  37637.25  2078.48  5.52
2412.7  37209.90  2029.52  5.45
2414.9  36849.45  1967.08  5.34
2417.1  36449.00  1905.00  5.23
2419.3  36032.00  1856.00  5.15
2421.6  35637.08  1795.42  5.04
2423.8  35256.37  1737.54  4.93
2426.0  34886.22  1687.84  4.84
2428.2  34509.07  1639.87  4.75
2430.4  34194.93  1607.85  4.70
2432.6  33933.33  1560.00  4.60
2434.8  33630.53  1523.80  4.53
2437.0  33247.50  1464.24  4.40
2439.2  32899.57  1419.25  4.31
2441.4  32570.03  1376.97  4.23
2443.6  32331.00  1340.22  4.15
2445.7  32042.73  1318.92  4.12
2447.9  31771.75  1266.42  3.99
2450.1  31472.00  1229.38  3.91
2452.3  31099.02  1192.86  3.84
2454.5  30749.47  1148.85  3.74
2456.6  30359.47  1119.94  3.69
2458.8  29972.80  1086.80  3.63
2461.0  29669.50  1059.63  3.57
2463.1  29405.55  1025.78  3.49
2465.3  29105.70  995.07  3.42
2467.5  28865.75  966.13  3.35
2469.6  28610.17  947.21  3.31
2471.8  28291.40  938.54  3.32
2473.9  27949.42  905.00  3.24
2476.1  27603.33  864.50  3.13
2478.2  27237.20  837.83  3.08
2480.4  26954.60  821.23  3.05
2482.5  26600.37  812.88  3.06
2484.6  26242.33  794.75  3.03
2486.8  25967.80  769.30  2.96
2488.9  25647.92  733.93  2.86
2491.1  25323.20  729.87  2.88
2493.2  24923.97  702.54  2.82
2495.3  24514.97  681.42  2.78
2497.4  24182.20  668.15  2.76
2499.5  23838.05  671.61  2.82
2501.7  23696.87  657.33  2.77
2503.8  23603.93  651.95  2.76
2505.9  23540.83  649.17  2.76
2508.0  23524.88  648.12  2.76
2510.1  23534.47  634.86  2.70
2512.2  23634.80  651.43  2.76
2514.3  23786.12  654.93  2.75
2516.4  24073.40  650.10  2.70
