/*** Spectra Vista SIG Data ***/
name= 21_20221020_QUPA_26_avg.sig
comm= Averaged Ref/Tar of files: HR.102022.0060_moc.sig,HR.102022.0061_moc.sig
data=
337.3  3027.13  198.50  6.56
338.8  3174.60  202.02  6.36
340.3  3326.35  210.16  6.32
341.8  3520.83  209.03  5.94
343.2  3640.80  196.63  5.40
344.7  3838.50  197.41  5.14
346.2  4003.30  189.08  4.72
347.7  4207.78  189.89  4.51
349.2  4422.60  180.36  4.08
350.6  4627.35  180.48  3.90
352.1  4858.60  182.71  3.76
353.6  5135.60  189.37  3.69
355.1  5421.68  193.39  3.57
356.6  5735.63  199.46  3.48
358.0  5997.20  200.52  3.34
359.5  6272.70  204.83  3.27
361.0  6553.58  208.62  3.18
362.5  6908.90  212.46  3.08
364.0  7254.78  212.20  2.92
365.4  7587.00  215.97  2.85
366.9  7956.00  227.32  2.86
368.4  8291.60  233.79  2.82
369.9  8620.98  240.91  2.79
371.3  9051.30  252.51  2.79
372.8  9451.80  258.68  2.74
374.3  9863.13  271.06  2.75
375.8  10267.95  274.12  2.67
377.2  10679.30  275.15  2.58
378.7  11082.80  278.99  2.52
380.2  11459.40  284.37  2.48
381.7  11945.05  293.42  2.46
383.1  12397.00  301.84  2.43
384.6  12867.08  311.37  2.42
386.1  13323.33  317.35  2.38
387.6  13744.50  329.56  2.40
389.0  14204.00  335.39  2.36
390.5  14655.60  337.57  2.30
392.0  15208.75  349.14  2.30
393.4  15738.73  355.84  2.26
394.9  16260.30  371.37  2.28
396.4  16792.88  380.73  2.27
397.9  17322.50  389.50  2.25
399.3  17854.13  395.80  2.22
400.8  18369.73  406.64  2.21
402.2  19001.70  420.86  2.21
403.7  19548.90  432.66  2.21
405.2  20147.43  449.83  2.23
406.6  20694.40  455.39  2.20
408.1  21289.20  470.08  2.21
409.6  21862.20  476.63  2.18
411.0  22502.90  488.61  2.17
412.5  23157.40  515.27  2.23
414.0  23777.63  528.01  2.22
415.4  24446.25  544.01  2.23
416.9  25096.05  557.33  2.22
418.4  25771.50  577.33  2.24
419.8  26481.00  595.40  2.25
421.3  27165.30  612.67  2.26
422.7  27927.00  635.35  2.28
424.2  28653.75  657.16  2.29
425.7  29388.90  676.69  2.30
427.1  30130.80  694.49  2.30
428.6  30907.00  717.87  2.32
430.0  31655.05  736.64  2.33
431.5  32491.73  770.99  2.37
432.9  33328.75  798.64  2.40
434.4  34193.78  825.53  2.41
435.9  35014.00  851.60  2.43
437.3  35832.50  877.65  2.45
438.8  36666.08  901.38  2.46
440.2  37527.88  931.32  2.48
441.7  38471.40  961.74  2.50
443.1  39339.25  986.94  2.51
444.6  40269.40  1021.05  2.54
446.0  41182.65  1049.12  2.55
447.5  42122.58  1080.16  2.56
448.9  43060.20  1108.67  2.57
450.4  44042.95  1141.82  2.59
451.8  44889.00  1168.89  2.60
453.3  45801.73  1194.68  2.61
454.7  46784.43  1224.90  2.62
456.2  47623.23  1251.47  2.63
457.6  48573.23  1283.88  2.64
459.1  49542.35  1316.51  2.66
460.5  50463.88  1344.76  2.66
462.0  51516.73  1372.21  2.66
463.4  52539.50  1396.62  2.66
464.8  53488.13  1423.18  2.66
466.3  54431.03  1456.20  2.68
467.7  55385.13  1486.72  2.68
469.2  56426.68  1515.28  2.69
470.6  57408.30  1540.69  2.68
472.0  58439.40  1569.97  2.69
473.5  59452.13  1598.15  2.69
474.9  60462.75  1626.13  2.69
476.4  61603.20  1664.23  2.70
477.8  62611.00  1696.92  2.71
479.2  63597.00  1725.09  2.71
480.7  64674.30  1751.48  2.71
482.1  65805.30  1784.37  2.71
483.6  66975.75  1816.57  2.71
485.0  68032.50  1850.73  2.72
486.4  69185.25  1887.76  2.73
487.9  70243.88  1923.82  2.74
489.3  71357.35  1960.53  2.75
490.7  72402.83  1999.24  2.76
492.2  73588.20  2042.88  2.78
493.6  74671.05  2081.56  2.79
495.0  75757.50  2126.90  2.81
496.5  76926.35  2174.00  2.83
497.9  78012.30  2225.99  2.85
499.3  79156.95  2281.76  2.88
500.7  80384.55  2346.10  2.92
502.2  81526.40  2414.01  2.96
503.6  82752.80  2487.01  3.01
505.0  83827.30  2563.75  3.06
506.5  85118.78  2659.08  3.12
507.9  86251.85  2763.38  3.20
509.3  87556.80  2879.66  3.29
510.7  88759.13  3007.74  3.39
512.2  90106.88  3158.45  3.51
513.6  91567.35  3327.97  3.63
515.0  92988.83  3523.33  3.79
516.4  94348.80  3739.37  3.96
517.8  95965.25  3992.94  4.16
519.3  97272.33  4261.91  4.38
520.7  98799.60  4565.05  4.62
522.1  100074.98  4876.88  4.87
523.5  101386.60  5212.90  5.14
524.9  102825.45  5566.85  5.41
526.3  104209.70  5916.71  5.68
527.8  105657.75  6275.61  5.94
529.2  106698.90  6621.14  6.21
530.6  108244.95  6984.72  6.45
532.0  109886.00  7349.20  6.69
533.4  111192.83  7672.20  6.90
534.8  112068.65  7952.38  7.10
536.3  113597.40  8248.26  7.26
537.7  115479.00  8559.00  7.41
539.1  116865.65  8827.87  7.55
540.5  118041.80  9071.59  7.69
541.9  119739.98  9352.38  7.81
543.3  121028.20  9598.65  7.93
544.7  122333.40  9839.51  8.04
546.1  124103.93  10122.05  8.16
547.5  125305.60  10344.96  8.26
549.0  126907.00  10601.17  8.35
550.4  128381.88  10835.07  8.44
551.8  129920.60  11047.34  8.50
553.2  131387.93  11222.92  8.54
554.6  132683.20  11347.59  8.55
556.0  134167.05  11444.15  8.53
557.4  135753.10  11506.77  8.48
558.8  137365.20  11539.96  8.40
560.2  138796.75  11530.78  8.31
561.6  140435.18  11508.01  8.19
563.0  141988.63  11456.36  8.07
564.4  143553.85  11387.07  7.93
565.8  145052.50  11290.73  7.78
567.2  146769.75  11182.46  7.62
568.6  148226.25  11037.51  7.45
570.0  149611.20  10855.53  7.26
571.4  151285.55  10684.72  7.06
572.8  153013.25  10519.80  6.88
574.2  154604.80  10352.32  6.70
575.6  156127.50  10194.11  6.53
577.0  157612.40  10055.07  6.38
578.4  159295.50  9944.03  6.24
579.8  160799.18  9839.98  6.12
581.2  162478.28  9769.30  6.01
582.5  163893.60  9695.63  5.92
583.9  165365.20  9642.63  5.83
585.3  167105.03  9613.26  5.75
586.7  168566.45  9578.77  5.68
588.1  170016.75  9559.01  5.62
589.5  171634.75  9557.10  5.57
590.9  173228.00  9577.41  5.53
592.3  174984.65  9616.17  5.50
593.7  176410.65  9648.21  5.47
595.0  177998.18  9693.50  5.45
596.4  179422.25  9735.44  5.43
597.8  180866.48  9775.25  5.40
599.2  182358.00  9814.01  5.38
600.6  184084.88  9855.55  5.35
602.0  185358.98  9861.24  5.32
603.3  187111.95  9867.11  5.27
604.7  188742.35  9855.38  5.22
606.1  190191.60  9808.25  5.16
607.5  191789.03  9757.45  5.09
608.9  193454.45  9696.51  5.01
610.2  194792.85  9611.06  4.93
611.6  196367.10  9526.54  4.85
613.0  197907.20  9450.72  4.78
614.4  199262.25  9362.30  4.70
615.8  200684.25  9292.31  4.63
617.1  202198.50  9235.38  4.57
618.5  203781.20  9200.95  4.52
619.9  205263.53  9173.33  4.47
621.3  206844.08  9169.48  4.43
622.6  208421.75  9175.71  4.40
624.0  209872.80  9187.01  4.38
625.4  211314.68  9219.59  4.36
626.8  212853.55  9266.08  4.35
628.1  214088.88  9315.47  4.35
629.5  215816.50  9389.04  4.35
630.9  217269.80  9452.00  4.35
632.2  218502.20  9496.30  4.35
633.6  219987.75  9545.97  4.34
635.0  221398.40  9564.19  4.32
636.3  222875.90  9570.86  4.29
637.7  224207.00  9546.32  4.26
639.1  225820.00  9507.00  4.21
640.4  227265.15  9446.03  4.16
641.8  228445.20  9355.58  4.10
643.2  229962.95  9275.15  4.03
644.5  231300.50  9176.62  3.97
645.9  232839.00  9087.42  3.90
647.2  233764.13  9003.40  3.85
648.6  235183.50  8949.35  3.81
650.0  236476.80  8905.37  3.77
651.3  237516.95  8865.23  3.73
652.7  239766.10  8841.98  3.69
654.0  241869.80  8823.70  3.65
655.4  243214.23  8773.58  3.61
656.8  243412.10  8681.78  3.57
658.1  244774.10  8618.22  3.52
659.5  246925.35  8564.31  3.47
660.8  248220.00  8496.00  3.42
662.2  249200.00  8398.72  3.37
663.5  250671.55  8325.87  3.32
664.9  251674.80  8255.93  3.28
666.2  252436.20  8179.75  3.24
667.6  254103.15  8149.27  3.21
668.9  255005.53  8133.46  3.19
670.3  256842.63  8145.78  3.17
671.6  257866.88  8161.60  3.17
673.0  259017.38  8200.79  3.17
674.3  260249.60  8246.46  3.17
675.7  261544.60  8322.28  3.18
677.0  262582.05  8399.08  3.20
678.4  263903.55  8501.02  3.22
679.7  264938.73  8621.22  3.25
681.1  266180.35  8756.84  3.29
682.4  267255.30  8924.61  3.34
683.8  268426.60  9144.35  3.41
685.1  269416.13  9411.35  3.49
686.4  270729.00  9755.32  3.60
687.8  271917.25  10184.15  3.75
689.1  273007.50  10711.79  3.92
690.5  274301.55  11427.88  4.17
691.8  275094.00  12363.18  4.49
693.1  276443.25  13616.54  4.93
694.5  277572.75  15222.35  5.48
695.8  278824.00  17206.15  6.17
697.1  279984.25  19574.10  6.99
698.5  281026.00  22325.13  7.94
699.8  282054.33  25437.47  9.02
701.1  283210.75  28884.71  10.20
702.5  283994.70  32546.10  11.46
703.8  284895.00  36420.43  12.78
705.1  286030.88  40456.62  14.14
706.5  287048.88  44588.26  15.53
707.8  287979.75  48787.50  16.94
709.1  288796.20  53018.69  18.36
710.5  289912.45  57349.10  19.78
711.8  290725.10  61685.63  21.22
713.1  291684.00  66078.73  22.65
714.4  292576.00  70485.84  24.09
715.8  293378.80  74903.79  25.53
717.1  294662.40  79459.36  26.97
718.4  295590.40  83932.80  28.39
719.7  296670.00  88426.93  29.81
721.0  297180.00  92741.79  31.21
722.4  297908.05  97068.73  32.58
723.7  298844.10  101392.40  33.93
725.0  299833.65  105664.76  35.24
726.3  300742.20  109790.86  36.51
727.6  301244.35  113668.50  37.73
729.0  302128.58  117527.31  38.90
730.3  302916.90  121212.15  40.01
731.6  303774.30  124771.23  41.07
732.9  304553.38  128127.55  42.07
734.2  305324.25  131330.77  43.01
735.5  306295.50  134469.57  43.90
736.8  307057.20  137354.37  44.73
738.1  307903.70  140103.85  45.50
739.5  308835.63  142734.04  46.22
740.8  309486.38  145090.60  46.88
742.1  310158.23  147309.32  47.49
743.4  310750.00  149382.86  48.07
744.7  311616.15  151419.72  48.59
746.0  312464.10  153326.22  49.07
747.3  313038.60  154960.82  49.50
748.6  313763.75  156550.44  49.89
749.9  314392.00  157991.60  50.25
751.2  314950.60  159324.48  50.59
752.5  315682.80  160633.48  50.88
753.8  316159.38  161743.97  51.16
755.1  316784.00  162824.63  51.40
756.4  317310.60  163773.12  51.61
757.7  318245.38  164867.76  51.81
759.0  319997.45  166294.23  51.97
760.3  321103.20  167353.37  52.12
761.6  322578.20  168554.32  52.25
762.9  323086.50  169192.99  52.37
764.2  323391.80  169712.10  52.48
765.5  323624.38  170139.36  52.57
766.8  323979.20  170606.95  52.66
768.1  324443.40  171096.56  52.74
769.3  324998.10  171596.69  52.80
770.6  325589.55  172120.89  52.86
771.9  326238.33  172652.38  52.92
773.2  326571.60  172986.84  52.97
774.5  327098.20  173428.77  53.02
775.8  327678.30  173882.25  53.06
777.1  328170.70  174272.03  53.10
778.4  328412.43  174534.81  53.15
779.6  329115.20  175002.97  53.17
780.9  329490.00  175329.43  53.21
782.2  329876.25  175645.33  53.25
783.5  330132.00  175864.75  53.27
784.8  330536.48  176186.01  53.30
786.0  330906.45  176431.82  53.32
787.3  331179.95  176659.29  53.34
788.6  331521.03  176913.36  53.36
789.9  331885.40  177192.92  53.39
791.2  332460.45  177570.98  53.41
792.4  333047.50  177950.06  53.43
793.7  333432.20  178234.81  53.45
795.0  333954.23  178580.54  53.47
796.2  334515.15  178926.35  53.49
797.5  335130.98  179295.10  53.50
798.8  335729.48  179671.66  53.52
800.0  336343.90  180028.28  53.53
801.3  336704.70  180278.25  53.54
802.6  337153.28  180608.66  53.57
803.8  337734.88  180971.09  53.58
805.1  338135.88  181233.18  53.60
806.4  338518.50  181495.34  53.61
807.7  339003.23  181794.38  53.63
808.9  339488.20  182093.48  53.64
810.2  339932.25  182395.56  53.66
811.4  340328.70  182672.69  53.68
812.7  340884.38  183051.61  53.70
814.0  341668.45  183492.56  53.70
815.2  342224.75  183850.30  53.72
816.5  342596.60  184120.91  53.74
817.7  343014.25  184382.33  53.75
819.0  343472.25  184683.61  53.77
820.2  343596.00  184806.29  53.79
821.5  344251.50  185217.13  53.80
822.7  344542.75  185442.52  53.82
824.0  344846.70  185653.70  53.84
825.2  345260.48  185946.03  53.86
826.5  345580.25  186162.20  53.87
827.7  346116.18  186496.17  53.88
829.0  346483.48  186721.16  53.89
830.2  346792.85  186928.07  53.90
831.5  347288.75  187228.58  53.91
832.7  347614.05  187428.74  53.92
834.0  347954.08  187665.69  53.93
835.2  348293.28  187916.44  53.95
836.4  348588.90  188119.72  53.97
837.7  348993.80  188391.46  53.98
838.9  349505.95  188697.97  53.99
840.1  349876.13  188946.72  54.00
841.4  350276.40  189228.27  54.02
842.6  350672.60  189486.57  54.04
843.8  351014.00  189720.01  54.05
845.1  351530.05  190070.92  54.07
846.3  351945.60  190355.59  54.09
847.5  352367.40  190660.50  54.11
848.8  352816.20  190923.16  54.11
850.0  353158.05  191179.16  54.13
851.2  353670.30  191521.11  54.15
852.5  354035.80  191770.16  54.17
853.7  354633.75  192125.83  54.18
854.9  355155.30  192428.43  54.18
856.1  355638.40  192710.80  54.19
857.4  355809.95  192859.42  54.20
858.6  356293.50  193161.49  54.21
859.8  356726.25  193445.25  54.23
861.0  357177.60  193741.97  54.24
862.2  357720.48  194040.84  54.24
863.5  358119.45  194284.58  54.25
864.7  358571.40  194578.37  54.26
865.9  358999.40  194814.09  54.27
867.1  359330.90  195050.52  54.28
868.3  359729.10  195337.12  54.30
869.5  360320.95  195635.23  54.29
870.8  360850.50  195923.06  54.29
872.0  361339.73  196222.13  54.30
873.2  361756.35  196435.61  54.30
874.4  362179.35  196710.93  54.31
875.6  362577.38  196980.43  54.33
876.8  363086.30  197256.08  54.33
878.0  363587.45  197539.35  54.33
879.2  364155.90  197805.07  54.32
880.4  364605.00  198083.73  54.33
881.6  365025.70  198287.30  54.32
882.8  365597.60  198535.75  54.30
884.0  366125.68  198875.15  54.32
885.2  366586.00  199119.09  54.32
886.5  367128.20  199455.56  54.33
887.7  367572.08  199672.88  54.32
888.8  368203.35  200009.61  54.32
890.0  368783.05  200283.68  54.31
891.2  369365.40  200582.25  54.30
892.4  369932.33  200863.85  54.30
893.6  370465.75  201154.03  54.30
894.8  371254.50  201588.43  54.30
896.0  371989.00  202013.45  54.31
897.2  372875.75  202426.90  54.29
898.4  373599.60  202811.21  54.29
899.6  374053.88  203069.69  54.29
900.8  374364.18  203214.22  54.28
902.0  374538.90  203299.73  54.28
903.2  374736.83  203456.47  54.29
904.3  375110.70  203600.07  54.28
905.5  375675.78  203877.60  54.27
906.7  376139.00  204144.35  54.27
907.9  376540.50  204381.38  54.28
909.1  376832.93  204469.69  54.26
910.2  377065.20  204499.68  54.23
911.4  377164.13  204640.02  54.26
912.6  377291.20  204672.84  54.25
913.8  377438.18  204806.99  54.26
915.0  377723.85  204975.12  54.27
916.2  377841.75  204965.62  54.25
917.3  377844.98  204891.93  54.23
918.5  377940.50  204996.71  54.24
919.7  378074.70  205063.90  54.24
920.8  377924.03  205021.93  54.25
922.0  378108.50  204993.25  54.22
923.2  378105.00  205046.40  54.23
924.4  378317.25  205008.50  54.19
925.5  378529.40  205042.44  54.17
926.7  379002.25  205312.89  54.17
927.9  379719.60  205679.04  54.17
929.0  381118.50  206392.59  54.15
930.2  383205.30  207382.45  54.12
931.4  385514.10  208539.23  54.09
932.5  388087.45  209812.79  54.06
933.7  389230.98  210463.78  54.07
934.9  389795.00  210604.00  54.03
936.0  389304.50  210248.82  54.01
937.2  386987.55  208953.90  53.99
938.3  385280.75  207872.52  53.95
939.5  383576.40  206907.43  53.94
940.7  384024.60  206839.91  53.86
941.8  385233.30  207462.62  53.85
943.0  386463.00  208017.07  53.83
944.2  387218.00  208231.44  53.78
945.3  386616.75  207834.62  53.76
946.5  385808.40  207170.96  53.70
947.6  385976.80  207002.13  53.63
948.8  385721.70  206675.43  53.58
949.9  385522.20  206412.72  53.54
951.1  385008.00  205847.51  53.47
952.2  384540.00  205375.55  53.41
953.4  384448.75  204958.41  53.31
954.5  384134.40  204564.81  53.25
955.7  384060.60  204218.28  53.17
956.8  383939.80  203655.57  53.04
958.0  383416.50  203121.83  52.98
959.1  382829.60  202649.46  52.93
960.3  382448.43  202167.74  52.86
961.4  382316.50  201880.54  52.80
962.6  382401.25  201691.40  52.74
963.7  381971.03  201404.82  52.73
964.9  381809.03  201128.40  52.68
966.0  381390.53  200927.16  52.68
967.2  381168.45  200655.89  52.64
968.3  380975.40  200488.89  52.63
969.5  380781.15  200263.57  52.59
970.6  381117.00  200185.42  52.53
971.8  381168.03  200187.00  52.52
972.9  380914.50  199984.58  52.50
974.0  381303.00  200074.67  52.47
975.2  381036.63  199850.52  52.45
976.3  381112.08  199739.40  52.41
977.5  380822.23  199654.79  52.43
978.6  380895.20  199535.59  52.39
979.7  380978.33  199608.62  52.39
980.9  381031.63  199360.39  52.32
982.0  380600.35  199124.40  52.32
983.2  380128.20  198910.40  52.33
984.3  379572.40  198657.91  52.34
985.4  380123.78  198781.84  52.29
986.6  379529.25  198660.67  52.34
987.7  380247.18  198872.72  52.30
988.9  380548.80  198547.20  52.17
990.0  379859.40  198724.48  52.32
993.1  386769.54  201757.94  52.16
996.9  385377.68  201549.23  52.30
1000.7  385349.48  202043.41  52.43
1004.5  385405.25  202583.65  52.56
1008.4  385115.17  202930.69  52.69
1012.2  384982.00  203328.45  52.82
1016.0  384607.80  203567.80  52.93
1019.8  383916.23  203588.97  53.03
1023.7  382717.59  203295.97  53.12
1027.5  380973.35  202716.06  53.21
1031.3  379874.78  202407.99  53.28
1035.1  378757.23  202081.43  53.35
1038.9  378277.72  202077.22  53.42
1042.7  377978.33  202171.95  53.49
1046.5  377829.67  202339.06  53.55
1050.3  377847.93  202491.31  53.59
1054.2  377461.58  202469.57  53.64
1058.0  377130.19  202415.74  53.67
1061.8  377085.23  202530.87  53.71
1065.6  376467.83  202254.48  53.72
1069.4  375634.47  201817.44  53.73
1073.2  374317.83  201067.97  53.72
1077.0  373631.10  200624.19  53.70
1080.8  373888.54  200674.68  53.67
1084.6  374052.12  200696.94  53.65
1088.4  374393.13  200840.69  53.64
1092.2  373902.75  200473.23  53.62
1096.0  373251.44  199968.17  53.57
1099.8  372559.63  199392.92  53.52
1103.6  371641.08  198680.86  53.46
1107.4  370462.72  197797.95  53.39
1111.2  370155.10  197369.76  53.32
1114.9  369658.92  196791.61  53.24
1118.7  369443.25  196251.42  53.12
1122.5  369094.27  195537.52  52.98
1126.3  368231.56  194366.55  52.78
1130.1  367847.05  193167.52  52.51
1133.9  366174.20  190928.02  52.14
1137.7  364605.90  188375.50  51.67
1141.4  362546.06  185288.26  51.11
1145.2  361591.75  182622.15  50.51
1149.0  360322.08  179908.41  49.93
1152.8  358479.10  177186.12  49.43
1156.6  356630.63  174870.30  49.03
1160.3  354804.33  172971.18  48.75
1164.1  352473.83  171139.84  48.55
1167.9  350845.83  169890.83  48.42
1171.7  349531.88  168941.25  48.33
1175.4  348078.73  167954.51  48.25
1179.2  346690.00  166986.23  48.17
1183.0  346385.33  166500.64  48.07
1186.7  346430.00  166252.74  47.99
1190.5  346114.93  165925.68  47.94
1194.3  345200.57  165376.59  47.91
1198.0  343698.85  164616.62  47.90
1201.8  341997.08  163826.47  47.90
1205.6  340963.00  163465.11  47.94
1209.3  340421.70  163469.03  48.02
1213.1  339972.38  163613.74  48.13
1216.8  339330.29  163772.49  48.26
1220.6  338184.00  163703.96  48.41
1224.3  336918.00  163540.02  48.54
1228.1  335367.80  163262.55  48.68
1231.9  333774.60  162863.52  48.79
1235.6  332016.53  162347.25  48.90
1239.4  330463.38  161908.90  48.99
1243.1  329063.70  161480.59  49.07
1246.9  327759.26  161058.62  49.14
1250.6  326745.33  160705.72  49.18
1254.3  325562.05  160283.98  49.23
1258.1  324322.83  159776.04  49.26
1261.8  322871.33  159115.93  49.28
1265.6  321740.73  158558.80  49.28
1269.3  321050.33  158172.19  49.27
1273.1  321421.08  158268.32  49.24
1276.8  321128.40  157954.65  49.19
1280.6  319919.23  157127.02  49.11
1284.3  317914.00  155855.45  49.02
1288.0  316696.26  154907.22  48.91
1291.8  316290.22  154301.64  48.78
1295.5  315600.27  153479.48  48.63
1299.2  314428.21  152332.14  48.45
1302.9  312775.39  150825.93  48.22
1306.7  311000.55  149125.14  47.95
1310.4  309276.07  147267.72  47.62
1314.1  307696.22  145370.62  47.24
1317.9  306280.63  143379.82  46.81
1321.6  304729.64  141195.69  46.33
1325.3  303068.85  138791.83  45.80
1329.0  301784.70  136473.98  45.22
1332.8  299853.40  133764.77  44.61
1336.5  298219.07  131152.67  43.98
1340.2  298100.83  129255.03  43.36
1343.9  298159.38  127449.10  42.75
1347.6  298540.35  125819.65  42.14
1351.4  300343.50  124847.34  41.57
1355.1  302861.90  124195.54  41.01
1358.8  304928.00  123304.38  40.44
1362.5  305335.48  121600.96  39.83
1366.2  303216.25  118587.15  39.11
1369.9  299783.50  114691.21  38.26
1373.6  296848.88  110438.90  37.20
1377.3  295437.90  105975.02  35.87
1381.0  295009.33  100935.82  34.21
1384.8  292955.00  94373.43  32.21
1388.4  289570.05  86840.50  29.99
1392.2  287280.50  79361.29  27.63
1395.9  285757.80  72180.04  25.26
1399.6  283889.20  65374.88  23.03
1403.3  282310.54  59388.66  21.04
1407.0  280480.50  54226.31  19.33
1410.7  278529.08  49968.17  17.94
1414.3  276487.52  46556.12  16.84
1418.1  274684.21  43955.17  16.00
1421.7  273219.74  41983.94  15.37
1425.4  271833.90  40507.85  14.90
1429.1  270538.50  39439.44  14.58
1432.8  268844.60  38608.88  14.36
1436.5  268041.91  38119.27  14.22
1440.2  267404.20  37837.75  14.15
1443.9  266301.75  37610.08  14.12
1447.6  264710.60  37419.80  14.14
1451.2  263461.37  37334.82  14.17
1454.9  261958.65  37290.65  14.24
1458.6  260708.54  37391.04  14.34
1462.3  259520.43  37642.40  14.50
1466.0  258167.61  38034.36  14.73
1469.7  256449.16  38553.35  15.03
1473.3  255385.50  39316.11  15.39
1477.0  253307.40  40034.55  15.80
1480.7  251625.51  40883.21  16.25
1484.4  249591.16  41691.90  16.70
1488.0  247984.00  42618.89  17.19
1491.7  246380.29  43553.35  17.68
1495.4  244711.03  44475.02  18.17
1499.0  243194.00  45397.77  18.67
1502.7  241911.67  46371.55  19.17
1506.4  240516.44  47286.78  19.66
1510.0  239046.97  48171.44  20.15
1513.7  237527.50  49009.87  20.63
1517.4  236141.67  49843.83  21.11
1521.0  234886.40  50670.45  21.57
1524.7  233642.50  51434.68  22.01
1528.3  232356.25  52162.95  22.45
1532.0  231132.18  52865.24  22.87
1535.7  229740.10  53472.60  23.28
1539.3  228458.87  54082.14  23.67
1543.0  227481.33  54719.55  24.05
1546.6  226755.75  55394.78  24.43
1550.3  225755.40  55951.79  24.78
1553.9  224715.77  56468.46  25.13
1557.6  223462.80  56897.43  25.46
1561.2  222167.70  57272.39  25.78
1564.9  220818.68  57617.01  26.09
1568.5  219495.50  57924.91  26.39
1572.2  218337.00  58252.98  26.68
1575.8  217238.00  58586.00  26.97
1579.5  216198.50  58911.64  27.25
1583.1  215134.10  59209.10  27.52
1586.8  213808.00  59409.00  27.79
1590.4  212576.93  59613.94  28.04
1594.0  211242.96  59772.94  28.30
1597.7  210450.09  60091.68  28.55
1601.3  209534.85  60360.19  28.81
1604.9  208556.67  60579.74  29.05
1608.6  207191.05  60644.39  29.27
1612.2  205802.85  60666.48  29.48
1615.8  204356.43  60650.50  29.68
1619.5  203085.92  60659.11  29.87
1623.1  201748.50  60616.67  30.05
1626.7  200527.28  60581.63  30.21
1630.3  199342.33  60531.20  30.37
1634.0  198212.00  60466.00  30.51
1637.6  197214.67  60385.53  30.62
1641.2  196166.10  60234.36  30.71
1644.8  194934.84  59965.46  30.76
1648.5  193844.97  59680.56  30.79
1652.1  192873.90  59377.12  30.79
1655.7  191941.40  59041.57  30.76
1659.3  191123.34  58729.11  30.73
1662.9  189677.50  58243.89  30.71
1666.6  188226.07  57769.79  30.69
1670.2  186793.08  57282.69  30.67
1673.8  185305.63  56748.21  30.62
1677.4  184125.25  56252.86  30.55
1681.0  183298.73  55780.90  30.43
1684.6  182886.17  55373.66  30.28
1688.2  182195.40  54799.58  30.08
1691.8  181494.15  54252.49  29.89
1695.4  181050.00  53750.05  29.69
1699.0  180677.93  53269.61  29.48
1702.6  180313.33  52776.36  29.27
1706.2  179686.33  52191.45  29.05
1709.8  178730.07  51513.77  28.82
1713.4  177973.33  50916.65  28.61
1717.0  177088.50  50318.22  28.41
1720.6  176265.75  49766.07  28.23
1724.2  175532.93  49246.11  28.06
1727.8  174805.75  48770.96  27.90
1731.4  174330.75  48414.41  27.77
1735.0  174154.75  48189.37  27.67
1738.6  173936.10  47906.04  27.54
1742.2  173398.68  47475.44  27.38
1745.8  172786.85  46969.16  27.18
1749.4  171845.03  46336.80  26.96
1753.0  170354.07  45549.65  26.74
1756.6  168696.79  44730.16  26.52
1760.1  167334.92  44017.82  26.31
1763.7  165584.67  43246.21  26.12
1767.3  164132.80  42603.82  25.96
1770.9  162852.73  42043.62  25.82
1774.5  161360.46  41464.54  25.70
1778.0  160211.32  41001.59  25.59
1781.6  159105.30  40587.93  25.51
1785.2  157957.83  40203.68  25.45
1788.8  156768.20  39855.37  25.42
1792.3  155532.33  39513.82  25.41
1795.9  154978.63  39387.57  25.41
1799.5  154833.67  39375.93  25.43
1803.1  156004.57  39740.77  25.47
1806.6  158282.02  40402.19  25.53
1810.2  160110.77  40934.39  25.57
1813.8  160974.00  41193.61  25.59
1817.3  160465.00  41075.47  25.60
1820.9  159236.33  40750.99  25.59
1824.5  157828.33  40367.51  25.58
1828.0  156722.04  40022.16  25.54
1831.6  156332.60  39831.37  25.48
1835.2  156187.50  39634.96  25.38
1838.7  156015.33  39340.70  25.22
1842.3  155805.00  38943.22  24.99
1845.8  154522.29  38137.42  24.68
1849.4  153883.40  37328.65  24.26
1852.9  152977.24  36275.24  23.71
1856.5  151883.47  34946.31  23.01
1860.0  150806.22  33347.70  22.11
1863.6  150840.07  31734.87  21.04
1867.1  151657.45  29973.30  19.76
1870.7  152679.65  27876.23  18.26
1874.2  151566.75  25073.55  16.54
1877.8  148693.60  21904.55  14.73
1881.3  145517.13  18719.46  12.86
1884.9  143553.85  15897.93  11.07
1888.4  141947.63  13364.31  9.41
1891.9  140304.20  11230.86  8.00
1895.5  138935.42  9561.03  6.88
1899.0  138329.88  8360.96  6.04
1901.3  176727.50  7154.59  4.05
1904.1  176730.00  6369.38  3.60
1906.8  175686.00  5710.50  3.25
1909.6  173428.15  5168.80  2.98
1912.4  171314.27  4790.92  2.80
1915.1  169820.75  4507.53  2.65
1917.9  168275.83  4294.00  2.55
1920.6  167005.30  4143.83  2.48
1923.3  165616.97  4042.27  2.44
1926.1  163854.73  3953.94  2.41
1928.8  162184.00  3886.67  2.40
1931.6  160922.72  3875.58  2.41
1934.3  159798.87  3862.54  2.42
1937.0  158727.50  3877.97  2.44
1939.8  157510.17  3920.96  2.49
1942.5  155947.00  3960.00  2.54
1945.2  153949.40  4007.58  2.60
1947.9  152316.03  4068.52  2.67
1950.7  151012.20  4155.72  2.75
1953.4  149104.15  4230.65  2.84
1956.1  147625.08  4336.38  2.94
1958.8  146318.25  4448.71  3.04
1961.5  144771.20  4563.20  3.15
1964.2  143170.30  4691.05  3.28
1966.9  141523.90  4810.08  3.40
1969.6  140220.00  4950.00  3.53
1972.3  138795.50  5099.70  3.67
1975.0  137723.70  5256.90  3.82
1977.7  136587.80  5431.07  3.98
1980.4  135401.17  5601.90  4.14
1983.1  134280.25  5787.87  4.31
1985.8  133336.20  5976.90  4.48
1988.4  132296.67  6153.34  4.65
1991.1  131338.90  6358.45  4.84
1993.8  130439.10  6557.28  5.03
1996.5  129784.23  6768.39  5.22
1999.1  129103.52  6975.19  5.40
2001.8  128420.83  7182.93  5.59
2004.5  127725.90  7387.10  5.78
2007.1  126956.05  7590.38  5.98
2009.8  126184.80  7782.95  6.17
2012.4  125587.92  7970.42  6.35
2015.1  125027.93  8158.50  6.53
2017.8  124233.67  8331.17  6.71
2020.4  123726.72  8508.96  6.88
2023.1  123344.43  8685.14  7.04
2025.7  123084.00  8870.34  7.21
2028.3  122737.33  9035.00  7.36
2031.0  122330.80  9186.97  7.51
2033.6  122043.60  9330.75  7.65
2036.2  121782.60  9465.60  7.77
2038.9  121164.90  9561.30  7.89
2041.5  120804.28  9666.79  8.00
2044.1  120242.70  9757.05  8.11
2046.8  119851.20  9857.10  8.22
2049.4  119190.00  9918.00  8.32
2052.0  118886.87  10008.40  8.42
2054.6  118466.25  10080.00  8.51
2057.2  117900.00  10152.50  8.61
2059.8  117559.40  10252.93  8.72
2062.4  116655.15  10311.82  8.84
2065.0  116118.40  10383.94  8.94
2067.6  115216.90  10416.42  9.04
2070.2  114606.73  10481.79  9.15
2072.8  113961.70  10547.17  9.26
2075.4  113522.50  10618.13  9.35
2078.0  112874.62  10667.36  9.45
2080.6  112296.80  10731.60  9.56
2083.2  111590.90  10769.85  9.65
2085.8  111082.82  10829.85  9.75
2088.4  110416.67  10869.42  9.84
2090.9  109617.62  10901.81  9.95
2093.5  108706.67  10918.88  10.04
2096.1  107912.03  10939.65  10.14
2098.7  107121.53  10957.21  10.23
2101.2  106153.67  10951.60  10.32
2103.8  105472.47  10973.43  10.40
2106.4  104817.47  10990.90  10.49
2108.9  104145.00  11008.37  10.57
2111.5  103271.67  11012.74  10.66
2114.0  102616.67  11034.57  10.75
2116.6  102095.00  11064.38  10.84
2119.1  101509.23  11081.07  10.92
2121.7  101010.00  11095.00  10.98
2124.2  100597.50  11129.29  11.06
2126.8  99805.02  11115.31  11.14
2129.3  99378.40  11136.40  11.21
2131.9  98780.00  11145.20  11.28
2134.4  98332.35  11151.00  11.34
2136.9  97938.75  11166.35  11.40
2139.4  97400.33  11158.70  11.46
2142.0  96948.13  11172.00  11.52
2144.5  96671.80  11205.10  11.59
2147.0  96426.40  11242.60  11.66
2149.5  95908.27  11233.67  11.71
2152.1  95744.37  11265.10  11.77
2154.6  95653.33  11306.14  11.82
2157.1  95120.67  11304.21  11.88
2159.6  94711.92  11308.75  11.94
2162.1  94549.00  11334.05  11.99
2164.6  94292.53  11343.60  12.03
2167.1  93954.68  11359.79  12.09
2169.6  93604.47  11368.76  12.15
2172.1  93136.63  11361.62  12.20
2174.6  92805.67  11374.84  12.26
2177.1  92369.17  11381.37  12.32
2179.5  91955.50  11384.97  12.38
2182.0  91452.35  11383.63  12.45
2184.5  90905.73  11367.91  12.51
2187.0  90286.43  11357.73  12.58
2189.5  89608.02  11337.33  12.65
2191.9  88825.00  11305.00  12.73
2194.4  88175.15  11292.88  12.81
2196.9  87408.00  11246.40  12.87
2199.3  86729.33  11213.33  12.93
2201.8  85828.53  11154.40  13.00
2204.3  85336.28  11141.92  13.06
2206.7  84700.15  11110.80  13.12
2209.2  84215.88  11084.16  13.16
2211.6  83565.90  11048.40  13.22
2214.1  83251.65  11034.55  13.25
2216.5  82675.13  10991.24  13.29
2219.0  82337.40  10956.47  13.31
2221.4  81951.33  10923.21  13.33
2223.9  81465.42  10848.84  13.32
2226.3  80959.67  10769.50  13.30
2228.7  80400.92  10654.24  13.25
2231.1  79794.00  10528.65  13.19
2233.6  79188.53  10385.30  13.11
2236.0  78619.33  10243.92  13.03
2238.4  78113.58  10095.17  12.92
2240.9  77648.87  9938.30  12.80
2243.3  77112.47  9754.54  12.65
2245.7  76525.45  9581.85  12.52
2248.1  76025.73  9398.57  12.36
2250.5  75483.98  9214.62  12.21
2252.9  74849.67  9014.85  12.04
2255.3  74286.70  8815.70  11.87
2257.7  73810.00  8635.00  11.70
2260.1  73303.53  8473.15  11.56
2262.5  72680.00  8290.00  11.41
2264.9  72139.57  8121.45  11.26
2267.3  71520.00  7945.00  11.11
2269.7  70995.87  7790.88  10.97
2272.1  70427.18  7642.72  10.85
2274.5  69863.37  7502.48  10.74
2276.8  69385.45  7377.28  10.63
2279.2  68812.35  7246.05  10.53
2281.6  68372.80  7132.24  10.43
2284.0  67912.40  7024.55  10.34
2286.3  67427.20  6895.74  10.23
2288.7  67006.33  6782.10  10.12
2291.1  66455.27  6651.67  10.01
2293.4  66004.40  6529.60  9.89
2295.8  65374.10  6396.30  9.78
2298.2  64759.95  6256.58  9.66
2300.5  64087.20  6111.68  9.54
2302.9  63333.00  5962.33  9.41
2305.2  62582.80  5824.65  9.31
2307.6  61889.68  5705.12  9.22
2309.9  61121.67  5580.00  9.13
2312.2  60512.00  5492.17  9.08
2314.6  59905.80  5407.88  9.03
2316.9  59191.65  5309.55  8.97
2319.2  58613.13  5229.99  8.92
2321.6  57990.92  5155.33  8.89
2323.9  57427.08  5067.71  8.82
2326.2  56882.53  4976.70  8.75
2328.6  56356.85  4890.60  8.68
2330.9  55849.50  4819.50  8.63
2333.2  55403.75  4741.34  8.56
2335.5  54955.20  4649.15  8.46
2337.8  54477.40  4550.57  8.35
2340.1  53884.32  4464.30  8.28
2342.4  53440.83  4387.50  8.21
2344.8  53011.33  4306.63  8.12
2347.1  52442.60  4211.20  8.03
2349.4  51888.50  4131.25  7.96
2351.6  51293.60  4048.63  7.89
2353.9  50797.47  3988.55  7.85
2356.2  50269.57  3924.19  7.81
2358.5  49683.20  3841.60  7.73
2360.8  49112.00  3768.80  7.67
2363.1  48646.68  3695.90  7.60
2365.4  48171.90  3627.30  7.53
2367.7  47709.00  3556.80  7.46
2369.9  47151.10  3492.25  7.41
2372.2  46520.27  3405.60  7.32
2374.5  45922.80  3326.40  7.24
2376.7  45293.38  3246.86  7.17
2379.0  44672.00  3170.09  7.10
2381.3  44053.33  3080.00  6.99
2383.5  43518.93  3003.73  6.90
2385.8  42901.27  2929.90  6.83
2388.0  42373.80  2849.70  6.73
2390.3  41853.73  2776.80  6.63
2392.5  41364.00  2700.00  6.53
2394.8  40873.80  2631.75  6.44
2397.0  40404.00  2560.13  6.34
2399.3  39936.97  2491.50  6.24
2401.5  39494.00  2425.50  6.14
2403.8  38945.30  2352.49  6.04
2406.0  38429.58  2278.46  5.93
2408.2  38010.87  2231.54  5.87
2410.4  37587.32  2159.62  5.75
2412.7  37184.77  2111.20  5.68
2414.9  36811.50  2042.98  5.55
2417.1  36398.20  1987.55  5.46
2419.3  35968.00  1926.40  5.36
2421.6  35598.33  1885.83  5.30
2423.8  35217.47  1821.82  5.17
2426.0  34834.28  1752.75  5.03
2428.2  34456.80  1705.20  4.95
2430.4  34142.00  1660.78  4.86
2432.6  33893.33  1620.00  4.78
2434.8  33577.07  1570.59  4.68
2437.0  33193.77  1517.97  4.57
2439.2  32845.50  1480.08  4.51
2441.4  32515.50  1438.32  4.42
2443.6  32275.73  1395.49  4.32
2445.7  32014.97  1360.57  4.25
2447.9  31730.00  1322.09  4.17
2450.1  31429.85  1285.58  4.09
2452.3  31056.67  1242.27  4.00
2454.5  30678.55  1205.59  3.93
2456.6  30288.13  1162.74  3.84
2458.8  29929.90  1108.25  3.70
2461.0  29611.83  1095.67  3.70
2463.1  29332.80  1062.15  3.62
2465.3  29032.53  1046.29  3.60
2467.5  28806.75  1025.13  3.56
2469.6  28565.42  999.42  3.50
2471.8  28246.35  961.07  3.40
2473.9  27949.42  927.63  3.32
2476.1  27573.00  910.00  3.30
2478.2  27206.73  883.54  3.25
2480.4  26908.55  851.93  3.17
2482.5  26569.40  843.85  3.18
2484.6  26242.33  818.13  3.12
2486.8  25983.50  808.55  3.11
2488.9  25663.70  789.17  3.08
2491.1  25307.33  777.47  3.07
2493.2  24908.00  742.45  2.98
2495.3  24514.97  721.50  2.94
2497.4  24166.10  708.40  2.93
2499.5  23854.23  695.89  2.92
2501.7  23746.17  690.20  2.91
2503.8  23637.37  677.03  2.86
2505.9  23575.00  674.79  2.86
2508.0  23594.95  683.15  2.90
2510.1  23588.12  670.63  2.84
2512.2  23689.85  660.60  2.79
2514.3  23881.03  664.42  2.78
2516.4  24112.80  699.35  2.90
