/*** Spectra Vista SIG Data ***/
name= 55_20220722_LIST_57_avg.sig
comm= Averaged Ref/Tar of files: HR.072222.0040_moc.sig,HR.072222.0041_moc.sig,HR.072222.0042_moc.sig
data=
337.3  3010.58  263.72  8.76
338.8  3142.53  251.04  7.99
340.3  3310.73  255.22  7.71
341.8  3475.10  253.45  7.29
343.2  3640.80  252.02  6.92
344.7  3781.63  253.46  6.70
346.2  3948.83  250.55  6.34
347.7  4116.02  242.69  5.90
349.2  4284.00  236.88  5.53
350.6  4504.93  235.04  5.22
352.1  4739.52  228.64  4.82
353.6  4996.80  242.57  4.85
355.1  5253.30  244.38  4.65
356.6  5506.20  249.71  4.54
358.0  5763.27  254.59  4.42
359.5  6015.20  256.62  4.27
361.0  6284.25  263.34  4.19
362.5  6616.15  271.00  4.10
364.0  6920.23  276.92  4.00
365.4  7249.80  280.46  3.87
366.9  7587.67  289.40  3.81
368.4  7909.75  301.84  3.82
369.9  8251.63  308.86  3.74
371.3  8633.00  320.91  3.72
372.8  8991.60  332.25  3.70
374.3  9370.42  339.90  3.63
375.8  9737.93  343.42  3.53
377.2  10114.40  349.96  3.46
378.7  10491.00  346.37  3.30
380.2  10867.60  362.25  3.33
381.7  11350.50  364.97  3.22
383.1  11804.10  378.84  3.21
384.6  12282.62  392.55  3.20
386.1  12737.78  393.28  3.09
387.6  13169.57  401.94  3.05
389.0  13650.13  412.98  3.03
390.5  14124.60  416.20  2.95
392.0  14653.30  426.73  2.91
393.4  15186.95  445.42  2.93
394.9  15694.80  464.83  2.96
396.4  16197.75  473.64  2.92
397.9  16724.58  478.33  2.86
399.3  17237.88  481.90  2.80
400.8  17746.60  494.70  2.79
402.2  18330.67  510.64  2.79
403.7  18858.75  526.90  2.79
405.2  19429.28  540.69  2.78
406.6  19952.00  555.92  2.79
408.1  20490.67  563.92  2.75
409.6  21057.37  573.63  2.72
411.0  21663.13  591.70  2.73
412.5  22268.87  609.28  2.74
414.0  22860.75  630.27  2.76
415.4  23505.50  643.57  2.74
416.9  24119.45  659.02  2.73
418.4  24750.60  679.06  2.74
419.8  25407.20  694.72  2.73
421.3  26060.15  716.73  2.75
422.7  26761.20  739.09  2.76
424.2  27483.75  761.79  2.77
425.7  28177.27  780.23  2.77
427.1  28875.35  799.69  2.77
428.6  29594.67  824.01  2.78
430.0  30279.18  841.71  2.78
431.5  31063.90  863.66  2.78
432.9  31849.10  883.46  2.77
434.4  32661.00  913.25  2.80
435.9  33422.67  939.47  2.81
437.3  34191.67  958.83  2.80
438.8  34960.15  980.50  2.80
440.2  35735.70  1004.34  2.81
441.7  36617.73  1028.35  2.81
443.1  37453.33  1055.20  2.82
444.6  38321.87  1083.68  2.83
446.0  39175.85  1112.14  2.84
447.5  40041.65  1140.11  2.85
448.9  40893.00  1167.14  2.85
450.4  41811.23  1194.61  2.86
451.8  42596.67  1221.50  2.87
453.3  43435.15  1251.71  2.88
454.7  44364.62  1278.60  2.88
456.2  45150.15  1306.13  2.89
457.6  46037.70  1329.78  2.89
459.1  46912.88  1358.39  2.90
460.5  47766.58  1384.63  2.90
462.0  48735.08  1409.43  2.89
463.4  49667.07  1438.89  2.90
464.8  50569.75  1462.29  2.89
466.3  51462.40  1489.59  2.89
467.7  52368.38  1520.37  2.90
469.2  53344.25  1549.59  2.90
470.6  54223.63  1570.39  2.90
472.0  55174.00  1600.53  2.90
473.5  56085.67  1633.12  2.91
474.9  57019.00  1660.60  2.91
476.4  58080.00  1693.71  2.92
477.8  59053.67  1723.98  2.92
479.2  59981.67  1753.53  2.92
480.7  60978.35  1780.01  2.92
482.1  62009.77  1814.92  2.93
483.6  63088.70  1854.28  2.94
485.0  64085.65  1888.37  2.95
486.4  65164.60  1927.25  2.96
487.9  66144.00  1963.09  2.97
489.3  67214.72  2002.60  2.98
490.7  68186.57  2044.67  3.00
492.2  69305.60  2091.32  3.02
493.6  70320.00  2139.46  3.04
495.0  71331.00  2187.62  3.07
496.5  72396.67  2243.18  3.10
497.9  73404.35  2305.23  3.14
499.3  74460.95  2366.73  3.18
500.7  75603.77  2446.69  3.24
502.2  76650.00  2528.72  3.30
503.6  77769.33  2623.83  3.37
505.0  78738.87  2729.64  3.47
506.5  79922.90  2850.03  3.57
507.9  81023.57  2990.13  3.69
509.3  82278.13  3153.10  3.83
510.7  83430.75  3333.11  4.00
512.2  84698.05  3547.06  4.19
513.6  86023.47  3791.95  4.41
515.0  87303.57  4071.60  4.66
516.4  88546.50  4381.29  4.95
517.8  90004.50  4737.39  5.26
519.3  91206.00  5115.26  5.61
520.7  92608.23  5533.56  5.98
522.1  93781.57  5961.60  6.36
523.5  95020.40  6412.53  6.75
524.9  96329.40  6875.09  7.14
526.3  97580.00  7325.88  7.51
527.8  98901.00  7775.74  7.86
529.2  99949.20  8198.69  8.20
530.6  101439.00  8636.97  8.51
532.0  103030.67  9058.13  8.79
533.4  104183.60  9408.64  9.03
534.8  104944.78  9695.31  9.24
536.3  106476.60  10021.95  9.41
537.7  108351.60  10358.64  9.56
539.1  109700.72  10625.56  9.69
540.5  110771.63  10854.64  9.80
541.9  112364.90  11125.69  9.90
543.3  113535.32  11352.76  10.00
544.7  114706.80  11578.49  10.09
546.1  116312.90  11851.64  10.19
547.5  117502.93  12067.20  10.27
549.0  119122.67  12318.53  10.34
550.4  120480.42  12524.35  10.40
551.8  121886.52  12716.20  10.43
553.2  123283.77  12869.49  10.44
554.6  124494.93  12964.54  10.41
556.0  125897.40  13031.34  10.35
557.4  127348.55  13053.75  10.25
558.8  128823.00  13041.59  10.12
560.2  130130.17  12973.30  9.97
561.6  131646.90  12893.44  9.79
563.0  133095.35  12775.51  9.60
564.4  134533.60  12629.05  9.39
565.8  135915.00  12446.83  9.16
567.2  137478.17  12251.93  8.91
568.6  138844.75  12012.42  8.65
570.0  140150.75  11748.27  8.38
571.4  141727.30  11495.58  8.11
572.8  143319.67  11250.02  7.85
574.2  144786.13  11007.57  7.60
575.6  146175.00  10780.71  7.38
577.0  147547.87  10574.00  7.17
578.4  149118.67  10408.02  6.98
579.8  150490.80  10244.66  6.81
581.2  152056.92  10114.79  6.65
582.5  153340.20  9981.77  6.51
583.9  154713.73  9871.54  6.38
585.3  156336.75  9790.08  6.26
586.7  157679.82  9708.64  6.16
588.1  159031.50  9643.42  6.06
589.5  160524.00  9599.80  5.98
590.9  162018.40  9573.04  5.91
592.3  163652.00  9569.08  5.85
593.7  164960.90  9559.85  5.80
595.0  166425.75  9565.50  5.75
596.4  167745.67  9576.59  5.71
597.8  169085.90  9581.86  5.67
599.2  170491.20  9593.76  5.63
600.6  172087.93  9596.54  5.58
602.0  173263.05  9566.78  5.52
603.3  174885.33  9550.04  5.46
604.7  176389.27  9506.34  5.39
606.1  177744.00  9435.78  5.31
607.5  179233.32  9357.07  5.22
608.9  180767.30  9270.86  5.13
610.2  182025.90  9155.16  5.03
611.6  183474.60  9046.03  4.93
613.0  184873.30  8933.68  4.83
614.4  186123.60  8818.69  4.74
615.8  187453.50  8719.01  4.65
617.1  188836.20  8637.16  4.57
618.5  190308.27  8565.96  4.50
619.9  191676.80  8510.95  4.44
621.3  193140.90  8479.33  4.39
622.6  194579.83  8460.99  4.35
624.0  195895.70  8452.18  4.31
625.4  197222.85  8460.32  4.29
626.8  198648.45  8488.48  4.27
628.1  199848.73  8509.63  4.26
629.5  201527.88  8552.71  4.24
630.9  202977.50  8585.92  4.23
632.2  204220.57  8601.64  4.21
633.6  205682.67  8610.45  4.19
635.0  207065.07  8585.91  4.15
636.3  208430.40  8536.97  4.10
637.7  209681.50  8457.16  4.03
639.1  211166.67  8363.00  3.96
640.4  212500.63  8248.67  3.88
641.8  213602.92  8120.73  3.80
643.2  215050.27  8000.01  3.72
644.5  216286.83  7875.66  3.64
645.9  217796.10  7774.65  3.57
647.2  219387.93  7695.76  3.51
648.6  220968.00  7637.53  3.46
650.0  222220.80  7584.27  3.41
651.3  222665.48  7524.42  3.38
652.7  223815.50  7494.10  3.35
654.0  225809.27  7490.26  3.32
655.4  227142.67  7455.02  3.28
656.8  227257.27  7378.58  3.25
658.1  228331.73  7315.02  3.20
659.5  230611.15  7292.37  3.16
660.8  232365.00  7249.71  3.12
662.2  233169.07  7176.11  3.08
663.5  234612.80  7137.36  3.04
664.9  235777.53  7100.62  3.01
666.2  236415.20  7062.98  2.99
667.6  237939.85  7072.13  2.97
668.9  239050.32  7098.59  2.97
670.3  240128.50  7124.20  2.97
671.6  241531.25  7179.46  2.97
673.0  242593.25  7251.10  2.99
674.3  243748.27  7331.31  3.01
675.7  244944.20  7431.50  3.03
677.0  245945.83  7535.91  3.06
678.4  247164.55  7661.34  3.10
679.7  248177.70  7796.85  3.14
681.1  249388.63  7967.60  3.19
682.4  250451.93  8156.79  3.26
683.8  251586.40  8372.32  3.33
685.1  252490.50  8627.06  3.42
686.4  253657.20  8943.01  3.53
687.8  254821.83  9345.85  3.67
689.1  255800.83  9862.05  3.86
690.5  257069.70  10576.87  4.11
691.8  257803.23  11522.18  4.47
693.1  259010.30  12805.66  4.94
694.5  260062.83  14435.63  5.55
695.8  261170.00  16457.13  6.30
697.1  262292.33  18887.70  7.20
698.5  263259.47  21729.74  8.25
699.8  264269.57  24964.10  9.45
701.1  265312.62  28548.47  10.76
702.5  266029.87  32379.65  12.17
703.8  266925.00  36448.71  13.66
705.1  267993.70  40696.89  15.19
706.5  268962.42  45047.91  16.75
707.8  269868.80  49459.91  18.33
709.1  270683.18  53891.70  19.91
710.5  271739.90  58403.05  21.49
711.8  272506.00  62874.96  23.07
713.1  273427.73  67381.68  24.64
714.4  274275.13  71850.60  26.20
715.8  275033.33  76282.14  27.74
717.1  276246.00  80794.19  29.25
718.4  277117.87  85152.43  30.73
719.7  278120.63  89490.31  32.18
721.0  278610.00  93585.00  33.59
722.4  279334.37  97642.79  34.96
723.7  280240.90  101644.57  36.27
725.0  281199.15  105545.29  37.53
726.3  282086.57  109268.71  38.74
727.6  282588.72  112703.76  39.88
729.0  283429.42  116103.99  40.96
730.3  284113.15  119278.71  41.98
731.6  284945.63  122337.83  42.93
732.9  285692.87  125195.12  43.82
734.2  286452.83  127893.75  44.65
735.5  287397.08  130519.84  45.41
736.8  288113.00  132891.09  46.12
738.1  288855.40  135133.33  46.78
739.5  289745.43  137279.00  47.38
740.8  290404.03  139175.57  47.92
742.1  291089.73  140966.45  48.43
743.4  291783.33  142644.76  48.89
744.7  292684.55  144324.68  49.31
746.0  293485.40  145846.03  49.69
747.3  293979.93  147114.43  50.04
748.6  294648.67  148363.16  50.35
749.9  295325.33  149517.33  50.63
751.2  296000.57  150580.17  50.87
752.5  296837.37  151654.56  51.09
753.8  297428.83  152535.77  51.28
755.1  298081.33  153386.13  51.46
756.4  298625.92  154123.28  51.61
757.7  299497.45  154983.84  51.75
759.0  301150.42  156184.61  51.86
760.3  302244.80  157066.42  51.97
761.6  303701.07  158082.53  52.05
762.9  304218.83  158586.74  52.13
764.2  304561.80  158979.51  52.20
765.5  304823.98  159306.46  52.26
766.8  305220.27  159668.14  52.31
768.1  305692.67  160061.93  52.36
769.3  306251.40  160466.38  52.40
770.6  306891.00  160904.16  52.43
771.9  307558.30  161349.91  52.46
773.2  307950.67  161617.10  52.48
774.5  308498.67  161998.03  52.51
775.8  309137.37  162392.53  52.53
777.1  309650.73  162728.63  52.55
778.4  309962.95  162961.25  52.57
779.6  310665.88  163382.75  52.59
780.9  311120.00  163661.71  52.60
782.2  311554.83  163928.50  52.62
783.5  311852.33  164135.31  52.63
784.8  312318.90  164430.53  52.65
786.0  312683.70  164655.34  52.66
787.3  313050.35  164890.03  52.67
788.6  313476.25  165139.02  52.68
789.9  313907.07  165398.21  52.69
791.2  314500.77  165746.56  52.70
792.4  315109.10  166105.44  52.71
793.7  315540.93  166366.35  52.72
795.0  316128.45  166694.75  52.73
796.2  316718.15  167040.82  52.74
797.5  317386.50  167414.85  52.75
798.8  318058.27  167765.60  52.75
800.0  318672.88  168122.34  52.76
801.3  319099.93  168371.78  52.76
802.6  319659.30  168684.74  52.77
803.8  320250.23  169023.75  52.78
805.1  320740.58  169273.08  52.78
806.4  321183.00  169533.39  52.78
807.7  321702.30  169811.79  52.79
808.9  322246.33  170118.76  52.79
810.2  322728.00  170382.15  52.79
811.4  323206.00  170654.91  52.80
812.7  323781.25  170963.93  52.80
814.0  324563.77  171382.30  52.80
815.2  325176.83  171716.56  52.81
816.5  325573.87  171943.30  52.81
817.7  326031.37  172210.48  52.82
819.0  326541.23  172474.15  52.82
820.2  326714.67  172573.87  52.82
821.5  327373.80  172926.47  52.82
822.7  327700.45  173125.56  52.83
824.0  328062.60  173307.03  52.83
825.2  328509.00  173565.95  52.83
826.5  328844.90  173736.98  52.83
827.7  329355.45  174012.41  52.83
829.0  329738.32  174215.54  52.83
830.2  330029.30  174376.71  52.84
831.5  330521.93  174616.57  52.83
832.7  330842.75  174779.45  52.83
834.0  331177.93  174939.86  52.82
835.2  331537.80  175142.36  52.83
836.4  331837.00  175314.20  52.83
837.7  332209.87  175529.54  52.84
838.9  332653.00  175771.08  52.84
840.1  333012.60  176002.80  52.85
841.4  333434.00  176225.26  52.85
842.6  333775.73  176428.72  52.86
843.8  334176.27  176641.61  52.86
845.1  334654.87  176917.26  52.87
846.3  335037.47  177147.33  52.87
847.5  335477.80  177368.64  52.87
848.8  335862.40  177599.07  52.88
850.0  336221.67  177792.35  52.88
851.2  336750.30  178084.21  52.88
852.5  337103.47  178310.64  52.89
853.7  337603.50  178569.99  52.89
854.9  338079.47  178820.02  52.89
856.1  338543.83  179049.80  52.89
857.4  338718.05  179163.94  52.89
858.6  339222.53  179417.10  52.89
859.8  339613.75  179642.93  52.90
861.0  340095.60  179896.53  52.90
862.2  340544.02  180154.14  52.90
863.5  340881.45  180327.27  52.90
864.7  341462.00  180585.93  52.89
865.9  341799.33  180822.65  52.90
867.1  342128.10  180988.14  52.90
868.3  342613.40  181235.37  52.90
869.5  343097.97  181486.51  52.90
870.8  343638.00  181758.17  52.89
872.0  344147.80  182015.69  52.89
873.2  344537.30  182236.87  52.89
874.4  345015.45  182462.34  52.89
875.6  345372.57  182645.24  52.88
876.8  345827.20  182898.84  52.89
878.0  346359.30  183154.17  52.88
879.2  346909.60  183420.03  52.87
880.4  347434.00  183704.21  52.87
881.6  347885.17  183941.76  52.87
882.8  348277.87  184142.72  52.87
884.0  348839.53  184432.78  52.87
885.2  349396.80  184679.50  52.86
886.5  350009.77  184940.01  52.84
887.7  350557.35  185211.43  52.83
888.8  351165.35  185533.39  52.83
890.0  351741.43  185798.09  52.82
891.2  352312.00  186123.90  52.83
892.4  352922.85  186388.37  52.81
893.6  353476.03  186660.23  52.81
894.8  354376.33  187097.22  52.80
896.0  355182.67  187499.32  52.79
897.2  355983.33  187882.44  52.78
898.4  356754.20  188251.49  52.77
899.6  357330.00  188538.07  52.76
900.8  357742.17  188714.77  52.75
902.0  357997.30  188804.44  52.74
903.2  358277.20  188938.92  52.74
904.3  358632.40  189137.12  52.74
905.5  359244.85  189442.66  52.73
906.7  359870.67  189743.90  52.73
907.9  360419.50  189977.76  52.71
909.1  360756.90  190098.58  52.69
910.2  361038.35  190156.71  52.67
911.4  361294.05  190262.73  52.66
912.6  361489.70  190379.71  52.67
913.8  361788.60  190519.93  52.66
915.0  362271.70  190714.16  52.64
916.2  362589.50  190769.61  52.61
917.3  362642.10  190742.55  52.60
918.5  362892.27  190828.20  52.59
919.7  363078.00  190912.88  52.58
920.8  363246.93  190909.88  52.56
922.0  363375.83  190926.63  52.54
923.2  363727.00  191040.20  52.52
924.4  364018.50  191107.74  52.50
925.5  364312.33  191168.77  52.47
926.7  364859.67  191398.10  52.46
927.9  365645.20  191679.01  52.42
929.0  366992.10  192287.21  52.40
930.2  369145.93  193274.48  52.36
931.4  371519.55  194432.31  52.33
932.5  374050.13  195604.01  52.29
933.7  375369.70  196142.73  52.25
934.9  376089.58  196312.75  52.20
936.0  375627.42  196046.53  52.19
937.2  373806.70  194956.83  52.15
938.3  372410.20  194069.11  52.11
939.5  370999.20  193194.17  52.07
940.7  371418.60  193179.58  52.01
941.8  372836.60  193726.00  51.96
943.0  374154.50  194255.79  51.92
944.2  374919.57  194517.03  51.88
945.3  374575.50  194142.00  51.83
946.5  374049.00  193633.35  51.77
947.6  374280.53  193475.14  51.69
948.8  374209.55  193211.94  51.63
949.9  374270.40  193034.64  51.58
951.1  374045.97  192576.57  51.48
952.2  373864.00  192183.54  51.40
953.4  373740.83  191680.59  51.29
954.5  373744.80  191413.34  51.21
955.7  373850.40  191050.08  51.10
956.8  373625.87  190602.32  51.01
958.0  373301.33  190182.01  50.95
959.1  373349.15  189897.07  50.86
960.3  373019.45  189473.12  50.79
961.4  372934.50  189261.75  50.75
962.6  373210.83  189192.43  50.69
963.7  373057.55  188961.00  50.65
964.9  373023.15  188871.21  50.63
966.0  372903.75  188653.78  50.59
967.2  373155.90  188613.16  50.55
968.3  373015.80  188508.14  50.54
969.5  372766.67  188374.97  50.53
970.6  372840.22  188446.68  50.54
971.8  372883.93  188512.28  50.56
972.9  372796.65  188506.59  50.57
974.0  373046.87  188581.26  50.55
975.2  373190.75  188489.43  50.51
976.3  373105.02  188372.45  50.49
977.5  372880.55  188432.00  50.53
978.6  372893.20  188458.53  50.54
979.7  372908.55  188683.07  50.60
980.9  373065.28  188675.61  50.57
982.0  373081.13  188752.91  50.59
983.2  372634.63  188594.58  50.61
984.3  372684.27  188517.33  50.58
985.4  372602.30  188670.55  50.64
986.6  372569.17  188834.66  50.68
987.7  373507.52  189294.33  50.68
988.9  373195.20  189355.20  50.74
990.0  374037.80  189798.02  50.74
993.1  327357.33  163667.43  50.00
996.9  327837.93  164547.84  50.19
1000.7  328786.15  165582.18  50.36
1004.5  329261.50  166366.48  50.53
1008.4  329052.13  166793.67  50.69
1012.2  329028.63  167324.52  50.85
1016.0  329025.60  167847.86  51.01
1019.8  329140.35  168410.55  51.17
1023.7  329106.02  168791.64  51.29
1027.5  328834.87  169020.75  51.40
1031.3  329073.78  169408.58  51.48
1035.1  328976.55  169594.73  51.55
1038.9  328987.08  169779.37  51.61
1042.7  328899.50  169914.27  51.66
1046.5  328807.67  169987.05  51.70
1050.3  328852.48  170117.99  51.73
1054.2  328582.33  170103.50  51.77
1058.0  328138.83  169928.50  51.79
1061.8  328048.85  169954.20  51.81
1065.6  327813.83  169855.66  51.81
1069.4  327820.00  169850.42  51.81
1073.2  327487.32  169645.67  51.80
1077.0  327062.33  169383.90  51.79
1080.8  326642.71  169071.73  51.76
1084.6  325705.45  168483.82  51.73
1088.4  325131.66  168076.57  51.69
1092.2  324411.75  167539.82  51.64
1096.0  323875.58  167097.02  51.59
1099.8  323484.85  166683.15  51.53
1103.6  322892.08  166142.83  51.45
1107.4  322079.94  165467.43  51.37
1111.2  321901.70  165107.83  51.29
1114.9  321323.33  164507.83  51.20
1118.7  320819.40  163836.16  51.07
1122.5  320223.80  163015.42  50.91
1126.3  319233.54  161884.64  50.71
1130.1  318811.33  160793.12  50.44
1133.9  317430.40  158929.80  50.07
1137.7  316161.40  156850.77  49.61
1141.4  314586.89  154349.18  49.06
1145.2  313930.80  152136.30  48.46
1149.0  312945.21  149851.46  47.88
1152.8  311490.40  147580.57  47.38
1156.6  310034.08  145714.80  47.00
1160.3  308522.33  144213.24  46.74
1164.1  306430.50  142765.49  46.59
1167.9  304845.83  141799.11  46.52
1171.7  303699.38  141156.00  46.48
1175.4  302641.50  140630.13  46.47
1179.2  301714.00  140128.35  46.44
1183.0  301466.00  139893.67  46.40
1186.7  301017.03  139561.80  46.36
1190.5  300093.47  139011.69  46.32
1194.3  299064.80  138453.36  46.30
1198.0  298003.20  137967.34  46.30
1201.8  296654.25  137415.37  46.32
1205.6  295581.67  137037.33  46.36
1209.3  294737.12  136852.45  46.43
1213.1  293934.68  136663.97  46.49
1216.8  293085.65  136520.81  46.58
1220.6  292107.20  136314.93  46.67
1224.3  291027.58  136047.37  46.75
1228.1  289952.40  135827.71  46.84
1231.9  288875.60  135531.38  46.92
1235.6  287589.53  135125.85  46.99
1239.4  286415.25  134791.79  47.06
1243.1  285328.32  134427.32  47.11
1246.9  284262.98  134041.40  47.15
1250.6  283382.53  133718.62  47.19
1254.3  282429.77  133337.04  47.21
1258.1  281531.95  132950.47  47.22
1261.8  280409.87  132429.77  47.23
1265.6  279126.07  131791.26  47.22
1269.3  277857.73  131103.47  47.18
1273.1  277790.98  130930.61  47.13
1276.8  278045.60  130855.60  47.06
1280.6  277906.00  130594.31  46.99
1284.3  276668.00  129768.52  46.90
1288.0  275393.70  128847.46  46.79
1291.8  274256.78  127898.48  46.63
1295.5  273056.67  126851.79  46.46
1299.2  271968.87  125775.83  46.25
1302.9  270695.33  124509.90  46.00
1306.7  269322.78  123124.75  45.72
1310.4  267997.14  121609.17  45.38
1314.1  266793.82  120059.50  45.00
1317.9  265720.00  118420.78  44.57
1321.6  264471.73  116583.02  44.08
1325.3  263027.10  114520.28  43.54
1329.0  261834.07  112491.88  42.96
1332.8  259982.80  110052.80  42.33
1336.5  258388.33  107706.33  41.68
1340.2  258076.00  105908.83  41.04
1343.9  257735.63  104107.56  40.39
1347.6  257257.95  102287.83  39.76
1351.4  257563.50  100849.64  39.16
1355.1  258021.50  99507.94  38.57
1358.8  258272.00  98034.28  37.96
1362.5  257910.38  96185.79  37.29
1366.2  256316.65  93626.16  36.53
1369.9  254555.63  90653.05  35.61
1373.6  252759.44  87187.48  34.49
1377.3  251188.20  83145.64  33.10
1381.0  250179.17  78449.90  31.36
1384.8  248381.25  72614.29  29.24
1388.4  246223.25  66212.10  26.89
1392.2  244563.17  59673.76  24.40
1395.9  243163.35  53239.63  21.89
1399.6  241691.61  47251.10  19.55
1403.3  240598.23  42072.50  17.49
1407.0  239550.60  37742.80  15.76
1410.7  238432.43  34290.18  14.38
1414.3  237304.90  31632.33  13.33
1418.1  236271.54  29692.05  12.57
1421.7  235448.56  28303.18  12.02
1425.4  234593.45  27337.88  11.65
1429.1  233792.25  26697.59  11.42
1432.8  232480.93  26249.20  11.29
1436.5  231752.53  26032.47  11.23
1440.2  230993.77  25945.18  11.23
1443.9  229865.35  25899.85  11.27
1447.6  228443.60  25891.80  11.33
1451.2  227489.17  25966.15  11.41
1454.9  226341.00  26066.65  11.52
1458.6  225394.04  26265.97  11.65
1462.3  224372.50  26568.20  11.84
1466.0  223192.66  26981.96  12.09
1469.7  221749.34  27518.57  12.41
1473.3  220838.67  28259.62  12.80
1477.0  219166.87  29010.17  13.24
1480.7  217778.64  29866.62  13.71
1484.4  216098.09  30709.00  14.21
1488.0  214749.33  31631.81  14.73
1491.7  213344.76  32539.42  15.25
1495.4  211838.31  33442.57  15.79
1499.0  210424.00  34331.86  16.32
1502.7  209286.75  35269.35  16.85
1506.4  208037.89  36156.33  17.38
1510.0  206808.17  37027.01  17.90
1513.7  205542.75  37854.54  18.42
1517.4  204379.00  38671.33  18.92
1521.0  203328.53  39490.13  19.42
1524.7  202250.75  40246.14  19.90
1528.3  201111.75  40964.52  20.37
1532.0  200047.28  41648.20  20.82
1535.7  198828.74  42258.49  21.25
1539.3  197735.28  42863.34  21.68
1543.0  196873.12  43489.87  22.09
1546.6  196251.25  44139.18  22.49
1550.3  195379.30  44689.04  22.87
1553.9  194445.87  45183.33  23.24
1557.6  193338.93  45609.77  23.59
1561.2  192244.95  45991.16  23.92
1564.9  191092.56  46342.27  24.25
1568.5  189951.77  46655.93  24.56
1572.2  188944.40  46979.18  24.86
1575.8  188006.00  47300.00  25.16
1579.5  187113.50  47606.41  25.44
1583.1  186218.68  47906.26  25.73
1586.8  185136.00  48126.00  25.99
1590.4  184215.57  48366.89  26.26
1594.0  183072.50  48533.47  26.51
1597.7  182092.38  48734.24  26.76
1601.3  180943.88  48871.35  27.01
1604.9  179823.76  48980.62  27.24
1608.6  178679.03  49051.54  27.45
1612.2  177780.90  49159.63  27.65
1615.8  176783.75  49217.96  27.84
1619.5  175795.33  49253.07  28.02
1623.1  174639.20  49218.53  28.18
1626.7  173555.53  49164.05  28.33
1630.3  172497.08  49090.05  28.46
1634.0  171416.00  48986.00  28.58
1637.6  170431.73  48855.54  28.67
1641.2  169400.85  48651.14  28.72
1644.8  168213.66  48331.12  28.73
1648.5  167225.81  48010.31  28.71
1652.1  166323.60  47662.03  28.66
1655.7  165515.20  47324.54  28.59
1659.3  164760.53  47052.19  28.56
1662.9  163525.83  46711.55  28.57
1666.6  162287.13  46428.04  28.61
1670.2  161094.44  46161.54  28.65
1673.8  159882.78  45868.68  28.69
1677.4  158919.55  45624.37  28.71
1681.0  158245.23  45413.99  28.70
1684.6  157888.25  45241.70  28.65
1688.2  157277.25  44906.03  28.55
1691.8  156689.67  44592.72  28.46
1695.4  156313.60  44269.52  28.32
1699.0  156025.80  43938.30  28.16
1702.6  155774.67  43602.00  27.99
1706.2  155278.61  43206.48  27.83
1709.8  154496.95  42757.65  27.68
1713.4  153884.18  42357.91  27.53
1717.0  153149.25  41917.39  27.37
1720.6  152448.45  41467.09  27.20
1724.2  151832.03  41007.50  27.01
1727.8  151192.30  40527.50  26.81
1731.4  150750.88  40083.41  26.59
1735.0  150568.92  39695.94  26.36
1738.6  150343.95  39265.07  26.12
1742.2  149841.52  38746.46  25.86
1745.8  149290.21  38210.72  25.59
1749.4  148457.93  37593.13  25.32
1753.0  147147.27  36858.38  25.05
1756.6  145679.33  36115.09  24.79
1760.1  144506.65  35460.91  24.54
1763.7  142998.67  34745.33  24.30
1767.3  141734.50  34126.41  24.08
1770.9  140658.58  33564.24  23.86
1774.5  139396.03  32999.69  23.67
1778.0  138396.08  32527.53  23.50
1781.6  137425.65  32109.34  23.36
1785.2  136411.98  31711.34  23.25
1788.8  135386.60  31362.70  23.17
1792.3  134327.53  31030.30  23.10
1795.9  133909.97  30872.68  23.05
1799.5  133464.33  30740.24  23.03
1803.1  132915.77  30583.35  23.01
1806.6  133380.86  30630.12  22.96
1810.2  134433.83  30809.07  22.92
1813.8  135337.40  30967.56  22.88
1817.3  135407.00  30954.00  22.86
1820.9  134734.40  30760.46  22.83
1824.5  133704.95  30475.96  22.79
1828.0  132969.83  30227.15  22.73
1831.6  132319.30  29977.56  22.66
1835.2  131750.00  29683.21  22.53
1838.7  131410.40  29359.41  22.34
1842.3  131085.00  28962.86  22.09
1845.8  130361.46  28357.30  21.75
1849.4  129912.63  27682.57  21.31
1852.9  129312.17  26813.19  20.74
1856.5  128514.30  25706.08  20.00
1860.0  127803.52  24406.43  19.10
1863.6  127608.30  22994.03  18.02
1867.1  127527.40  21383.60  16.77
1870.7  127550.60  19490.04  15.28
1874.2  126880.65  17232.30  13.58
1877.8  125665.67  14884.14  11.84
1881.3  124247.38  12593.16  10.14
1884.9  123303.13  10585.42  8.58
1888.4  122358.25  8820.24  7.21
1891.9  121368.73  7432.89  6.12
1895.5  120357.77  6409.66  5.33
1899.0  119822.88  5746.13  4.80
1901.3  148824.63  4264.88  2.87
1904.1  148680.56  3918.38  2.64
1906.8  147986.55  3658.95  2.47
1909.6  146397.56  3460.36  2.36
1912.4  144914.09  3314.65  2.29
1915.1  143772.75  3210.21  2.23
1917.9  142507.13  3131.04  2.20
1920.6  141467.83  3063.80  2.17
1923.3  140439.78  3027.56  2.16
1926.1  139166.00  3004.37  2.16
1928.8  137940.00  2984.67  2.16
1931.6  136961.16  2977.49  2.17
1934.3  136052.35  2979.67  2.19
1937.0  135156.93  2994.11  2.22
1939.8  134187.13  3008.77  2.24
1942.5  132998.25  3022.25  2.27
1945.2  131489.74  3033.11  2.31
1947.9  130257.75  3052.64  2.34
1950.7  129278.93  3091.15  2.39
1953.4  127779.00  3118.08  2.44
1956.1  126602.38  3161.65  2.50
1958.8  125558.39  3214.25  2.56
1961.5  124296.60  3266.00  2.63
1964.2  123006.98  3323.78  2.70
1966.9  121652.36  3382.44  2.78
1969.6  120588.75  3458.25  2.87
1972.3  119375.70  3526.63  2.95
1975.0  118466.10  3613.01  3.05
1977.7  117510.74  3703.00  3.15
1980.4  116522.15  3800.35  3.26
1983.1  115576.46  3907.25  3.38
1985.8  114768.23  4015.05  3.50
1988.4  113867.00  4131.83  3.63
1991.1  113066.45  4251.92  3.76
1993.8  112298.86  4372.96  3.89
1996.5  111756.01  4510.83  4.04
1999.1  111155.00  4644.39  4.18
2001.8  110554.15  4780.71  4.32
2004.5  109956.64  4913.20  4.47
2007.1  109327.35  5049.44  4.62
2009.8  108695.83  5186.48  4.77
2012.4  108201.64  5325.10  4.92
2015.1  107731.05  5464.90  5.07
2017.8  107031.75  5587.93  5.22
2020.4  106598.94  5719.31  5.37
2023.1  106293.60  5844.77  5.50
2025.7  106086.50  5982.17  5.64
2028.3  105794.00  6110.00  5.78
2031.0  105463.43  6225.95  5.90
2033.6  105222.15  6342.30  6.03
2036.2  104993.78  6453.23  6.15
2038.9  104491.35  6544.58  6.26
2041.5  104194.68  6639.92  6.37
2044.1  103714.88  6720.75  6.48
2046.8  103395.15  6801.23  6.58
2049.4  102847.05  6862.13  6.67
2052.0  102592.65  6945.18  6.77
2054.6  102237.19  7019.69  6.87
2057.2  101747.70  7078.37  6.96
2059.8  101479.15  7159.15  7.05
2062.4  100710.19  7197.79  7.15
2065.0  100260.85  7261.77  7.24
2067.6  99500.75  7295.85  7.33
2070.2  98997.36  7350.33  7.42
2072.8  98441.68  7398.27  7.52
2075.4  98050.31  7448.44  7.60
2078.0  97488.41  7487.79  7.68
2080.6  97006.80  7530.60  7.76
2083.2  96402.65  7561.25  7.84
2085.8  95986.46  7610.76  7.93
2088.4  95406.63  7636.42  8.00
2090.9  94717.45  7657.27  8.08
2093.5  93950.18  7664.26  8.16
2096.1  93285.59  7676.63  8.23
2098.7  92593.90  7685.42  8.30
2101.2  91758.95  7676.60  8.37
2103.8  91189.10  7696.25  8.44
2106.4  90606.15  7704.98  8.50
2108.9  90042.85  7715.90  8.57
2111.5  89309.25  7704.98  8.63
2114.0  88745.95  7715.90  8.69
2116.6  88305.00  7721.88  8.74
2119.1  87835.43  7727.82  8.80
2121.7  87412.50  7743.75  8.86
2124.2  87059.58  7751.93  8.90
2126.8  86368.71  7735.92  8.96
2129.3  86011.20  7750.60  9.01
2131.9  85503.00  7750.60  9.06
2134.4  85125.94  7768.09  9.13
2136.9  84793.64  7788.47  9.19
2139.4  84341.95  7802.67  9.25
2142.0  83949.60  7824.83  9.32
2144.5  83717.85  7856.48  9.38
2147.0  83515.50  7901.53  9.46
2149.5  83086.70  7928.33  9.54
2152.1  82945.36  7974.95  9.61
2154.6  82864.80  8019.47  9.68
2157.1  82397.19  8041.02  9.76
2159.6  82049.75  8063.73  9.83
2162.1  81906.83  8094.45  9.88
2164.6  81693.10  8128.67  9.95
2167.1  81410.25  8152.50  10.01
2169.6  81118.19  8168.27  10.07
2172.1  80703.95  8171.50  10.13
2174.6  80432.35  8194.05  10.19
2177.1  80054.83  8204.15  10.25
2179.5  79699.43  8219.63  10.31
2182.0  79276.31  8230.34  10.38
2184.5  78805.93  8229.18  10.44
2187.0  78270.73  8228.23  10.51
2189.5  77661.39  8212.57  10.57
2191.9  76985.63  8186.63  10.63
2194.4  76459.69  8184.35  10.70
2196.9  75808.80  8162.40  10.77
2199.3  75247.75  8141.75  10.82
2201.8  74467.30  8098.13  10.87
2204.3  74059.39  8088.93  10.92
2206.7  73498.24  8072.07  10.98
2209.2  73102.08  8069.74  11.04
2211.6  72549.68  8041.28  11.08
2214.1  72289.24  8037.12  11.12
2216.5  71795.65  8013.72  11.16
2219.0  71497.65  8006.27  11.20
2221.4  71169.44  7977.96  11.21
2223.9  70752.94  7938.29  11.22
2226.3  70314.13  7891.19  11.22
2228.7  69818.34  7832.55  11.22
2231.1  69282.68  7749.23  11.18
2233.6  68763.50  7671.02  11.16
2236.0  68306.00  7586.25  11.11
2238.4  67874.63  7494.52  11.04
2240.9  67474.65  7400.33  10.97
2243.3  67012.75  7293.55  10.88
2245.7  66513.26  7173.95  10.79
2248.1  66086.48  7063.88  10.69
2250.5  65650.40  6943.41  10.58
2252.9  65099.78  6812.22  10.46
2255.3  64610.33  6678.94  10.34
2257.7  64215.00  6557.50  10.21
2260.1  63804.48  6433.88  10.08
2262.5  63255.00  6307.50  9.97
2264.9  62790.18  6182.18  9.85
2267.3  62272.50  6050.00  9.72
2269.7  61840.45  5932.21  9.59
2272.1  61362.10  5807.17  9.46
2274.5  60880.86  5693.00  9.35
2276.8  60460.60  5591.81  9.25
2279.2  59945.74  5479.76  9.14
2281.6  59569.50  5385.67  9.04
2284.0  59168.33  5292.40  8.94
2286.3  58770.80  5193.33  8.84
2288.7  58411.60  5104.40  8.74
2291.1  57938.58  5006.66  8.64
2293.4  57542.10  4917.73  8.55
2295.8  57010.50  4812.68  8.44
2298.2  56495.48  4714.43  8.34
2300.5  55913.29  4610.93  8.25
2302.9  55265.25  4495.00  8.13
2305.2  54623.48  4390.38  8.04
2307.6  54046.44  4299.47  7.96
2309.9  53374.25  4208.25  7.88
2312.2  52847.25  4125.58  7.81
2314.6  52311.49  4041.68  7.73
2316.9  51682.73  3956.29  7.65
2319.2  51167.28  3874.54  7.57
2321.6  50610.96  3792.51  7.49
2323.9  50132.81  3726.56  7.43
2326.2  49665.28  3656.89  7.36
2328.6  49211.66  3584.35  7.28
2330.9  48762.00  3507.00  7.19
2333.2  48355.25  3444.87  7.12
2335.5  47965.43  3386.55  7.06
2337.8  47562.59  3313.18  6.97
2340.1  47061.16  3237.70  6.88
2342.4  46678.13  3176.88  6.81
2344.8  46316.69  3113.98  6.72
2347.1  45805.03  3051.48  6.66
2349.4  45311.55  2985.52  6.59
2351.6  44807.54  2922.17  6.52
2353.9  44395.38  2863.15  6.45
2356.2  43938.63  2798.62  6.37
2358.5  43419.60  2741.20  6.31
2360.8  42898.80  2679.60  6.25
2363.1  42508.36  2613.48  6.15
2365.4  42086.85  2545.33  6.05
2367.7  41681.25  2493.75  5.98
2369.9  41211.41  2438.85  5.92
2372.2  40686.60  2376.47  5.84
2374.5  40159.35  2321.55  5.78
2376.7  39615.74  2256.54  5.70
2379.0  39088.00  2195.80  5.62
2381.3  38526.25  2137.92  5.55
2383.5  38060.00  2091.47  5.50
2385.8  37523.90  2026.81  5.40
2388.0  37072.65  1967.65  5.31
2390.3  36623.50  1907.57  5.21
2392.5  36198.00  1857.00  5.13
2394.8  35791.80  1805.93  5.05
2397.0  35362.60  1759.33  4.98
2399.3  34969.21  1708.72  4.89
2401.5  34581.75  1662.94  4.81
2403.8  34095.61  1613.48  4.73
2406.0  33636.75  1558.29  4.63
2408.2  33286.00  1514.70  4.55
2410.4  32909.19  1479.28  4.50
2412.7  32535.10  1445.17  4.44
2414.9  32210.06  1407.31  4.37
2417.1  31870.65  1362.08  4.27
2419.3  31497.60  1321.60  4.20
2421.6  31155.00  1288.44  4.14
2423.8  30828.25  1254.53  4.07
2426.0  30488.11  1223.68  4.01
2428.2  30164.40  1192.33  3.95
2430.4  29894.10  1157.92  3.87
2432.6  29650.00  1133.33  3.82
2434.8  29383.28  1096.07  3.73
2437.0  29066.38  1061.24  3.65
2439.2  28749.95  1030.65  3.58
2441.4  28466.40  998.64  3.51
2443.6  28258.54  970.62  3.43
2445.7  28020.04  954.48  3.41
2447.9  27784.63  939.38  3.38
2450.1  27502.88  920.28  3.35
2452.3  27167.53  889.35  3.27
2454.5  26870.33  868.73  3.23
2456.6  26514.60  838.17  3.16
2458.8  26179.73  822.25  3.14
2461.0  25928.38  803.73  3.10
2463.1  25677.11  782.06  3.05
2465.3  25418.10  753.62  2.96
2467.5  25200.38  744.88  2.96
2469.6  24981.69  738.38  2.96
2471.8  24709.93  724.55  2.93
2473.9  24423.69  705.15  2.89
2476.1  24103.63  690.09  2.86
2478.2  23798.28  681.69  2.86
2480.4  23520.04  656.21  2.79
2482.5  23213.39  638.69  2.75
2484.6  22930.88  631.13  2.75
2486.8  22690.43  624.08  2.75
2488.9  22396.55  603.71  2.70
2491.1  22074.50  606.90  2.75
2493.2  21734.63  578.80  2.66
2495.3  21380.45  577.20  2.70
2497.4  21107.10  563.50  2.67
2499.5  20803.68  558.33  2.68
2501.7  20681.35  546.41  2.64
2503.8  20574.04  539.12  2.62
2505.9  20525.63  542.40  2.64
2508.0  20520.78  543.02  2.65
2510.1  20507.71  540.97  2.64
2512.2  20588.70  536.74  2.61
2514.3  20744.04  536.28  2.59
2516.4  20950.95  556.53  2.66
