/*** Spectra Vista SIG Data ***/
name= 48_20220722_ACSA_24_avg.sig
comm= Averaged Ref/Tar of files: HR.072222.0021_moc.sig,HR.072222.0022_moc.sig,HR.072222.0023_moc.sig
data=
337.3  3225.63  269.39  8.35
338.8  3415.10  256.53  7.51
340.3  3560.60  254.33  7.14
341.8  3795.18  256.93  6.77
343.2  3996.00  249.49  6.24
344.7  4137.05  255.90  6.19
346.2  4330.10  252.88  5.84
347.7  4483.05  247.19  5.51
349.2  4687.20  244.80  5.22
350.6  4921.15  244.84  4.98
352.1  5215.85  251.78  4.83
353.6  5482.60  261.08  4.76
355.1  5792.10  266.19  4.60
356.6  6063.38  265.32  4.38
358.0  6284.30  267.35  4.25
359.5  6581.70  267.80  4.07
361.0  6882.75  276.45  4.02
362.5  7260.20  284.39  3.92
364.0  7627.55  289.48  3.80
365.4  7980.40  305.08  3.82
366.9  8315.13  310.45  3.73
368.4  8646.18  311.72  3.61
369.9  8999.33  326.87  3.63
371.3  9425.10  343.29  3.64
372.8  9850.05  356.53  3.62
374.3  10239.38  360.89  3.52
375.8  10645.25  361.90  3.40
377.2  11029.00  371.48  3.37
378.7  11432.50  376.60  3.29
380.2  11836.00  384.29  3.25
381.7  12350.43  396.36  3.21
383.1  12828.20  402.97  3.14
384.6  13325.65  413.62  3.10
386.1  13755.73  429.83  3.12
387.6  14202.65  426.07  3.00
389.0  14686.40  436.46  2.97
390.5  15160.05  450.08  2.97
392.0  15711.30  455.95  2.90
393.4  16264.23  470.45  2.89
394.9  16782.30  482.23  2.87
396.4  17310.38  492.86  2.85
397.9  17835.00  510.06  2.86
399.3  18385.95  518.56  2.82
400.8  18918.08  526.99  2.79
402.2  19566.35  544.77  2.78
403.7  20150.78  550.29  2.73
405.2  20739.30  565.95  2.73
406.6  21297.60  581.10  2.73
408.1  21876.80  600.51  2.74
409.6  22476.80  614.60  2.73
411.0  23122.05  632.37  2.73
412.5  23761.33  636.65  2.68
414.0  24388.88  661.70  2.71
415.4  25082.25  677.64  2.70
416.9  25732.13  703.08  2.73
418.4  26406.45  722.10  2.73
419.8  27081.60  743.60  2.75
421.3  27807.00  758.84  2.73
422.7  28570.80  783.83  2.74
424.2  29328.75  808.39  2.76
425.7  30073.50  832.08  2.77
427.1  30795.45  859.07  2.79
428.6  31573.50  885.71  2.81
430.0  32277.23  904.72  2.80
431.5  33118.58  926.77  2.80
432.9  33973.35  954.34  2.81
434.4  34824.08  980.92  2.82
435.9  35644.00  1009.33  2.83
437.3  36451.25  1035.84  2.84
438.8  37263.38  1060.14  2.85
440.2  38107.30  1085.70  2.85
441.7  39047.60  1114.12  2.85
443.1  39909.00  1142.02  2.86
444.6  40845.80  1172.76  2.87
446.0  41740.58  1206.06  2.89
447.5  42665.43  1235.87  2.90
448.9  43576.20  1265.43  2.90
450.4  44548.00  1295.00  2.91
451.8  45383.00  1323.53  2.92
453.3  46259.35  1356.06  2.93
454.7  47245.55  1387.77  2.94
456.2  48099.33  1413.19  2.94
457.6  49037.85  1442.55  2.94
459.1  49982.08  1470.83  2.94
460.5  50878.50  1499.27  2.95
462.0  51895.43  1530.26  2.95
463.4  52895.70  1563.11  2.96
464.8  53862.75  1593.64  2.96
466.3  54823.73  1624.23  2.96
467.7  55779.23  1652.81  2.96
469.2  56820.78  1683.64  2.96
470.6  57745.50  1714.10  2.97
472.0  58749.05  1746.64  2.97
473.5  59720.50  1781.09  2.98
474.9  60719.25  1817.22  2.99
476.4  61833.60  1854.17  3.00
477.8  62872.00  1889.14  3.00
479.2  63858.00  1923.67  3.01
480.7  64934.85  1958.95  3.02
482.1  66036.50  1998.23  3.03
483.6  67178.05  2039.51  3.04
485.0  68235.15  2083.02  3.05
486.4  69403.50  2127.07  3.06
487.9  70434.00  2170.07  3.08
489.3  71578.23  2224.18  3.11
490.7  72623.70  2276.06  3.13
492.2  73808.70  2332.40  3.16
493.6  74890.80  2391.44  3.19
495.0  75962.25  2454.21  3.23
496.5  77087.78  2522.70  3.27
497.9  78173.73  2598.17  3.32
499.3  79289.03  2682.03  3.38
500.7  80516.40  2779.32  3.45
502.2  81628.60  2886.63  3.54
503.6  82825.80  3007.60  3.63
505.0  83841.95  3139.29  3.74
506.5  85104.00  3299.75  3.88
507.9  86281.50  3477.52  4.03
509.3  87630.80  3685.91  4.21
510.7  88876.13  3918.11  4.41
512.2  90222.68  4190.86  4.65
513.6  91639.10  4500.43  4.91
515.0  92988.83  4839.21  5.20
516.4  94306.28  5206.95  5.52
517.8  95852.25  5624.44  5.87
519.3  97117.50  6050.91  6.23
520.7  98631.00  6516.52  6.61
522.1  99879.33  6980.85  6.99
523.5  101205.90  7451.72  7.36
524.9  102588.30  7916.96  7.72
526.3  103908.35  8359.90  8.05
527.8  105331.05  8792.61  8.35
529.2  106460.50  9192.59  8.63
530.6  107984.85  9604.44  8.89
532.0  109648.00  9998.67  9.12
533.4  110880.60  10317.00  9.30
534.8  111738.03  10567.41  9.46
536.3  113378.10  10872.86  9.59
537.7  115327.80  11193.60  9.71
539.1  116705.43  11454.03  9.81
540.5  117836.95  11682.76  9.91
541.9  119516.25  11965.64  10.01
543.3  120738.83  12203.36  10.11
544.7  121968.60  12446.63  10.20
546.1  123664.20  12737.53  10.30
547.5  124868.80  12962.13  10.38
549.0  126555.00  13222.00  10.45
550.4  127988.75  13438.10  10.50
551.8  129457.50  13631.38  10.53
553.2  130927.03  13791.08  10.53
554.6  132204.80  13888.46  10.51
556.0  133680.60  13962.64  10.44
557.4  135216.20  14000.70  10.35
558.8  136764.90  13995.17  10.23
560.2  138143.13  13927.20  10.08
561.6  139736.70  13835.46  9.90
563.0  141244.90  13698.31  9.70
564.4  142762.60  13524.09  9.47
565.8  144223.75  13316.66  9.23
567.2  145888.25  13105.79  8.98
568.6  147323.63  12860.47  8.73
570.0  148689.30  12602.44  8.48
571.4  150346.30  12368.63  8.23
572.8  152012.00  12147.44  7.99
574.2  153563.20  11937.07  7.77
575.6  155025.00  11742.86  7.57
577.0  156493.70  11574.43  7.40
578.4  158135.25  11442.17  7.24
579.8  159571.35  11315.44  7.09
581.2  161216.60  11224.44  6.96
582.5  162559.80  11128.37  6.85
583.9  164008.20  11058.29  6.74
585.3  165721.73  11020.97  6.65
586.7  167135.48  10978.25  6.57
588.1  168549.63  10945.99  6.49
589.5  170140.25  10936.33  6.43
590.9  171678.00  10939.16  6.37
592.3  173415.90  10957.94  6.32
593.7  174800.93  10963.27  6.27
595.0  176343.75  10979.42  6.23
596.4  177725.80  10977.90  6.18
597.8  179140.58  10968.06  6.12
599.2  180615.60  10944.68  6.06
600.6  182286.00  10918.88  5.99
602.0  183519.75  10847.40  5.91
603.3  185242.05  10794.83  5.83
604.7  186827.85  10714.69  5.74
606.1  188259.60  10616.80  5.64
607.5  189825.60  10515.37  5.54
608.9  191431.25  10411.72  5.44
610.2  192751.65  10289.70  5.34
611.6  194261.33  10187.12  5.24
613.0  195739.70  10091.60  5.16
614.4  197065.20  9988.23  5.07
615.8  198461.25  9907.39  4.99
617.1  199934.70  9839.20  4.92
618.5  201487.20  9796.19  4.86
619.9  202920.30  9766.63  4.81
621.3  204462.23  9761.42  4.77
622.6  205981.75  9770.17  4.74
624.0  207354.45  9792.36  4.72
625.4  208728.30  9828.97  4.71
626.8  210241.85  9873.50  4.70
628.1  211492.88  9920.43  4.69
629.5  213271.65  9987.40  4.68
630.9  214820.65  10045.83  4.68
632.2  216125.70  10071.83  4.66
633.6  217675.88  10082.55  4.63
635.0  219145.20  10061.18  4.59
636.3  220609.60  10001.05  4.53
637.7  221878.75  9893.82  4.46
639.1  223475.00  9766.67  4.37
640.4  224861.35  9611.83  4.27
641.8  226021.00  9431.97  4.17
643.2  227547.60  9264.85  4.07
644.5  228855.00  9097.19  3.98
645.9  230495.85  8956.16  3.89
647.2  232257.20  8847.17  3.81
648.6  234029.25  8763.43  3.74
650.0  235418.40  8683.20  3.69
651.3  235827.90  8595.24  3.64
652.7  236930.95  8543.86  3.61
654.0  238915.70  8525.34  3.57
655.4  240321.80  8489.65  3.53
656.8  240529.20  8405.49  3.49
658.1  241686.90  8360.09  3.46
659.5  244035.75  8357.05  3.42
660.8  245790.00  8337.86  3.39
662.2  246668.80  8292.27  3.36
663.5  248190.75  8281.99  3.34
664.9  249442.70  8284.34  3.32
666.2  250127.40  8288.00  3.31
667.6  251781.35  8351.68  3.32
668.9  252910.70  8426.50  3.33
670.3  253978.63  8511.02  3.35
671.6  255477.38  8632.96  3.38
673.0  256583.63  8776.25  3.42
674.3  257774.40  8938.93  3.47
675.7  259050.13  9126.44  3.52
677.0  260115.25  9338.60  3.59
678.4  261392.70  9584.02  3.67
679.7  262449.90  9852.52  3.75
681.1  263685.88  10177.63  3.86
682.4  264802.20  10561.69  3.99
683.8  266039.80  11018.43  4.14
685.1  266982.38  11578.75  4.34
686.4  268242.60  12281.89  4.58
687.8  269447.50  13161.41  4.88
689.1  270471.00  14261.19  5.27
690.5  271820.70  15655.64  5.76
691.8  272576.80  17387.09  6.38
693.1  273883.80  19552.34  7.14
694.5  275002.00  22093.50  8.03
695.8  276162.25  25033.67  9.06
697.1  277322.50  28344.33  10.22
698.5  278324.70  32007.00  11.50
699.8  279401.35  35973.35  12.88
701.1  280489.75  40197.38  14.33
702.5  281243.60  44539.47  15.84
703.8  282172.50  48987.86  17.36
705.1  283295.03  53503.91  18.89
706.5  284296.75  57983.21  20.40
707.8  285230.70  62394.82  21.88
709.1  286094.88  66690.09  23.31
710.5  287188.80  70946.72  24.70
711.8  288049.10  75034.19  26.05
713.1  289008.00  79054.56  27.35
714.4  289900.00  82936.88  28.61
715.8  290702.80  86681.16  29.82
717.1  291958.05  90438.74  30.98
718.4  292880.00  93960.53  32.08
719.7  293973.00  97413.07  33.14
721.0  294480.00  100553.57  34.15
722.4  295247.15  103626.92  35.10
723.7  296171.40  106634.04  36.00
725.0  297174.83  109534.50  36.86
726.3  298094.50  112262.05  37.66
727.6  298642.30  114711.93  38.41
729.0  299538.05  117164.22  39.11
730.3  300269.03  119427.38  39.77
731.6  301158.35  121616.87  40.38
732.9  301946.58  123650.10  40.95
734.2  302729.63  125563.82  41.48
735.5  303731.28  127447.25  41.96
736.8  304473.90  129126.63  42.41
738.1  305298.60  130723.89  42.82
739.5  306200.55  132264.88  43.20
740.8  306892.03  133614.85  43.54
742.1  307655.95  134901.05  43.85
743.4  308375.00  136114.29  44.14
744.7  309325.23  137333.22  44.40
746.0  310182.60  138430.32  44.63
747.3  310715.83  139313.02  44.84
748.6  311446.25  140202.62  45.02
749.9  312208.00  141048.76  45.18
751.2  312937.05  141840.09  45.33
752.5  313826.15  142659.46  45.46
753.8  314438.43  143298.27  45.57
755.1  315120.00  143936.00  45.68
756.4  315700.15  144475.42  45.76
757.7  316654.80  145153.32  45.84
759.0  318397.73  146158.17  45.90
760.3  319572.00  146866.97  45.96
761.6  321088.60  147718.67  46.01
762.9  321615.25  148093.10  46.05
764.2  321993.00  148380.40  46.08
765.5  322300.15  148616.91  46.11
766.8  322755.20  148900.57  46.13
768.1  323292.60  149207.35  46.15
769.3  323892.10  149539.10  46.17
770.6  324555.40  149889.20  46.18
771.9  325280.38  150269.35  46.20
773.2  325662.80  150482.13  46.21
774.5  326268.80  150800.99  46.22
775.8  326957.05  151138.28  46.23
777.1  327587.70  151432.86  46.23
778.4  327941.63  151622.82  46.23
779.6  328669.33  151996.66  46.25
780.9  329160.00  152240.00  46.25
782.2  329634.25  152471.52  46.25
783.5  329979.50  152636.53  46.26
784.8  330505.65  152903.74  46.26
786.0  330937.60  153109.67  46.27
787.3  331337.33  153307.23  46.27
788.6  331743.80  153523.80  46.28
789.9  332239.60  153747.33  46.28
791.2  332916.50  154058.03  46.28
792.4  333608.08  154379.53  46.28
793.7  334100.20  154610.19  46.28
795.0  334732.20  154912.06  46.28
796.2  335405.00  155228.30  46.28
797.5  336138.00  155558.08  46.28
798.8  336821.45  155868.95  46.28
800.0  337449.83  156195.34  46.29
801.3  337968.20  156412.71  46.28
802.6  338583.60  156700.05  46.28
803.8  339259.05  156998.88  46.28
805.1  339753.75  157236.67  46.28
806.4  340194.90  157458.23  46.28
807.7  340734.60  157699.86  46.28
808.9  341318.85  157966.36  46.28
810.2  341830.65  158211.30  46.28
811.4  342373.80  158444.65  46.28
812.7  342996.88  158735.42  46.28
814.0  343808.25  159113.33  46.28
815.2  344437.50  159405.48  46.28
816.5  344837.18  159590.14  46.28
817.7  345328.15  159814.18  46.28
819.0  345818.55  160040.83  46.28
820.2  346016.00  160122.29  46.28
821.5  346707.25  160446.59  46.28
822.7  347078.15  160622.76  46.28
824.0  347371.20  160763.66  46.28
825.2  347868.68  160985.38  46.28
826.5  348180.38  161117.70  46.27
827.7  348709.53  161354.85  46.27
829.0  349114.63  161530.34  46.27
830.2  349413.70  161654.41  46.26
831.5  349896.55  161879.43  46.26
832.7  350211.23  161994.85  46.26
834.0  350488.60  162140.63  46.26
835.2  350867.00  162307.25  46.26
836.4  351149.70  162438.05  46.26
837.7  351541.20  162610.32  46.26
838.9  351984.33  162812.19  46.26
840.1  352285.20  162995.40  46.27
841.4  352723.10  163200.04  46.27
842.6  353042.40  163381.33  46.28
843.8  353416.60  163544.23  46.28
845.1  353904.05  163783.39  46.28
846.3  354289.50  163964.25  46.28
847.5  354681.60  164145.80  46.28
848.8  355041.00  164317.37  46.28
850.0  355413.45  164477.13  46.28
851.2  355954.50  164722.24  46.28
852.5  356286.30  164901.95  46.28
853.7  356721.75  165126.00  46.29
854.9  357138.30  165319.25  46.29
856.1  357579.95  165525.90  46.29
857.4  357776.88  165609.27  46.29
858.6  358284.35  165819.17  46.28
859.8  358668.75  165991.25  46.28
861.0  359073.00  166180.11  46.28
862.2  359497.35  166383.19  46.28
863.5  359915.08  166545.07  46.27
864.7  360386.40  166793.31  46.28
865.9  360834.40  166960.53  46.27
867.1  361110.50  167112.91  46.28
868.3  361525.50  167300.45  46.28
869.5  361985.25  167503.51  46.27
870.8  362533.50  167731.71  46.27
872.0  362963.55  167927.81  46.27
873.2  363475.65  168111.82  46.25
874.4  363837.83  168307.01  46.26
875.6  364172.88  168462.01  46.26
876.8  364699.30  168666.03  46.25
878.0  365138.80  168883.30  46.25
879.2  365726.25  169109.77  46.24
880.4  366193.88  169312.75  46.24
881.6  366632.63  169496.35  46.23
882.8  367052.80  169667.36  46.22
884.0  367597.45  169901.38  46.22
885.2  368164.60  170121.29  46.21
886.5  368727.50  170388.91  46.21
887.7  369282.55  170593.09  46.20
888.8  369937.58  170849.41  46.18
890.0  370539.60  171076.52  46.17
891.2  371052.00  171310.37  46.17
892.4  371547.75  171569.90  46.18
893.6  372200.05  171824.16  46.16
894.8  373111.75  172207.57  46.15
896.0  373974.00  172572.12  46.15
897.2  374790.00  172925.38  46.14
898.4  375441.00  173228.00  46.14
899.6  376027.50  173471.25  46.13
900.8  376472.68  173629.96  46.12
902.0  376784.85  173727.54  46.11
903.2  377124.38  173857.05  46.10
904.3  377532.90  173978.97  46.08
905.5  378023.05  174198.68  46.08
906.7  378636.00  174476.53  46.08
907.9  379304.10  174688.03  46.05
909.1  379635.53  174817.74  46.05
910.2  379788.98  174874.25  46.05
911.4  380042.33  174987.70  46.04
912.6  380208.40  175066.73  46.04
913.8  380642.03  175167.27  46.02
915.0  381097.50  175334.60  46.01
916.2  381264.00  175409.93  46.01
917.3  381313.80  175386.73  46.00
918.5  381713.40  175473.92  45.97
919.7  382021.20  175550.34  45.95
920.8  382180.83  175567.66  45.94
922.0  382285.75  175560.00  45.92
923.2  382473.00  175617.00  45.92
924.4  382745.25  175683.53  45.90
925.5  383019.00  175735.77  45.88
926.7  383700.63  175948.38  45.86
927.9  384491.40  176301.83  45.85
929.0  386121.60  176832.26  45.80
930.2  388158.60  177704.10  45.78
931.4  390417.30  178718.72  45.78
932.5  393097.05  179823.77  45.75
933.7  394648.03  180386.25  45.71
934.9  395298.75  180621.67  45.69
936.0  395048.88  180349.93  45.65
937.2  393109.20  179332.04  45.62
938.3  391465.30  178500.28  45.60
939.5  390175.20  177708.34  45.55
940.7  390384.90  177679.11  45.51
941.8  391899.45  178265.21  45.49
943.0  393274.50  178806.14  45.47
944.2  394158.70  179049.19  45.43
945.3  394026.75  178739.79  45.36
946.5  393314.40  178285.37  45.33
947.6  393604.80  178204.61  45.28
948.8  393482.70  177948.64  45.22
949.9  393615.60  177829.20  45.18
951.1  393229.53  177455.08  45.13
952.2  393108.00  177091.43  45.05
953.4  392946.00  176794.12  44.99
954.5  393190.20  176522.91  44.90
955.7  393057.00  176215.20  44.83
956.8  392873.70  175917.93  44.78
958.0  392498.00  175512.38  44.72
959.1  392310.05  175227.09  44.67
960.3  391877.40  174912.41  44.63
961.4  391933.05  174728.58  44.58
962.6  392231.00  174697.83  44.54
963.7  392029.35  174531.21  44.52
964.9  392101.05  174378.70  44.47
966.0  391934.70  174242.18  44.46
967.2  392262.75  174288.69  44.43
968.3  391829.40  174155.02  44.45
969.5  391684.58  174055.41  44.44
970.6  391799.83  174004.93  44.41
971.8  391947.33  174037.22  44.40
972.9  392154.60  174013.40  44.37
974.0  392383.60  174092.68  44.37
975.2  392293.75  173973.75  44.35
976.3  391867.83  173935.84  44.39
977.5  391789.30  173924.48  44.39
978.6  392098.00  173872.03  44.34
979.7  392021.18  173894.55  44.36
980.9  391853.83  173842.32  44.36
982.0  391639.20  173833.32  44.39
983.2  391879.48  173714.50  44.33
984.3  390992.20  173653.47  44.41
985.4  391695.28  173792.91  44.37
986.6  391811.75  173709.64  44.33
987.7  392639.45  174299.37  44.39
988.9  392268.60  173991.43  44.36
990.0  392958.00  174440.09  44.39
993.1  341443.14  150312.33  44.02
996.9  341980.23  150950.24  44.14
1000.7  342974.28  151745.38  44.24
1004.5  343484.58  152324.37  44.35
1008.4  343288.71  152579.36  44.45
1012.2  343266.13  152876.85  44.54
1016.0  343304.40  153187.37  44.62
1019.8  343491.23  153499.50  44.69
1023.7  343447.97  153685.43  44.75
1027.5  343152.32  153780.59  44.81
1031.3  343387.30  154050.60  44.86
1035.1  343315.00  154164.78  44.90
1038.9  343327.97  154285.21  44.94
1042.7  343162.83  154331.12  44.97
1046.5  343057.50  154335.67  44.99
1050.3  343062.73  154390.83  45.00
1054.2  342804.00  154336.00  45.02
1058.0  342331.73  154133.51  45.02
1061.8  342204.92  154105.75  45.03
1065.6  341959.53  153968.03  45.03
1069.4  341936.93  153940.39  45.02
1073.2  341604.68  153727.61  45.00
1077.0  341144.05  153457.77  44.98
1080.8  340659.38  153121.73  44.95
1084.6  339695.77  152542.37  44.91
1088.4  339031.28  152174.21  44.89
1092.2  338247.00  151694.68  44.85
1096.0  337714.69  151297.40  44.80
1099.8  337279.15  150926.34  44.75
1103.6  336676.28  150473.51  44.69
1107.4  335820.32  149871.21  44.63
1111.2  335585.50  149548.34  44.56
1114.9  334976.83  149009.58  44.48
1118.7  334404.68  148422.92  44.38
1122.5  333764.60  147716.77  44.26
1126.3  332722.66  146769.36  44.11
1130.1  332271.08  145881.83  43.90
1133.9  330794.80  144318.50  43.63
1137.7  329474.00  142609.30  43.28
1141.4  327813.53  140549.20  42.87
1145.2  327161.60  138751.57  42.41
1149.0  326134.38  136896.04  41.98
1152.8  324624.65  135039.03  41.60
1156.6  323103.55  133526.62  41.33
1160.3  321492.00  132317.72  41.16
1164.1  319298.40  131109.25  41.06
1167.9  317639.58  130319.64  41.03
1171.7  316433.25  129802.50  41.02
1175.4  315342.37  129365.39  41.02
1179.2  314386.93  128954.63  41.02
1183.0  314104.00  128790.62  41.00
1186.7  313601.63  128529.23  40.98
1190.5  312634.20  128089.65  40.97
1194.3  311525.83  127614.54  40.96
1198.0  310420.00  127177.64  40.97
1201.8  309043.00  126670.95  40.99
1205.6  307887.33  126310.95  41.03
1209.3  307000.40  126114.61  41.08
1213.1  306137.70  125931.75  41.14
1216.8  305197.84  125776.07  41.21
1220.6  304180.80  125555.47  41.28
1224.3  303037.42  125268.36  41.34
1228.1  301922.20  125027.46  41.41
1231.9  300747.20  124706.16  41.47
1235.6  299430.45  124293.41  41.51
1239.4  298186.25  123936.07  41.56
1243.1  297043.81  123557.84  41.60
1246.9  295923.84  123149.79  41.62
1250.6  295021.27  122822.84  41.63
1254.3  294035.50  122433.92  41.64
1258.1  293106.10  122050.78  41.64
1261.8  291902.93  121528.08  41.63
1265.6  290587.35  120911.75  41.61
1269.3  289265.18  120266.63  41.58
1273.1  289200.91  120111.46  41.53
1276.8  289443.60  120045.66  41.47
1280.6  289280.83  119794.65  41.41
1284.3  288000.40  119038.23  41.33
1288.0  286681.66  118197.57  41.23
1291.8  285496.02  117369.24  41.11
1295.5  284204.80  116464.23  40.98
1299.2  283041.07  115560.41  40.83
1302.9  281699.20  114500.51  40.65
1306.7  280262.03  113331.52  40.44
1310.4  278875.43  112067.01  40.19
1314.1  277628.08  110781.68  39.90
1317.9  276502.71  109426.13  39.58
1321.6  275212.23  107904.24  39.21
1325.3  273684.60  106176.98  38.80
1329.0  272440.70  104494.33  38.35
1332.8  270516.40  102438.60  37.87
1336.5  268846.00  100463.39  37.37
1340.2  268495.50  98986.33  36.87
1343.9  268062.08  97478.90  36.36
1347.6  267439.50  95906.98  35.86
1351.4  267592.00  94654.07  35.37
1355.1  267891.43  93471.56  34.89
1358.8  268000.00  92176.00  34.39
1362.5  267566.85  90575.38  33.85
1366.2  265974.35  88377.42  33.23
1369.9  264255.25  85867.88  32.49
1373.6  262418.33  82921.49  31.60
1377.3  260728.20  79452.30  30.47
1381.0  259620.50  75445.21  29.06
1384.8  257757.50  70446.07  27.33
1388.4  255573.50  64949.42  25.41
1392.2  253891.50  59280.87  23.35
1395.9  252425.80  53628.81  21.25
1399.6  250921.83  48319.19  19.26
1403.3  249832.62  43688.85  17.49
1407.0  248797.90  39792.77  15.99
1410.7  247712.03  36681.74  14.81
1414.3  246601.95  34314.93  13.92
1418.1  245553.58  32621.49  13.28
1421.7  244699.58  31459.19  12.86
1425.4  243850.10  30702.75  12.59
1429.1  243032.63  30264.59  12.45
1432.8  241695.12  29993.42  12.41
1436.5  240945.84  29952.39  12.43
1440.2  240193.67  30028.10  12.50
1443.9  239020.93  30120.23  12.60
1447.6  237545.00  30228.00  12.73
1451.2  236558.30  30398.55  12.85
1454.9  235385.55  30577.03  12.99
1458.6  234373.58  30836.59  13.16
1462.3  233317.33  31200.61  13.37
1466.0  232078.03  31671.69  13.65
1469.7  230550.45  32259.42  13.99
1473.3  229605.17  33046.55  14.39
1477.0  227864.43  33819.88  14.84
1480.7  226432.00  34687.14  15.32
1484.4  224692.48  35512.68  15.81
1488.0  223285.33  36419.43  16.31
1491.7  221807.93  37290.05  16.81
1495.4  220238.47  38140.76  17.32
1499.0  218776.00  38969.78  17.81
1502.7  217605.17  39843.55  18.31
1506.4  216308.29  40656.65  18.80
1510.0  215025.90  41447.83  19.28
1513.7  213674.71  42178.80  19.74
1517.4  212463.00  42891.48  20.19
1521.0  211346.40  43605.05  20.63
1524.7  210236.00  44249.83  21.05
1528.3  209050.00  44856.96  21.46
1532.0  207924.38  45431.47  21.85
1535.7  206644.76  45916.58  22.22
1539.3  205494.05  46396.86  22.58
1543.0  204605.72  46909.91  22.93
1546.6  203968.92  47446.75  23.26
1550.3  203078.70  47884.41  23.58
1553.9  202080.00  48272.66  23.89
1557.6  200932.60  48583.54  24.18
1561.2  199777.95  48846.92  24.45
1564.9  198589.92  49090.18  24.72
1568.5  197379.35  49295.75  24.98
1572.2  196320.65  49518.22  25.22
1575.8  195328.00  49734.00  25.46
1579.5  194426.30  49937.16  25.68
1583.1  193506.64  50131.59  25.91
1586.8  192388.00  50238.00  26.11
1590.4  191414.67  50373.65  26.32
1594.0  190210.91  50427.05  26.51
1597.7  189185.40  50518.77  26.70
1601.3  188003.03  50550.08  26.89
1604.9  186813.23  50562.92  27.07
1608.6  185614.77  50539.76  27.23
1612.2  184667.18  50566.13  27.38
1615.8  183617.53  50531.60  27.52
1619.5  182586.67  50483.70  27.65
1623.1  181385.10  50367.79  27.77
1626.7  180235.58  50242.12  27.88
1630.3  179135.33  50105.96  27.97
1634.0  178024.00  49938.00  28.05
1637.6  176986.80  49751.79  28.11
1641.2  175920.05  49502.17  28.14
1644.8  174703.49  49153.43  28.14
1648.5  173665.70  48817.56  28.11
1652.1  172725.00  48463.71  28.06
1655.7  171862.60  48107.57  27.99
1659.3  171089.30  47800.55  27.94
1662.9  169801.67  47383.45  27.91
1666.6  168518.67  47012.81  27.90
1670.2  167280.11  46669.65  27.90
1673.8  166011.13  46308.42  27.89
1677.4  165017.25  46009.73  27.88
1681.0  164297.48  45741.74  27.84
1684.6  163930.00  45517.33  27.77
1688.2  163291.00  45126.37  27.64
1691.8  162685.73  44768.48  27.52
1695.4  162306.00  44443.97  27.38
1699.0  162003.80  44147.73  27.25
1702.6  161737.33  43841.57  27.11
1706.2  161229.25  43428.78  26.94
1709.8  160432.48  42933.01  26.76
1713.4  159785.95  42485.21  26.59
1717.0  159005.00  42031.18  26.43
1720.6  158284.58  41600.07  26.28
1724.2  157637.85  41184.47  26.13
1727.8  156971.50  40761.85  25.97
1731.4  156513.50  40379.43  25.80
1735.0  156305.60  40067.66  25.63
1738.6  156060.45  39721.95  25.45
1742.2  155533.08  39280.39  25.26
1745.8  154949.98  38812.12  25.05
1749.4  154085.25  38253.72  24.83
1753.0  152723.73  37570.69  24.60
1756.6  151197.96  36865.92  24.38
1760.1  149996.60  36249.62  24.17
1763.7  148411.33  35562.38  23.96
1767.3  147121.63  34956.69  23.76
1770.9  145991.83  34408.15  23.57
1774.5  144671.13  33837.73  23.39
1778.0  143622.02  33365.24  23.23
1781.6  142622.10  32942.59  23.10
1785.2  141565.55  32539.86  22.99
1788.8  140490.40  32173.79  22.90
1792.3  139385.00  31815.91  22.83
1795.9  138944.76  31636.20  22.77
1799.5  138462.00  31472.09  22.73
1803.1  137850.07  31286.03  22.70
1806.6  138238.16  31326.16  22.66
1810.2  139258.93  31504.47  22.62
1813.8  140120.55  31648.93  22.59
1817.3  140137.20  31604.86  22.55
1820.9  139430.17  31388.18  22.51
1824.5  138346.58  31066.20  22.46
1828.0  137555.46  30781.60  22.38
1831.6  136845.73  30495.25  22.28
1835.2  136212.50  30172.98  22.15
1838.7  135857.60  29836.93  21.96
1842.3  135555.00  29447.14  21.72
1845.8  134841.92  28870.67  21.41
1849.4  134369.43  28224.19  21.00
1852.9  133785.93  27404.88  20.48
1856.5  132978.62  26369.17  19.83
1860.0  132265.53  25149.71  19.01
1863.6  132018.34  23828.49  18.05
1867.1  131866.35  22307.25  16.92
1870.7  131828.65  20494.07  15.55
1874.2  131179.50  18334.03  13.98
1877.8  130042.27  16055.45  12.35
1881.3  128698.75  13787.82  10.71
1884.9  127790.39  11737.63  9.19
1888.4  126838.69  9893.71  7.80
1891.9  125870.13  8380.87  6.66
1895.5  124826.38  7232.74  5.79
1899.0  124275.50  6449.73  5.19
1901.3  153256.75  5129.00  3.35
1904.1  153131.06  4684.31  3.06
1906.8  152406.90  4356.90  2.86
1909.6  150870.56  4087.83  2.71
1912.4  149426.46  3888.44  2.60
1915.1  148320.98  3774.93  2.55
1917.9  147083.63  3696.04  2.51
1920.6  146043.68  3632.47  2.49
1923.3  145024.60  3603.25  2.48
1926.1  143765.95  3584.23  2.49
1928.8  142604.00  3578.67  2.51
1931.6  141676.10  3595.79  2.54
1934.3  140794.51  3619.11  2.57
1937.0  139918.75  3654.71  2.61
1939.8  138956.56  3700.88  2.66
1942.5  137791.50  3751.00  2.72
1945.2  136294.13  3788.13  2.78
1947.9  135073.75  3855.31  2.85
1950.7  134098.78  3926.20  2.93
1953.4  132549.23  3989.51  3.01
1956.1  131348.38  4072.71  3.10
1958.8  130267.96  4159.89  3.19
1961.5  128981.70  4243.50  3.29
1964.2  127654.80  4340.70  3.40
1966.9  126254.29  4443.55  3.52
1969.6  125138.25  4565.25  3.65
1972.3  123881.33  4679.18  3.78
1975.0  122939.78  4809.98  3.91
1977.7  121941.11  4946.15  4.06
1980.4  120914.25  5091.24  4.21
1983.1  119950.05  5238.72  4.37
1985.8  119113.88  5394.00  4.53
1988.4  118176.50  5553.17  4.70
1991.1  117333.48  5715.27  4.87
1993.8  116544.73  5878.72  5.04
1996.5  115976.03  6055.36  5.22
1999.1  115362.09  6223.39  5.39
2001.8  114724.05  6403.78  5.58
2004.5  114108.64  6576.16  5.76
2007.1  113459.89  6742.68  5.94
2009.8  112781.55  6904.51  6.12
2012.4  112253.63  7074.28  6.30
2015.1  111758.50  7243.37  6.48
2017.8  111046.25  7383.66  6.65
2020.4  110592.76  7533.12  6.81
2023.1  110269.25  7687.98  6.97
2025.7  110032.00  7847.67  7.13
2028.3  109733.00  7988.50  7.28
2031.0  109390.46  8121.09  7.42
2033.6  109137.15  8247.60  7.56
2036.2  108908.78  8371.58  7.69
2038.9  108373.73  8467.28  7.81
2041.5  108071.41  8570.67  7.93
2044.1  107571.15  8654.33  8.05
2046.8  107238.38  8741.33  8.15
2049.4  106657.65  8806.58  8.26
2052.0  106385.10  8890.53  8.36
2054.6  106017.19  8960.00  8.45
2057.2  105513.95  9021.53  8.55
2059.8  105238.85  9104.50  8.65
2062.4  104456.18  9141.61  8.75
2065.0  103987.80  9207.12  8.85
2067.6  103187.90  9233.13  8.95
2070.2  102632.21  9274.53  9.04
2072.8  102069.99  9322.48  9.13
2075.4  101672.81  9373.44  9.22
2078.0  101085.19  9404.76  9.30
2080.6  100564.20  9444.60  9.39
2083.2  99953.15  9468.00  9.47
2085.8  99517.36  9505.76  9.55
2088.4  98911.25  9520.13  9.62
2090.9  98189.01  9526.41  9.70
2093.5  97388.90  9527.18  9.78
2096.1  96697.91  9527.72  9.85
2098.7  95993.05  9527.72  9.93
2101.2  95132.20  9510.60  10.00
2103.8  94523.05  9510.60  10.06
2106.4  93913.90  9514.97  10.13
2108.9  93330.95  9525.88  10.21
2111.5  92564.60  9506.23  10.27
2114.0  92001.30  9501.87  10.33
2116.6  91540.31  9502.50  10.38
2119.1  91050.60  9500.88  10.43
2121.7  90615.00  9511.25  10.50
2124.2  90235.30  9514.03  10.54
2126.8  89530.71  9486.00  10.60
2129.3  89166.00  9495.20  10.65
2131.9  88631.40  9486.40  10.70
2134.4  88238.93  9482.78  10.75
2136.9  87891.70  9487.40  10.79
2139.4  87414.25  9485.12  10.85
2142.0  87008.60  9485.12  10.90
2144.5  86754.98  9502.98  10.95
2147.0  86550.60  9531.87  11.01
2149.5  86115.10  9536.33  11.07
2152.1  85957.03  9569.50  11.13
2154.6  85877.20  9608.40  11.19
2157.1  85387.88  9605.63  11.25
2159.6  85026.81  9614.71  11.31
2162.1  84875.70  9634.63  11.35
2164.6  84645.45  9658.50  11.41
2167.1  84358.10  9667.76  11.46
2169.6  84056.00  9672.90  11.51
2172.1  83626.30  9658.07  11.55
2174.6  83344.40  9667.45  11.60
2177.1  82951.23  9666.27  11.65
2179.5  82578.28  9663.71  11.70
2182.0  82137.41  9649.20  11.75
2184.5  81642.04  9631.99  11.80
2187.0  81086.58  9607.85  11.85
2189.5  80470.83  9573.43  11.90
2191.9  79792.88  9540.38  11.96
2194.4  79231.58  9511.80  12.01
2196.9  78559.20  9463.20  12.05
2199.3  77959.25  9429.83  12.10
2201.8  77153.70  9361.03  12.13
2204.3  76731.98  9333.20  12.16
2206.7  76165.13  9286.09  12.19
2209.2  75748.34  9265.63  12.23
2211.6  75192.98  9216.90  12.26
2214.1  74908.58  9196.29  12.28
2216.5  74388.25  9148.60  12.30
2219.0  74082.80  9123.77  12.32
2221.4  73750.25  9078.71  12.31
2223.9  73304.00  9021.69  12.31
2226.3  72842.88  8962.19  12.30
2228.7  72353.41  8880.18  12.27
2231.1  71814.60  8781.30  12.23
2233.6  71274.15  8684.22  12.18
2236.0  70775.25  8582.88  12.13
2238.4  70321.56  8471.31  12.05
2240.9  69918.25  8351.45  11.94
2243.3  69441.45  8229.77  11.85
2245.7  68923.65  8104.27  11.76
2248.1  68485.95  7980.81  11.65
2250.5  68023.94  7846.90  11.54
2252.9  67454.40  7696.76  11.41
2255.3  66946.09  7559.51  11.29
2257.7  66540.00  7432.50  11.17
2260.1  66107.13  7304.27  11.05
2262.5  65565.00  7165.00  10.93
2264.9  65088.84  7033.26  10.81
2267.3  64530.00  6892.50  10.68
2269.7  64082.90  6780.03  10.58
2272.1  63593.31  6658.58  10.47
2274.5  63097.16  6539.08  10.36
2276.8  62669.28  6438.21  10.27
2279.2  62139.15  6323.96  10.18
2281.6  61751.45  6223.72  10.08
2284.0  61327.20  6125.65  9.99
2286.3  60914.00  6034.40  9.91
2288.7  60534.83  5944.52  9.82
2291.1  60041.53  5838.12  9.72
2293.4  59644.20  5733.93  9.61
2295.8  59080.80  5634.10  9.54
2298.2  58552.54  5532.07  9.45
2300.5  57962.59  5413.05  9.34
2302.9  57295.75  5295.83  9.24
2305.2  56639.70  5183.48  9.15
2307.6  56034.98  5078.38  9.06
2309.9  55327.25  4972.92  8.99
2312.2  54784.75  4885.08  8.92
2314.6  54228.83  4794.64  8.84
2316.9  53576.78  4701.49  8.78
2319.2  53041.05  4613.17  8.70
2321.6  52472.18  4521.94  8.62
2323.9  51960.94  4437.50  8.54
2326.2  51472.85  4358.53  8.47
2328.6  51006.45  4287.11  8.41
2330.9  50533.88  4205.25  8.32
2333.2  50109.44  4135.44  8.25
2335.5  49706.85  4055.30  8.16
2337.8  49293.31  3987.14  8.09
2340.1  48759.54  3903.57  8.01
2342.4  48368.13  3837.71  7.93
2344.8  48003.31  3763.52  7.84
2347.1  47474.70  3690.29  7.77
2349.4  46964.05  3618.97  7.71
2351.6  46435.25  3550.12  7.65
2353.9  46009.00  3489.29  7.58
2356.2  45531.09  3418.38  7.51
2358.5  45007.20  3343.20  7.43
2360.8  44469.60  3278.80  7.37
2363.1  44056.26  3227.60  7.33
2365.4  43629.30  3161.18  7.25
2367.7  43203.15  3089.40  7.15
2369.9  42714.23  3022.80  7.08
2372.2  42140.00  2949.80  7.00
2374.5  41597.33  2884.61  6.93
2376.7  41027.16  2814.14  6.86
2379.0  40484.00  2739.65  6.77
2381.3  39926.25  2662.92  6.67
2383.5  39450.40  2601.87  6.60
2385.8  38882.95  2529.84  6.51
2388.0  38426.70  2457.35  6.39
2390.3  37940.70  2394.10  6.31
2392.5  37494.00  2331.00  6.22
2394.8  37089.53  2271.78  6.13
2397.0  36645.70  2220.40  6.06
2399.3  36211.91  2165.59  5.98
2401.5  35803.69  2110.06  5.89
2403.8  35324.20  2041.49  5.78
2406.0  34856.69  1986.67  5.70
2408.2  34492.15  1929.22  5.59
2410.4  34098.23  1884.99  5.53
2412.7  33713.23  1834.74  5.44
2414.9  33377.03  1789.98  5.36
2417.1  33004.13  1743.08  5.28
2419.3  32620.80  1686.40  5.17
2421.6  32269.06  1630.73  5.05
2423.8  31927.18  1591.66  4.99
2426.0  31598.19  1558.00  4.93
2428.2  31252.20  1512.47  4.84
2430.4  30966.00  1468.90  4.74
2432.6  30710.00  1436.67  4.68
2434.8  30435.90  1400.16  4.60
2437.0  30104.10  1353.41  4.50
2439.2  29773.84  1317.88  4.43
2441.4  29468.45  1281.53  4.35
2443.6  29263.70  1250.41  4.27
2445.7  29009.23  1211.32  4.18
2447.9  28765.75  1189.88  4.14
2450.1  28482.86  1148.59  4.03
2452.3  28141.58  1118.75  3.98
2454.5  27817.06  1092.12  3.93
2456.6  27466.90  1055.73  3.84
2458.8  27123.53  1036.75  3.82
2461.0  26858.25  1009.17  3.76
2463.1  26582.85  985.76  3.71
2465.3  26318.05  969.46  3.68
2467.5  26096.44  932.94  3.57
2469.6  25876.69  909.92  3.52
2471.8  25588.40  889.74  3.48
2473.9  25283.44  871.06  3.45
2476.1  24945.38  845.54  3.39
2478.2  24655.15  822.60  3.34
2480.4  24383.48  813.55  3.34
2482.5  24049.49  793.52  3.30
2484.6  23737.31  775.27  3.27
2486.8  23502.90  753.60  3.21
2488.9  23213.34  733.93  3.16
2491.1  22859.90  714.00  3.12
2493.2  22513.00  710.52  3.16
2495.3  22162.08  693.44  3.13
2497.4  21855.75  684.25  3.13
2499.5  21531.93  667.56  3.10
2501.7  21408.53  661.44  3.09
2503.8  21313.75  647.77  3.04
2505.9  21243.13  649.17  3.06
2508.0  21256.48  634.98  2.99
2510.1  21245.40  643.80  3.03
2512.2  21331.88  646.84  3.03
2514.3  21427.44  640.69  2.99
2516.4  21630.60  625.48  2.89
