/*** Spectra Vista SIG Data ***/
name= 9_20221020_CECA_30_avg.sig
comm= Averaged Ref/Tar of files: HR.102022.0025_moc.sig,HR.102022.0026_moc.sig,HR.102022.0027_moc.sig
data=
337.3  3027.13  238.20  7.87
338.8  3174.60  229.05  7.21
340.3  3279.50  224.88  6.86
341.8  3475.10  234.29  6.74
343.2  3685.20  231.72  6.29
344.7  3838.50  240.46  6.26
346.2  4044.15  235.76  5.83
347.7  4168.45  232.95  5.59
349.2  4347.00  232.56  5.35
350.6  4590.63  234.34  5.10
352.1  4894.33  238.17  4.87
353.6  5135.60  245.88  4.79
355.1  5388.00  251.44  4.67
356.6  5670.08  255.33  4.50
358.0  5933.40  266.14  4.49
359.5  6210.90  270.74  4.36
361.0  6523.65  277.59  4.26
362.5  6879.63  286.62  4.17
364.0  7226.10  300.95  4.16
365.4  7587.00  306.69  4.04
366.9  7900.75  322.03  4.08
368.4  8237.05  326.78  3.97
369.9  8593.95  336.65  3.92
371.3  8971.20  352.44  3.93
372.8  9398.70  372.71  3.97
374.3  9809.38  385.98  3.93
375.8  10214.05  395.78  3.87
377.2  10625.50  401.19  3.78
378.7  11002.10  407.85  3.71
380.2  11378.70  416.57  3.66
381.7  11891.00  426.22  3.58
383.1  12343.10  437.36  3.54
384.6  12813.13  455.23  3.55
386.1  13269.28  466.37  3.51
387.6  13717.55  478.94  3.49
389.0  14150.40  493.63  3.49
390.5  14602.50  505.21  3.46
392.0  15155.85  520.43  3.43
393.4  15712.45  529.50  3.37
394.9  16208.10  544.37  3.36
396.4  16741.13  561.36  3.35
397.9  17245.63  574.98  3.33
399.3  17752.83  583.68  3.29
400.8  18319.88  606.75  3.31
402.2  18952.60  622.87  3.29
403.7  19548.90  637.87  3.26
405.2  20100.08  657.04  3.27
406.6  20648.00  669.93  3.24
408.1  21221.40  685.32  3.23
409.6  21818.30  702.40  3.22
411.0  22460.20  725.90  3.23
412.5  23115.75  748.11  3.24
414.0  23736.88  770.76  3.25
415.4  24386.63  790.83  3.24
416.9  25038.23  809.18  3.23
418.4  25715.48  834.51  3.25
419.8  26426.40  864.93  3.27
421.3  27129.65  891.25  3.29
422.7  27874.80  921.04  3.30
424.2  28620.00  947.57  3.31
425.7  29340.00  976.76  3.33
427.1  30067.50  1004.36  3.34
428.6  30860.50  1031.56  3.34
430.0  31594.35  1060.23  3.36
431.5  32432.03  1092.22  3.37
432.9  33270.15  1122.61  3.37
434.4  34136.48  1155.00  3.38
435.9  34944.00  1186.93  3.40
437.3  35763.75  1215.76  3.40
438.8  36584.63  1247.09  3.41
440.2  37447.03  1281.28  3.42
441.7  38377.60  1313.45  3.42
443.1  39259.75  1343.93  3.42
444.6  40190.80  1379.37  3.43
446.0  41104.80  1411.68  3.43
447.5  42032.10  1450.80  3.45
448.9  42957.00  1481.17  3.45
450.4  43939.35  1519.96  3.46
451.8  44798.00  1549.60  3.46
453.3  45697.13  1583.44  3.47
454.7  46679.03  1615.88  3.46
456.2  47517.43  1646.70  3.47
457.6  48453.75  1679.48  3.47
459.1  49409.10  1714.99  3.47
460.5  50330.13  1746.39  3.47
462.0  51367.95  1782.21  3.47
463.4  52402.50  1813.62  3.46
464.8  53363.25  1845.24  3.46
466.3  54318.83  1875.88  3.45
467.7  55272.53  1909.37  3.45
469.2  56314.08  1942.08  3.45
470.6  57295.90  1978.51  3.45
472.0  58326.80  2014.20  3.45
473.5  59310.88  2045.03  3.45
474.9  60334.50  2078.60  3.45
476.4  61459.20  2118.03  3.45
477.8  62495.00  2154.29  3.45
479.2  63495.50  2190.74  3.45
480.7  64558.50  2229.43  3.45
482.1  65675.25  2266.04  3.45
483.6  66831.25  2305.12  3.45
485.0  67887.75  2345.50  3.45
486.4  69068.85  2387.59  3.46
487.9  70112.25  2429.14  3.46
489.3  71239.55  2474.64  3.47
490.7  72285.03  2514.47  3.48
492.2  73470.60  2569.84  3.50
493.6  74553.85  2614.96  3.51
495.0  75655.13  2667.04  3.53
496.5  76808.95  2723.96  3.55
497.9  77909.58  2780.15  3.57
499.3  79054.23  2837.73  3.59
500.7  80267.35  2906.56  3.62
502.2  81409.60  2975.06  3.65
503.6  82636.00  3059.32  3.70
505.0  83695.45  3142.07  3.75
506.5  85000.58  3239.81  3.81
507.9  86162.90  3341.98  3.88
509.3  87482.80  3466.02  3.96
510.7  88715.25  3597.47  4.06
512.2  90063.45  3749.44  4.16
513.6  91524.30  3928.89  4.29
515.0  92931.93  4129.31  4.44
516.4  94292.10  4347.81  4.61
517.8  95880.50  4600.17  4.80
519.3  97201.95  4863.78  5.00
520.7  98743.40  5165.85  5.23
522.1  100019.08  5473.14  5.47
523.5  101344.90  5801.99  5.72
524.9  102783.60  6146.50  5.98
526.3  104181.00  6485.38  6.23
527.8  105642.90  6827.04  6.46
529.2  106713.80  7143.77  6.69
530.6  108259.40  7485.38  6.91
532.0  109900.00  7819.20  7.11
533.4  111179.25  8105.44  7.29
534.8  112042.20  8338.80  7.44
536.3  113597.40  8599.75  7.57
537.7  115491.60  8865.36  7.68
539.1  116877.98  9085.99  7.77
540.5  118053.85  9281.02  7.86
541.9  119751.75  9511.51  7.94
543.3  121039.78  9707.57  8.02
544.7  122344.80  9900.85  8.09
546.1  124115.20  10134.40  8.17
547.5  125328.00  10312.53  8.23
549.0  126962.00  10516.00  8.28
550.4  128435.00  10698.06  8.33
551.8  129952.18  10864.41  8.36
553.2  131429.83  11006.33  8.37
554.6  132745.60  11094.72  8.36
556.0  134229.15  11165.38  8.32
557.4  135804.73  11209.41  8.25
558.8  137416.95  11229.06  8.17
560.2  138838.25  11196.11  8.06
561.6  140487.30  11151.97  7.94
563.0  142041.00  11067.39  7.79
564.4  143606.60  10962.56  7.63
565.8  145095.00  10825.76  7.46
567.2  146823.50  10683.45  7.28
568.6  148291.50  10510.43  7.09
570.0  149677.05  10316.92  6.89
571.4  151362.90  10142.64  6.70
572.8  153080.00  9974.78  6.52
574.2  154672.00  9814.61  6.35
575.6  156195.00  9672.43  6.19
577.0  157702.80  9543.23  6.05
578.4  159375.13  9447.10  5.93
579.8  160868.03  9349.39  5.81
581.2  162547.73  9280.29  5.71
582.5  163952.10  9208.01  5.62
583.9  165447.80  9153.43  5.53
585.3  167212.35  9127.28  5.46
586.7  168662.65  9091.59  5.39
588.1  170113.75  9064.19  5.33
589.5  171732.75  9054.03  5.27
590.9  173327.20  9055.31  5.22
592.3  175097.60  9074.49  5.18
593.7  176524.73  9087.13  5.15
595.0  178113.60  9111.12  5.12
596.4  179538.80  9131.35  5.09
597.8  180984.15  9152.00  5.06
599.2  182503.20  9170.86  5.03
600.6  184218.13  9196.28  4.99
602.0  185493.23  9192.93  4.96
603.3  187247.45  9199.03  4.91
604.7  188865.43  9189.86  4.87
606.1  190329.60  9161.36  4.81
607.5  191942.20  9132.94  4.76
608.9  193609.00  9099.85  4.70
610.2  194948.78  9047.43  4.64
611.6  196524.68  9003.19  4.58
613.0  198066.15  8956.80  4.52
614.4  199407.75  8905.71  4.47
615.8  200845.13  8860.52  4.41
617.1  202345.50  8831.48  4.36
618.5  203944.00  8812.34  4.32
619.9  205457.55  8800.63  4.28
621.3  207040.05  8806.96  4.25
622.6  208604.75  8816.24  4.23
624.0  210042.75  8833.28  4.21
625.4  211471.43  8863.99  4.19
626.8  212996.88  8910.42  4.18
628.1  214251.13  8946.00  4.18
629.5  216014.80  9003.76  4.17
630.9  217487.88  9044.76  4.16
632.2  218773.80  9076.61  4.15
633.6  220278.88  9101.69  4.13
635.0  221708.00  9107.16  4.11
636.3  223170.00  9096.50  4.08
637.7  224502.38  9050.22  4.03
639.1  226117.50  8998.67  3.98
640.4  227565.63  8934.46  3.93
641.8  228748.23  8848.33  3.87
643.2  230269.38  8774.57  3.81
644.5  231592.50  8697.78  3.76
645.9  233152.65  8643.38  3.71
647.2  234145.63  8583.75  3.67
648.6  235608.75  8561.70  3.63
650.0  236908.80  8548.25  3.61
651.3  237950.63  8534.81  3.59
652.7  240157.95  8565.38  3.57
654.0  242213.30  8599.50  3.55
655.4  243533.08  8606.78  3.53
656.8  243707.20  8576.28  3.52
658.1  245023.80  8577.57  3.50
659.5  247218.83  8596.99  3.48
660.8  248512.50  8586.43  3.46
662.2  249491.20  8573.44  3.44
663.5  250959.50  8575.21  3.42
664.9  251962.10  8575.64  3.40
666.2  252724.80  8573.43  3.39
667.6  254393.38  8615.75  3.39
668.9  255298.35  8653.03  3.39
670.3  257155.88  8722.84  3.39
671.6  258154.50  8785.52  3.40
673.0  259305.00  8872.34  3.42
674.3  260559.00  8963.76  3.44
675.7  261875.73  9067.15  3.46
677.0  262956.48  9178.34  3.49
678.4  264255.95  9313.85  3.52
679.7  265335.18  9450.61  3.56
681.1  266599.78  9624.28  3.61
682.4  267719.40  9804.40  3.66
683.8  268912.80  10006.88  3.72
685.1  269925.00  10239.45  3.79
686.4  271261.80  10521.95  3.88
687.8  272473.50  10864.78  3.99
689.1  273563.75  11297.07  4.13
690.5  274927.35  11880.41  4.32
691.8  275745.78  12637.80  4.58
693.1  277077.45  13699.58  4.94
694.5  278278.00  15074.80  5.42
695.8  279529.25  16833.70  6.02
697.1  280735.00  18999.93  6.77
698.5  281797.80  21590.08  7.66
699.8  282847.95  24603.02  8.70
701.1  283981.70  28017.66  9.87
702.5  284783.95  31722.91  11.14
703.8  285727.50  35709.43  12.50
705.1  286905.45  39933.59  13.92
706.5  287921.50  44284.17  15.38
707.8  288873.75  48736.20  16.87
709.1  289711.53  53232.16  18.37
710.5  290805.45  57818.35  19.88
711.8  291639.40  62362.69  21.38
713.1  292620.60  66954.37  22.88
714.4  293512.60  71504.84  24.36
715.8  294337.70  76011.14  25.82
717.1  295623.45  80591.55  27.26
718.4  296576.00  85017.17  28.67
719.7  297658.90  89399.98  30.03
721.0  298170.00  93525.43  31.37
722.4  298922.80  97600.27  32.65
723.7  299886.00  101608.33  33.88
725.0  300879.00  105498.97  35.06
726.3  301792.15  109209.15  36.19
727.6  302317.13  112615.94  37.25
729.0  303228.98  115979.54  38.25
730.3  303999.08  119134.86  39.19
731.6  304885.50  122145.13  40.06
732.9  305647.30  124935.32  40.88
734.2  306422.88  127577.63  41.63
735.5  307401.18  130143.44  42.34
736.8  308194.80  132467.65  42.98
738.1  309027.00  134660.79  43.58
739.5  309923.50  136748.53  44.12
740.8  310612.23  138597.03  44.62
742.1  311322.65  140338.81  45.08
743.4  311950.00  141956.67  45.51
744.7  312849.73  143566.07  45.89
746.0  313706.25  145049.80  46.24
747.3  314289.33  146289.85  46.55
748.6  314999.75  147503.36  46.83
749.9  315640.00  148601.14  47.08
751.2  316258.10  149624.82  47.31
752.5  317042.60  150650.90  47.52
753.8  317593.50  151482.34  47.70
755.1  318240.00  152300.57  47.86
756.4  318765.20  153006.11  48.00
757.7  319705.58  153847.96  48.12
759.0  321413.60  155022.22  48.23
760.3  322555.20  155866.10  48.32
761.6  324067.80  156861.97  48.40
762.9  324557.75  157339.43  48.48
764.2  324898.20  157709.83  48.54
765.5  325137.78  158010.28  48.60
766.8  325502.40  158349.07  48.65
768.1  325977.80  158710.72  48.69
769.3  326518.85  159096.52  48.73
770.6  327126.80  159515.18  48.76
771.9  327816.13  159933.11  48.79
773.2  328133.60  160183.03  48.82
774.5  328699.80  160533.16  48.84
775.8  329293.90  160896.72  48.86
777.1  329832.25  161211.71  48.88
778.4  330089.65  161401.45  48.90
779.6  330779.80  161799.12  48.91
780.9  331170.00  162043.43  48.93
782.2  331570.25  162309.40  48.95
783.5  331840.00  162473.79  48.96
784.8  332324.33  162743.08  48.97
786.0  332650.85  162935.27  48.98
787.3  332974.03  163139.42  48.99
788.6  333271.40  163349.54  49.01
789.9  333688.60  163576.61  49.02
791.2  334284.65  163890.10  49.03
792.4  334927.08  164218.64  49.03
793.7  335336.00  164452.69  49.04
795.0  335916.08  164747.72  49.04
796.2  336465.98  165058.37  49.06
797.5  337040.85  165376.98  49.07
798.8  337666.85  165704.44  49.07
800.0  338270.35  166018.54  49.08
801.3  338654.10  166225.03  49.08
802.6  339207.08  166510.79  49.09
803.8  339816.68  166825.82  49.09
805.1  340205.25  167046.40  49.10
806.4  340614.00  167266.98  49.11
807.7  341080.88  167517.95  49.11
808.9  341552.55  167780.28  49.12
810.2  341988.85  168025.73  49.13
811.4  342454.00  168264.18  49.13
812.7  343037.50  168574.40  49.14
814.0  343808.25  168952.49  49.14
815.2  344395.75  169291.87  49.16
816.5  344752.63  169494.57  49.16
817.7  345199.60  169717.83  49.17
819.0  345688.20  169974.74  49.17
820.2  345796.00  170057.91  49.18
821.5  346484.00  170409.06  49.18
822.7  346806.50  170604.82  49.19
824.0  347095.80  170778.60  49.20
825.2  347542.65  171022.51  49.21
826.5  347802.18  171194.03  49.22
827.7  348373.35  171471.21  49.22
829.0  348724.83  171668.85  49.23
830.2  349018.10  171852.41  49.24
831.5  349545.50  172107.16  49.24
832.7  349905.68  172292.37  49.24
834.0  350229.98  172482.68  49.25
835.2  350499.33  172683.19  49.27
836.4  350829.60  172849.94  49.27
837.7  351270.20  173071.44  49.27
838.9  351708.95  173329.94  49.28
840.1  352117.13  173555.85  49.29
841.4  352495.50  173797.53  49.30
842.6  352926.80  174014.33  49.31
843.8  353299.40  174218.36  49.31
845.1  353785.35  174510.48  49.33
846.3  354169.30  174734.17  49.34
847.5  354559.80  174967.44  49.35
848.8  354979.20  175200.06  49.36
850.0  355413.45  175435.51  49.36
851.2  355954.50  175716.62  49.36
852.5  356350.60  175915.00  49.37
853.7  356852.25  176202.34  49.38
854.9  357336.60  176446.71  49.38
856.1  357780.80  176695.72  49.39
857.4  357980.35  176821.71  49.39
858.6  358490.30  177085.62  49.40
859.8  358946.25  177310.61  49.40
861.0  359424.00  177539.14  49.40
862.2  359923.80  177789.03  49.40
863.5  360274.20  177987.82  49.40
864.7  360822.00  178247.52  49.40
865.9  361201.40  178464.06  49.41
867.1  361555.40  178643.59  49.41
868.3  361974.60  178867.26  49.41
869.5  362439.15  179094.53  49.41
870.8  362992.50  179362.63  49.41
872.0  363504.83  179607.56  49.41
873.2  363944.55  179801.57  49.40
874.4  364390.65  180035.92  49.41
875.6  364811.08  180238.32  49.41
876.8  365344.50  180482.41  49.40
878.0  365792.00  180723.33  49.41
879.2  366304.80  180960.99  49.40
880.4  366779.25  181182.72  49.40
881.6  367224.65  181393.24  49.40
882.8  367652.00  181581.24  49.39
884.0  368290.05  181853.67  49.38
885.2  368778.50  182066.87  49.37
886.5  369349.45  182350.66  49.37
887.7  369822.70  182568.98  49.37
888.8  370302.68  182862.94  49.38
890.0  371001.85  183123.20  49.36
891.2  371520.50  183343.24  49.35
892.4  372117.90  183606.40  49.34
893.6  372681.80  183885.35  49.34
894.8  373502.75  184270.85  49.34
896.0  374271.75  184625.79  49.33
897.2  374991.50  185021.14  49.34
898.4  375747.90  185336.42  49.32
899.6  376339.13  185552.41  49.30
900.8  376683.53  185702.62  49.30
902.0  376784.85  185769.09  49.30
903.2  377015.85  185865.08  49.30
904.3  377312.70  186001.89  49.30
905.5  377799.50  186253.34  49.30
906.7  378409.00  186494.55  49.28
907.9  378958.65  186725.05  49.27
909.1  379285.20  186808.86  49.25
910.2  379315.28  186827.28  49.25
911.4  379442.70  186907.11  49.26
912.6  379479.10  186980.94  49.27
913.8  379656.23  187041.47  49.27
915.0  380097.90  187184.62  49.25
916.2  380250.00  187169.91  49.22
917.3  380157.53  187135.46  49.23
918.5  380282.30  187130.89  49.21
919.7  380442.60  187221.96  49.21
920.8  380451.50  187187.71  49.20
922.0  380534.00  187158.77  49.18
923.2  380562.00  187189.60  49.19
924.4  380669.63  187230.60  49.18
925.5  380914.50  187277.78  49.17
926.7  381565.00  187498.38  49.14
927.9  382322.40  187806.48  49.12
929.0  383767.20  188416.47  49.10
930.2  385757.00  189351.86  49.09
931.4  388118.93  190457.21  49.07
932.5  390435.70  191620.18  49.08
933.7  391780.18  192209.68  49.06
934.9  392223.13  192372.25  49.05
936.0  391930.50  192023.12  48.99
937.2  389634.75  190888.33  48.99
938.3  387955.15  189926.97  48.96
939.5  386452.80  189085.03  48.93
940.7  386431.20  189063.81  48.93
941.8  387689.25  189656.15  48.92
943.0  388972.50  190172.30  48.89
944.2  389775.10  190397.84  48.85
945.3  389395.50  190048.86  48.81
946.5  388623.15  189544.37  48.77
947.6  388646.60  189450.46  48.75
948.8  388438.05  189135.57  48.69
949.9  388285.80  189037.76  48.69
951.1  387815.35  188581.35  48.63
952.2  387600.00  188309.49  48.58
953.4  387350.25  187898.77  48.51
954.5  387293.40  187682.71  48.46
955.7  387059.40  187414.80  48.42
956.8  386554.60  187032.91  48.38
958.0  386074.50  186612.69  48.34
959.1  385989.75  186298.37  48.27
960.3  385438.10  185933.69  48.24
961.4  385365.65  185727.86  48.20
962.6  385278.25  185616.73  48.18
963.7  384914.93  185348.88  48.15
964.9  384570.30  185208.64  48.16
966.0  384476.63  184984.75  48.11
967.2  384602.40  184869.78  48.07
968.3  383960.25  184631.71  48.09
969.5  383576.90  184466.25  48.09
970.6  383715.53  184459.53  48.07
971.8  383862.85  184445.80  48.05
972.9  383412.30  184272.22  48.06
974.0  383910.20  184235.93  47.99
975.2  383765.63  184103.54  47.97
976.3  383621.75  183940.40  47.95
977.5  383469.45  183937.12  47.97
978.6  383295.80  183901.20  47.98
979.7  383101.95  183958.51  48.02
980.9  382835.33  183814.21  48.01
982.0  382520.15  183596.87  48.00
983.2  382682.83  183475.60  47.94
984.3  382291.40  183265.78  47.94
985.4  381859.50  183380.72  48.02
986.6  381371.63  183360.18  48.08
987.7  382203.85  183455.36  48.00
988.9  382617.00  183078.38  47.85
990.0  382770.20  183338.82  47.90
993.1  387871.23  186235.70  48.01
996.9  386209.58  185755.79  48.10
1000.7  385917.00  185988.06  48.19
1004.5  385923.50  186280.25  48.27
1008.4  385582.79  186392.68  48.34
1012.2  385361.67  186582.06  48.42
1016.0  384826.80  186582.44  48.48
1019.8  383997.08  186400.96  48.54
1023.7  382527.88  185851.54  48.59
1027.5  380614.52  185054.34  48.62
1031.3  379394.23  184512.68  48.63
1035.1  378185.03  184012.25  48.66
1038.9  377621.38  183823.86  48.68
1042.7  377362.42  183762.88  48.70
1046.5  377218.50  183750.30  48.71
1050.3  377249.28  183782.61  48.72
1054.2  376905.08  183648.44  48.73
1058.0  376552.75  183498.61  48.73
1061.8  376515.38  183507.59  48.74
1065.6  375807.10  183104.65  48.72
1069.4  374866.60  182576.01  48.70
1073.2  373457.73  181783.46  48.68
1077.0  372760.38  181373.88  48.66
1080.8  373072.92  181465.77  48.64
1084.6  373357.13  181568.11  48.63
1088.4  373795.29  181724.25  48.62
1092.2  373376.25  181399.21  48.58
1096.0  372702.50  180923.29  48.54
1099.8  371935.20  180387.35  48.50
1103.6  370968.68  179744.26  48.45
1107.4  369768.76  178957.97  48.40
1111.2  369407.20  178595.97  48.35
1114.9  368863.83  178129.13  48.29
1118.7  368653.73  177726.53  48.21
1122.5  368368.87  177224.90  48.11
1126.3  367458.47  176378.73  48.00
1130.1  367108.08  175604.70  47.83
1133.9  365449.00  173994.56  47.61
1137.7  363886.30  172240.58  47.33
1141.4  361814.05  170088.77  47.01
1145.2  360865.06  168337.51  46.65
1149.0  359578.33  166560.65  46.32
1152.8  357767.15  164722.70  46.04
1156.6  355923.52  163123.34  45.83
1160.3  354123.00  161789.63  45.69
1164.1  351868.00  160411.59  45.59
1167.9  350294.79  159488.34  45.53
1171.7  349035.75  158775.75  45.49
1175.4  347492.90  157977.12  45.46
1179.2  346057.53  157182.49  45.42
1183.0  345770.00  156899.48  45.38
1186.7  345864.40  156848.14  45.35
1190.5  345649.60  156661.48  45.32
1194.3  344739.90  156172.95  45.30
1198.0  343196.70  155440.42  45.29
1201.8  341501.53  154679.18  45.29
1205.6  340427.00  154292.84  45.32
1209.3  339937.33  154228.15  45.37
1213.1  339560.55  154230.70  45.42
1216.8  338952.44  154189.79  45.49
1220.6  337814.40  153861.81  45.55
1224.3  336536.42  153461.85  45.60
1228.1  334999.20  152950.22  45.66
1231.9  333375.08  152352.50  45.70
1235.6  331640.03  151683.18  45.74
1239.4  330072.25  151108.17  45.78
1243.1  328677.48  150559.44  45.81
1246.9  327413.62  150026.97  45.82
1250.6  326350.80  149591.04  45.84
1254.3  325190.53  149078.13  45.84
1258.1  323935.27  148504.86  45.84
1261.8  322469.60  147828.72  45.84
1265.6  321414.25  147311.63  45.83
1269.3  320779.53  146971.59  45.82
1273.1  321155.34  147035.42  45.78
1276.8  320751.20  146668.59  45.73
1280.6  319395.50  145842.85  45.66
1284.3  317323.60  144673.25  45.59
1288.0  316160.28  143917.41  45.52
1291.8  315867.93  143519.36  45.44
1295.5  315245.33  142920.08  45.34
1299.2  314110.04  142008.14  45.21
1302.9  312432.01  140775.77  45.06
1306.7  310612.63  139400.50  44.88
1310.4  308829.23  137944.94  44.67
1314.1  307224.50  136498.57  44.43
1317.9  305793.96  135033.10  44.16
1321.6  304228.32  133409.12  43.85
1325.3  302535.98  131644.78  43.51
1329.0  301234.50  129996.88  43.15
1332.8  299329.80  127998.93  42.76
1336.5  297684.73  126100.73  42.36
1340.2  297554.83  124836.59  41.95
1343.9  297444.58  123574.71  41.55
1347.6  297505.20  122362.28  41.13
1351.4  298886.50  121727.89  40.73
1355.1  300796.47  121330.76  40.34
1358.8  302464.00  120764.70  39.93
1362.5  302747.48  119487.81  39.47
1366.2  300890.65  117136.72  38.93
1369.9  297735.63  113958.56  38.28
1373.6  294825.42  110393.86  37.44
1377.3  293259.60  106683.70  36.38
1381.0  292762.17  102560.82  35.03
1384.8  290923.75  97096.58  33.38
1388.4  287715.98  90609.77  31.49
1392.2  285447.00  84037.20  29.44
1395.9  283995.05  77621.28  27.33
1399.6  282247.21  71444.73  25.31
1403.3  280845.02  65960.13  23.49
1407.0  279193.10  61185.64  21.92
1410.7  277447.50  57251.32  20.64
1414.3  275582.36  54110.79  19.64
1418.1  273919.63  51753.80  18.89
1421.7  272529.37  50004.34  18.35
1425.4  271146.53  48722.64  17.97
1429.1  269877.38  47838.70  17.73
1432.8  268197.45  47166.87  17.59
1436.5  267417.58  46864.89  17.52
1440.2  266859.37  46770.17  17.53
1443.9  265790.53  46697.29  17.57
1447.6  264279.40  46631.69  17.64
1451.2  263050.52  46667.83  17.74
1454.9  261610.20  46712.50  17.86
1458.6  260391.62  46922.62  18.02
1462.3  259159.63  47288.42  18.25
1466.0  257794.90  47800.14  18.54
1469.7  256063.28  48426.95  18.91
1473.3  254999.83  49314.00  19.34
1477.0  252953.00  50122.05  19.81
1480.7  251301.19  51052.26  20.32
1484.4  249281.58  51920.38  20.83
1488.0  247705.33  52901.74  21.36
1491.7  246132.23  53866.18  21.89
1495.4  244492.65  54810.05  22.42
1499.0  242933.00  55741.22  22.95
1502.7  241666.58  56711.96  23.47
1506.4  240257.99  57599.25  23.97
1510.0  238802.73  58440.64  24.47
1513.7  237284.54  59214.23  24.95
1517.4  235912.33  59979.54  25.42
1521.0  234658.13  60736.14  25.88
1524.7  233417.17  61423.90  26.32
1528.3  232116.13  62066.14  26.74
1532.0  230878.08  62667.47  27.14
1535.7  229472.04  63160.99  27.52
1539.3  228204.02  63650.03  27.89
1543.0  227215.17  64195.08  28.25
1546.6  226516.33  64776.18  28.60
1550.3  225502.50  65226.34  28.92
1553.9  224435.10  65616.75  29.24
1557.6  223184.13  65914.84  29.53
1561.2  221902.65  66158.21  29.81
1564.9  220569.23  66364.70  30.09
1568.5  219245.60  66532.68  30.35
1572.2  218070.05  66723.90  30.60
1575.8  216972.00  66921.78  30.84
1579.5  215935.35  67110.07  31.08
1583.1  214855.93  67267.99  31.31
1586.8  213514.00  67317.56  31.53
1590.4  212282.23  67367.35  31.73
1594.0  210987.51  67391.72  31.94
1597.7  210220.36  67586.27  32.15
1601.3  209350.58  67735.80  32.36
1604.9  208401.66  67827.67  32.55
1608.6  206995.28  67724.83  32.72
1612.2  205592.48  67578.91  32.87
1615.8  204118.85  67397.65  33.02
1619.5  202849.33  67258.37  33.16
1623.1  201497.10  67077.91  33.29
1626.7  200261.75  66918.95  33.42
1630.3  199091.83  66743.23  33.52
1634.0  197974.00  66566.00  33.62
1637.6  196961.47  66385.74  33.70
1641.2  195927.25  66140.71  33.76
1644.8  194695.00  65775.96  33.78
1648.5  193619.50  65431.41  33.79
1652.1  192648.30  65084.93  33.78
1655.7  191714.20  64745.01  33.77
1659.3  190868.49  64462.22  33.77
1662.9  189450.83  63980.94  33.77
1666.6  188001.00  63497.83  33.78
1670.2  186582.20  62997.85  33.76
1673.8  185109.75  62432.15  33.73
1677.4  183928.55  61931.73  33.67
1681.0  183101.68  61493.68  33.58
1684.6  182689.00  61129.27  33.46
1688.2  181997.30  60601.76  33.30
1691.8  181310.31  60086.82  33.14
1695.4  180851.20  59634.81  32.97
1699.0  180492.90  59204.11  32.80
1702.6  180141.33  58766.67  32.62
1706.2  179513.43  58208.98  32.43
1709.8  178527.88  57565.17  32.24
1713.4  177754.20  57024.67  32.08
1717.0  176882.00  56492.03  31.94
1720.6  176044.13  56001.24  31.81
1724.2  175294.13  55533.55  31.68
1727.8  174580.00  55079.89  31.55
1731.4  174119.00  54700.16  31.42
1735.0  173941.72  54413.11  31.28
1738.6  173735.25  54068.87  31.12
1742.2  173212.58  53585.72  30.94
1745.8  172599.75  53047.31  30.73
1749.4  171656.93  52389.09  30.52
1753.0  170183.20  51563.02  30.30
1756.6  168511.29  50712.66  30.09
1760.1  167179.83  49982.87  29.90
1763.7  165431.33  49159.39  29.72
1767.3  163965.88  48436.67  29.54
1770.9  162701.64  47786.94  29.37
1774.5  161193.72  47102.23  29.22
1778.0  160029.02  46566.56  29.10
1781.6  158923.50  46115.64  29.02
1785.2  157747.48  45687.21  28.96
1788.8  156571.90  45294.97  28.93
1792.3  155303.83  44894.09  28.91
1795.9  154715.28  44711.16  28.90
1799.5  154536.00  44665.67  28.90
1803.1  155740.78  45056.95  28.93
1806.6  158012.17  45737.43  28.95
1810.2  159754.93  46228.51  28.94
1813.8  160404.90  46372.62  28.91
1817.3  159741.40  46134.50  28.88
1820.9  158318.17  45669.32  28.85
1824.5  156821.55  45178.28  28.81
1828.0  155578.96  44715.07  28.74
1831.6  155006.13  44426.60  28.66
1835.2  154700.00  44144.23  28.54
1838.7  154474.80  43800.93  28.35
1842.3  154290.00  43383.10  28.12
1845.8  153130.75  42565.93  27.80
1849.4  152521.60  41744.92  27.37
1852.9  151712.58  40679.36  26.81
1856.5  150706.95  39327.48  26.10
1860.0  149662.53  37697.85  25.19
1863.6  149525.38  36027.10  24.09
1867.1  150045.35  34171.51  22.77
1870.7  150900.13  31967.25  21.18
1874.2  150035.40  29019.51  19.34
1877.8  147530.20  25633.20  17.37
1881.3  144604.50  22154.88  15.32
1884.9  142664.13  19007.33  13.32
1888.4  141063.59  16127.87  11.43
1891.9  139353.20  13665.55  9.81
1895.5  137823.93  11712.88  8.50
1899.0  136961.75  10298.25  7.52
1901.3  176207.17  9403.17  5.34
1904.1  176052.75  8438.75  4.79
1906.8  175009.20  7689.20  4.39
1909.6  172757.20  7090.53  4.10
1912.4  170668.05  6633.01  3.89
1915.1  169149.20  6294.93  3.72
1917.9  167616.67  6032.95  3.60
1920.6  166317.60  5877.78  3.53
1923.3  165004.00  5776.24  3.50
1926.1  163325.47  5697.40  3.49
1928.8  161729.33  5646.67  3.49
1931.6  160494.40  5641.80  3.52
1934.3  159422.35  5678.04  3.56
1937.0  158372.73  5729.28  3.62
1939.8  157174.25  5807.11  3.69
1942.5  155617.00  5881.33  3.78
1945.2  153635.90  5959.98  3.88
1947.9  152005.00  6073.51  4.00
1950.7  150719.20  6198.58  4.11
1953.4  148836.75  6322.10  4.25
1956.1  147361.42  6481.81  4.40
1958.8  146048.07  6648.99  4.55
1961.5  144504.40  6820.27  4.72
1964.2  142924.60  7000.93  4.90
1966.9  141297.65  7191.73  5.09
1969.6  140004.00  7395.00  5.28
1972.3  138590.80  7603.57  5.49
1975.0  137520.15  7832.25  5.70
1977.7  136385.02  8067.25  5.92
1980.4  135217.07  8307.88  6.14
1983.1  134097.20  8548.14  6.37
1985.8  133153.50  8813.10  6.62
1988.4  132097.33  9076.89  6.87
1991.1  131148.97  9329.76  7.11
1993.8  130266.77  9596.09  7.37
1996.5  129620.52  9880.44  7.62
1999.1  128922.57  10159.05  7.88
2001.8  128222.27  10431.95  8.14
2004.5  127526.95  10702.93  8.39
2007.1  126783.05  10950.90  8.64
2009.8  126020.77  11194.55  8.88
2012.4  125432.82  11445.81  9.13
2015.1  124881.17  11695.29  9.37
2017.8  124069.63  11908.24  9.60
2020.4  123554.38  12149.50  9.83
2023.1  123197.67  12383.08  10.05
2025.7  122962.67  12615.78  10.26
2028.3  122624.67  12826.67  10.46
2031.0  122200.55  13019.21  10.65
2033.6  121904.40  13209.50  10.84
2036.2  121660.80  13398.00  11.01
2038.9  121043.10  13534.30  11.18
2041.5  120690.97  13693.88  11.35
2044.1  120129.60  13801.10  11.49
2046.8  119746.80  13928.70  11.63
2049.4  119111.70  14015.70  11.77
2052.0  118817.00  14139.27  11.90
2054.6  118405.00  14253.75  12.04
2057.2  117821.40  14348.87  12.18
2059.8  117480.80  14479.87  12.33
2062.4  116594.13  14536.50  12.47
2065.0  116048.53  14634.15  12.61
2067.6  115138.45  14681.77  12.75
2070.2  114528.28  14757.32  12.89
2072.8  113883.25  14827.05  13.02
2075.4  113443.75  14927.50  13.16
2078.0  112804.35  14990.22  13.29
2080.6  112235.20  15059.73  13.42
2083.2  111538.30  15102.05  13.54
2085.8  111038.90  15171.75  13.66
2088.4  110363.67  15219.83  13.79
2090.9  109538.27  15241.08  13.91
2093.5  108654.07  15236.47  14.02
2096.1  107876.90  15256.65  14.14
2098.7  107086.40  15274.22  14.26
2101.2  106118.73  15257.13  14.38
2103.8  105428.80  15283.33  14.50
2106.4  104756.33  15297.89  14.60
2108.9  104092.60  15318.26  14.72
2111.5  103236.73  15312.44  14.83
2114.0  102590.47  15324.09  14.94
2116.6  102051.25  15350.42  15.04
2119.1  101491.70  15362.12  15.14
2121.7  100983.75  15394.17  15.24
2124.2  100579.97  15429.34  15.34
2126.8  99769.88  15397.18  15.43
2129.3  99360.80  15423.47  15.52
2131.9  98762.40  15414.67  15.61
2134.4  98323.50  15431.45  15.69
2136.9  97929.87  15451.08  15.78
2139.4  97391.47  15448.69  15.86
2142.0  96939.27  15457.56  15.95
2144.5  96654.00  15488.97  16.03
2147.0  96408.53  15526.13  16.10
2149.5  95890.40  15520.18  16.19
2152.1  95726.40  15565.12  16.26
2154.6  95653.33  15618.84  16.33
2157.1  95111.58  15590.03  16.39
2159.6  94693.75  15587.00  16.46
2162.1  94521.70  15606.50  16.51
2164.6  94265.13  15614.96  16.56
2167.1  93936.32  15614.73  16.62
2169.6  93604.47  15616.11  16.68
2172.1  93136.63  15579.71  16.73
2174.6  92805.67  15577.26  16.78
2177.1  92359.88  15558.87  16.85
2179.5  91927.55  15543.31  16.91
2182.0  91433.65  15521.00  16.98
2184.5  90896.35  15485.63  17.04
2187.0  90277.00  15439.22  17.10
2189.5  89589.05  15394.61  17.18
2191.9  88796.50  15320.33  17.25
2194.4  88156.05  15267.27  17.32
2196.9  87388.80  15184.00  17.38
2199.3  86710.00  15118.67  17.44
2201.8  85799.33  15002.31  17.49
2204.3  85316.65  14960.60  17.54
2206.7  84690.30  14889.92  17.58
2209.2  84215.88  14848.06  17.63
2211.6  83575.80  14764.20  17.67
2214.1  83271.55  14735.95  17.70
2216.5  82685.07  14651.66  17.72
2219.0  82347.33  14608.62  17.74
2221.4  81951.33  14544.45  17.75
2223.9  81485.25  14448.58  17.73
2226.3  80979.50  14332.89  17.70
2228.7  80410.80  14205.65  17.67
2231.1  79794.00  14054.70  17.61
2233.6  79188.53  13883.49  17.53
2236.0  78629.25  13714.75  17.44
2238.4  78123.50  13536.25  17.33
2240.9  77658.80  13353.71  17.20
2243.3  77112.47  13151.74  17.06
2245.7  76545.35  12928.37  16.89
2248.1  76045.67  12720.79  16.73
2250.5  75513.93  12505.79  16.56
2252.9  74869.60  12249.03  16.36
2255.3  74296.65  12012.97  16.17
2257.7  73840.00  11793.33  15.97
2260.1  73343.67  11581.81  15.79
2262.5  72710.00  11350.00  15.61
2264.9  72179.50  11141.40  15.44
2267.3  71560.00  10926.67  15.27
2269.7  71046.03  10742.36  15.12
2272.1  70487.28  10554.23  14.97
2274.5  69913.28  10376.01  14.84
2276.8  69415.50  10217.00  14.72
2279.2  68822.40  10046.65  14.60
2281.6  68392.93  9898.89  14.47
2284.0  67922.50  9753.23  14.36
2286.3  67447.47  9606.40  14.24
2288.7  67026.70  9463.71  14.12
2291.1  66485.97  9298.69  13.99
2293.4  66024.93  9151.02  13.86
2295.8  65384.40  8978.17  13.73
2298.2  64801.35  8797.50  13.58
2300.5  64107.90  8604.30  13.42
2302.9  63353.67  8414.78  13.28
2305.2  62613.70  8226.27  13.14
2307.6  61930.95  8067.63  13.03
2309.9  61132.00  7901.56  12.93
2312.2  60543.00  7767.22  12.83
2314.6  59947.20  7631.40  12.73
2316.9  59233.05  7493.40  12.65
2319.2  58654.60  7370.70  12.57
2321.6  58011.68  7251.03  12.50
2323.9  57447.92  7128.47  12.41
2326.2  56903.40  7011.20  12.32
2328.6  56398.65  6890.03  12.22
2330.9  55881.00  6769.00  12.11
2333.2  55403.75  6656.92  12.02
2335.5  54955.20  6548.40  11.92
2337.8  54477.40  6444.84  11.83
2340.1  53884.32  6319.03  11.73
2342.4  53451.67  6214.72  11.63
2344.8  53044.08  6109.69  11.52
2347.1  52464.53  5995.11  11.43
2349.4  51910.53  5879.23  11.33
2351.6  51293.60  5769.06  11.25
2353.9  50808.50  5667.46  11.15
2356.2  50280.68  5569.45  11.08
2358.5  49683.20  5458.13  10.99
2360.8  49112.00  5342.40  10.88
2363.1  48669.12  5253.14  10.79
2365.4  48171.90  5156.57  10.70
2367.7  47674.80  5061.60  10.62
2369.9  47139.65  4957.85  10.52
2372.2  46520.27  4850.40  10.43
2374.5  45922.80  4739.35  10.32
2376.7  45305.00  4627.31  10.21
2379.0  44683.63  4509.86  10.09
2381.3  44053.33  4398.33  9.98
2383.5  43530.67  4298.31  9.87
2385.8  42901.27  4177.17  9.74
2388.0  42362.00  4078.87  9.63
2390.3  41865.60  3975.33  9.50
2392.5  41376.00  3896.00  9.42
2394.8  40898.00  3791.33  9.27
2397.0  40391.87  3692.58  9.14
2399.3  39924.78  3594.08  9.00
2401.5  39469.50  3507.58  8.89
2403.8  38945.30  3415.82  8.77
2406.0  38429.58  3319.39  8.64
2408.2  38023.33  3233.02  8.50
2410.4  37612.28  3149.96  8.37
2412.7  37197.33  3062.08  8.23
2414.9  36824.15  2989.62  8.12
2417.1  36410.90  2904.07  7.98
2419.3  35993.60  2824.53  7.85
2421.6  35598.33  2755.56  7.74
2423.8  35230.43  2675.46  7.59
2426.0  34834.28  2596.67  7.45
2428.2  34469.87  2526.22  7.33
2430.4  34155.23  2452.58  7.18
2432.6  33880.00  2400.00  7.08
2434.8  33603.80  2348.08  6.99
2437.0  33220.63  2274.71  6.85
2439.2  32859.02  2203.22  6.71
2441.4  32529.13  2144.98  6.59
2443.6  32275.73  2090.92  6.48
2445.7  32001.08  2026.97  6.33
2447.9  31743.92  1966.89  6.20
2450.1  31429.85  1929.53  6.14
2452.3  31056.67  1858.70  5.98
2454.5  30692.73  1796.55  5.85
2456.6  30316.67  1745.29  5.76
2458.8  29929.90  1696.93  5.67
2461.0  29655.08  1638.69  5.53
2463.1  29347.35  1600.50  5.45
2465.3  29032.53  1560.89  5.38
2467.5  28792.00  1509.42  5.24
2469.6  28580.33  1466.81  5.13
2471.8  28261.37  1436.60  5.08
2473.9  27919.25  1407.78  5.04
2476.1  27542.67  1375.11  4.99
2478.2  27191.50  1315.14  4.84
2480.4  26908.55  1279.17  4.75
2482.5  26569.40  1254.15  4.72
2484.6  26242.33  1231.08  4.69
2486.8  25952.10  1198.43  4.62
2488.9  25647.92  1167.97  4.55
2491.1  25275.60  1152.98  4.56
2493.2  24908.00  1117.67  4.49
2495.3  24514.97  1090.27  4.45
2497.4  24150.00  1062.60  4.40
2499.5  23821.87  1041.13  4.37
2501.7  23680.43  1013.39  4.28
2503.8  23603.93  1003.00  4.25
2505.9  23557.92  1002.22  4.25
2508.0  23577.43  1010.13  4.28
2510.1  23570.23  1007.43  4.27
2512.2  23671.50  1003.13  4.24
2514.3  23843.07  974.48  4.09
2516.4  24093.10  1030.97  4.28
