/*** Spectra Vista SIG Data ***/
name= 38_20220825_BENI_58_avg.sig
comm= Averaged Ref/Tar of files: HR.082522.0032_moc.sig,HR.082522.0033_moc.sig,HR.082522.0034_moc.sig
data=
337.3  3374.50  293.97  8.71
338.8  3511.30  284.94  8.11
340.3  3748.00  260.58  6.95
341.8  3932.35  270.87  6.89
343.2  4084.80  274.86  6.73
344.7  4307.65  268.09  6.22
346.2  4452.65  258.33  5.80
347.7  4679.68  243.44  5.20
349.2  4876.20  232.56  4.77
350.6  5141.50  229.44  4.46
352.1  5430.20  232.72  4.29
353.6  5690.80  233.98  4.11
355.1  5994.15  239.25  3.99
356.6  6292.80  241.60  3.84
358.0  6603.30  235.15  3.56
359.5  6890.70  237.78  3.45
361.0  7211.93  242.82  3.37
362.5  7611.50  248.14  3.26
364.0  7971.65  249.61  3.13
365.4  8345.70  258.52  3.10
366.9  8729.50  264.15  3.03
368.4  9109.85  268.07  2.94
369.9  9512.80  279.52  2.94
371.3  9932.40  299.55  3.02
372.8  10354.50  311.01  3.00
374.3  10776.88  311.24  2.89
375.8  11211.20  310.57  2.77
377.2  11647.70  316.14  2.71
378.7  12078.10  316.14  2.62
380.2  12508.50  322.29  2.58
381.7  13053.08  326.36  2.50
383.1  13528.90  334.18  2.47
384.6  14080.95  331.92  2.36
386.1  14566.48  343.35  2.36
387.6  15065.05  352.15  2.34
389.0  15544.00  356.31  2.29
390.5  16062.75  365.13  2.27
392.0  16637.05  374.83  2.25
393.4  17236.40  384.37  2.23
394.9  17826.30  392.25  2.20
396.4  18397.13  403.16  2.19
397.9  18962.50  409.51  2.16
399.3  19525.58  415.33  2.13
400.8  20114.48  425.86  2.12
402.2  20769.30  430.68  2.07
403.7  21378.60  445.27  2.08
405.2  22041.43  457.27  2.07
406.6  22643.20  471.51  2.08
408.1  23255.40  479.98  2.06
409.6  23881.60  492.10  2.06
411.0  24573.85  502.23  2.04
412.5  25260.73  516.46  2.04
414.0  25937.38  529.36  2.04
415.4  26672.25  546.28  2.05
416.9  27370.50  561.36  2.05
418.4  28087.20  575.55  2.05
419.8  28847.00  590.03  2.05
421.3  29589.50  604.69  2.04
422.7  30380.40  621.43  2.05
424.2  31185.00  641.89  2.06
425.7  31996.90  658.83  2.06
427.1  32805.23  674.30  2.06
428.6  33619.50  688.79  2.05
430.0  34386.55  707.59  2.06
431.5  35297.63  725.21  2.05
432.9  36200.15  745.34  2.06
434.4  37130.40  766.73  2.06
435.9  37996.00  784.53  2.06
437.3  38885.00  803.26  2.07
438.8  39774.75  820.45  2.06
440.2  40667.55  840.84  2.07
441.7  41674.00  866.79  2.08
443.1  42612.00  888.63  2.09
444.6  43623.00  914.50  2.10
446.0  44608.05  938.40  2.10
447.5  45612.33  965.07  2.12
448.9  46594.80  989.74  2.12
450.4  47643.05  1017.99  2.14
451.8  48542.00  1047.43  2.16
453.3  49501.95  1073.89  2.17
454.7  50578.83  1104.44  2.18
456.2  51484.93  1135.08  2.20
457.6  52502.63  1158.34  2.21
459.1  53526.53  1183.51  2.21
460.5  54503.13  1210.63  2.22
462.0  55614.80  1236.06  2.22
463.4  56690.60  1264.58  2.23
464.8  57733.88  1292.09  2.24
466.3  58736.70  1320.22  2.25
467.7  59776.53  1342.35  2.25
469.2  60888.45  1369.43  2.25
470.6  61918.35  1396.70  2.26
472.0  63013.78  1424.93  2.26
473.5  64042.75  1455.82  2.27
474.9  65122.50  1490.96  2.29
476.4  66326.40  1520.64  2.29
477.8  67454.00  1554.95  2.31
479.2  68512.50  1586.16  2.32
480.7  69668.18  1621.75  2.33
482.1  70862.80  1657.48  2.34
483.6  72119.95  1700.42  2.36
485.0  73257.98  1738.65  2.37
486.4  74525.10  1785.63  2.40
487.9  75669.75  1829.66  2.42
489.3  76879.23  1880.03  2.45
490.7  77983.60  1931.36  2.48
492.2  79277.10  1998.92  2.52
493.6  80443.15  2064.67  2.57
495.0  81607.50  2145.56  2.63
496.5  82840.38  2228.36  2.69
497.9  83999.70  2327.32  2.77
499.3  85217.73  2432.98  2.86
500.7  86537.55  2560.54  2.96
502.2  87760.60  2704.48  3.08
503.6  89074.60  2881.07  3.23
505.0  90200.05  3076.22  3.41
506.5  91560.68  3307.63  3.61
507.9  92789.68  3572.12  3.85
509.3  94216.80  3882.67  4.12
510.7  95515.88  4229.27  4.43
512.2  96982.50  4640.27  4.78
513.6  98527.10  5104.23  5.18
515.0  100015.98  5620.09  5.62
516.4  101450.48  6189.48  6.10
517.8  103126.63  6821.16  6.61
519.3  104506.88  7492.99  7.17
520.7  106133.70  8215.37  7.74
522.1  107481.73  8945.33  8.32
523.5  108892.60  9702.46  8.91
524.9  110344.50  10453.47  9.47
526.3  111743.45  11186.71  10.01
527.8  113350.05  11928.65  10.52
529.2  114640.60  12637.75  11.02
530.6  116264.70  13349.05  11.48
532.0  118034.00  14035.20  11.89
533.4  119405.70  14631.01  12.25
534.8  120373.95  15124.11  12.56
536.3  122098.50  15678.29  12.84
537.7  124147.80  16241.04  13.08
539.1  125653.38  16703.78  13.29
540.5  126922.65  17120.64  13.49
541.9  128783.18  17595.21  13.66
543.3  130114.58  18003.20  13.84
544.7  131521.80  18417.41  14.00
546.1  133383.25  18888.95  14.16
547.5  134657.60  19264.00  14.31
549.0  136499.00  19693.35  14.43
550.4  138029.38  20057.98  14.53
551.8  139624.65  20393.04  14.61
553.2  141203.00  20680.64  14.65
554.6  142594.40  20880.82  14.64
556.0  144175.50  21045.39  14.60
557.4  145850.95  21162.91  14.51
558.8  147559.95  21235.83  14.39
560.2  149078.38  21225.27  14.24
561.6  150818.48  21196.31  14.05
563.0  152463.63  21107.82  13.84
564.4  154114.40  20975.41  13.61
565.8  155688.13  20787.56  13.35
567.2  157519.75  20574.89  13.06
568.6  159068.63  20284.88  12.75
570.0  160575.23  19939.80  12.42
571.4  162357.65  19600.38  12.07
572.8  164193.88  19258.54  11.73
574.2  165883.20  18916.69  11.40
575.6  167501.25  18583.93  11.09
577.0  169081.90  18276.73  10.81
578.4  170875.25  18022.12  10.55
579.8  172457.78  17773.79  10.31
581.2  174226.90  17572.17  10.09
582.5  175710.60  17369.93  9.89
583.9  177283.20  17201.70  9.70
585.3  179149.28  17082.51  9.54
586.7  180687.65  16956.85  9.38
588.1  182250.88  16858.83  9.25
589.5  183958.25  16800.00  9.13
590.9  185640.40  16761.49  9.03
592.3  187522.10  16770.39  8.94
593.7  189009.60  16773.49  8.87
595.0  190694.93  16800.26  8.81
596.4  192203.90  16821.93  8.75
597.8  193745.35  16842.59  8.69
599.2  195346.80  16856.27  8.63
600.6  197156.70  16861.33  8.55
602.0  198515.48  16794.55  8.46
603.3  200363.85  16731.80  8.35
604.7  202102.83  16616.04  8.22
606.1  203646.60  16440.66  8.07
607.5  205351.98  16237.61  7.91
608.9  207111.05  16012.18  7.73
610.2  208528.43  15739.38  7.55
611.6  210190.73  15470.45  7.36
613.0  211793.65  15197.82  7.18
614.4  213230.25  14919.15  7.00
615.8  214738.88  14663.16  6.83
617.1  216339.90  14438.76  6.67
618.5  218033.60  14256.77  6.54
619.9  219621.38  14097.44  6.42
621.3  221316.08  13987.30  6.32
622.6  222985.50  13908.87  6.24
624.0  224519.40  13863.51  6.17
625.4  226080.53  13851.62  6.13
626.8  227743.43  13876.29  6.09
628.1  229113.23  13908.07  6.07
629.5  231036.03  13983.30  6.05
630.9  232669.25  14039.56  6.03
632.2  234068.28  14063.06  6.01
633.6  235725.63  14070.55  5.97
635.0  237308.40  14022.10  5.91
636.3  238895.70  13904.26  5.82
637.7  240348.38  13709.37  5.70
639.1  242060.00  13463.33  5.56
640.4  243632.20  13150.20  5.40
641.8  244879.85  12791.22  5.22
643.2  246545.95  12422.49  5.04
644.5  247962.75  12030.40  4.85
645.9  249739.20  11655.48  4.67
647.2  251542.03  11312.75  4.50
648.6  253449.00  11014.84  4.35
650.0  255009.60  10745.28  4.21
651.3  255571.53  10468.63  4.10
652.7  256777.00  10239.47  3.99
654.0  258930.30  10048.52  3.88
655.4  260523.23  9825.35  3.77
656.8  260868.40  9551.73  3.66
658.1  262048.80  9268.95  3.54
659.5  264488.70  8995.60  3.40
660.8  266265.00  8706.43  3.27
662.2  267187.20  8394.24  3.14
663.5  268923.15  8140.65  3.03
664.9  270283.00  7917.27  2.93
666.2  271150.80  7724.75  2.85
667.6  273034.75  7614.31  2.79
668.9  274196.83  7543.94  2.75
670.3  275346.75  7501.38  2.72
671.6  277027.13  7517.44  2.71
673.0  278266.13  7571.81  2.72
674.3  279565.00  7656.28  2.74
675.7  280970.60  7777.97  2.77
677.0  282184.30  7918.51  2.81
678.4  283615.93  8106.46  2.86
679.7  284805.28  8328.39  2.92
681.1  286158.23  8609.67  3.01
682.4  287366.30  8951.13  3.11
683.8  288692.30  9393.97  3.25
685.1  289726.88  9960.04  3.44
686.4  291108.60  10725.77  3.68
687.8  292431.75  11760.29  4.02
689.1  293544.25  13143.60  4.48
690.5  295020.00  14991.95  5.08
691.8  295905.85  17362.26  5.87
693.1  297303.90  20375.94  6.85
694.5  298525.50  23974.60  8.03
695.8  299776.75  28135.90  9.39
697.1  301028.00  32791.63  10.89
698.5  302159.70  37870.95  12.53
699.8  303323.48  43302.34  14.28
701.1  304570.60  48974.11  16.08
702.5  305417.20  54711.02  17.91
703.8  306472.50  60501.43  19.74
705.1  307693.43  66272.92  21.54
706.5  308819.75  71921.35  23.29
707.8  309882.75  77426.79  24.99
709.1  310830.98  82727.52  26.61
710.5  312081.18  87926.48  28.17
711.8  313002.80  92872.49  29.67
713.1  314073.20  97693.96  31.11
714.4  315054.40  102300.93  32.47
715.8  315968.70  106701.04  33.77
717.1  317392.35  111096.53  35.00
718.4  318416.00  115178.67  36.17
719.7  319616.98  119142.33  37.28
721.0  320197.50  122710.29  38.32
722.4  321044.35  126184.65  39.30
723.7  322105.65  129553.25  40.22
725.0  323240.40  132776.33  41.08
726.3  324251.95  135775.71  41.87
727.6  324868.23  138438.62  42.61
729.0  325878.88  141088.31  43.29
730.3  326724.75  143516.80  43.93
731.6  327688.25  145844.56  44.51
732.9  328573.18  147983.78  45.04
734.2  329470.63  149989.58  45.52
735.5  330596.83  151962.54  45.97
736.8  331491.90  153717.30  46.37
738.1  332425.10  155367.75  46.74
739.5  333469.95  156975.87  47.07
740.8  334255.08  158344.86  47.37
742.1  335057.10  159643.02  47.65
743.4  335800.00  160850.48  47.90
744.7  336841.50  162099.19  48.12
746.0  337814.10  163225.99  48.32
747.3  338461.50  164131.58  48.49
748.6  339282.00  165058.48  48.65
749.9  340054.00  165907.24  48.79
751.2  340812.95  166690.56  48.91
752.5  341728.20  167517.90  49.02
753.8  342390.83  168173.32  49.12
755.1  343174.00  168848.46  49.20
756.4  343857.05  169431.71  49.27
757.7  344972.25  170202.20  49.34
759.0  346930.53  171347.16  49.39
760.3  348242.40  172163.20  49.44
761.6  349949.60  173146.24  49.48
762.9  350612.25  173568.78  49.50
764.2  351018.10  173886.21  49.54
765.5  351406.08  174144.47  49.56
766.8  351886.40  174473.23  49.58
768.1  352501.00  174831.83  49.60
769.3  353201.10  175220.42  49.61
770.6  353958.80  175634.61  49.62
771.9  354807.78  176067.45  49.62
773.2  355255.60  176328.30  49.63
774.5  355927.00  176705.51  49.65
775.8  356730.25  177115.92  49.65
777.1  357379.00  177469.64  49.66
778.4  357808.00  177693.93  49.66
779.6  358691.58  178139.38  49.66
780.9  359280.00  178432.00  49.66
782.2  359793.50  178719.88  49.67
783.5  360205.00  178925.78  49.67
784.8  360775.80  179247.67  49.68
786.0  361277.70  179503.51  49.69
787.3  361773.65  179756.42  49.69
788.6  362295.80  180014.93  49.69
789.9  362861.80  180290.56  49.69
791.2  363569.58  180677.08  49.70
792.4  364373.75  181065.41  49.69
793.7  364895.00  181352.46  49.70
795.0  365682.08  181728.52  49.70
796.2  366447.08  182099.16  49.69
797.5  367251.60  182513.28  49.70
798.8  367995.58  182886.86  49.70
800.0  368772.48  183280.48  49.70
801.3  369339.10  183548.90  49.70
802.6  370050.75  183904.52  49.70
803.8  370783.45  184272.58  49.70
805.1  371321.13  184563.17  49.70
806.4  371894.10  184842.33  49.70
807.7  372514.95  185140.23  49.70
808.9  373179.95  185460.61  49.70
810.2  373787.05  185775.01  49.70
811.4  374373.60  186072.40  49.70
812.7  375050.00  186428.51  49.71
814.0  375987.55  186864.11  49.70
815.2  376668.50  187233.24  49.71
816.5  377177.55  187469.90  49.70
817.7  377679.90  187740.95  49.71
819.0  378319.15  188019.32  49.70
820.2  378532.00  188126.40  49.70
821.5  379301.75  188508.05  49.70
822.7  379721.43  188709.65  49.70
824.0  380097.90  188898.17  49.70
825.2  380657.48  189182.33  49.70
826.5  380989.23  189349.43  49.70
827.7  381558.63  189639.29  49.70
829.0  382052.73  189842.81  49.69
830.2  382446.30  190023.63  49.69
831.5  382945.40  190267.19  49.69
832.7  383261.55  190441.07  49.69
834.0  383644.33  190606.13  49.68
835.2  384062.80  190798.81  49.68
836.4  384386.75  190976.74  49.68
837.7  384820.00  191188.69  49.68
838.9  385249.63  191426.01  49.69
840.1  385620.08  191612.97  49.69
841.4  386066.50  191861.38  49.70
842.6  386508.60  192034.72  49.68
843.8  386877.20  192233.67  49.69
845.1  387377.45  192495.22  49.69
846.3  387825.30  192709.22  49.69
847.5  388237.50  192932.36  49.69
848.8  388660.20  193137.36  49.69
850.0  388993.85  193333.13  49.70
851.2  389583.00  193609.52  49.70
852.5  389979.50  193812.45  49.70
853.7  390521.25  194083.33  49.70
854.9  390915.40  194303.78  49.70
856.1  391456.65  194519.72  49.69
857.4  391689.38  194633.20  49.69
858.6  392128.80  194881.00  49.70
859.8  392523.75  195103.64  49.70
861.0  392979.60  195336.51  49.71
862.2  393471.20  195555.08  49.70
863.5  393888.30  195751.17  49.70
864.7  394435.80  195992.34  49.69
865.9  394892.00  196193.31  49.68
867.1  395219.50  196360.50  49.68
868.3  395582.25  196584.61  49.70
869.5  396103.40  196842.74  49.69
870.8  396729.00  197113.54  49.68
872.0  397218.53  197327.51  49.68
873.2  397705.35  197549.80  49.67
874.4  398191.95  197778.97  49.67
875.6  398555.90  197977.24  49.67
876.8  399136.85  198226.95  49.66
878.0  399595.10  198449.94  49.66
879.2  400191.30  198712.64  49.65
880.4  400731.00  198962.19  49.65
881.6  401308.38  199203.93  49.64
882.8  401635.20  199420.28  49.65
884.0  402314.03  199735.95  49.65
885.2  402893.80  199959.34  49.63
886.5  403556.70  200266.21  49.63
887.7  404122.23  200491.68  49.61
888.8  404895.90  200818.91  49.60
890.0  405485.70  201109.57  49.60
891.2  406095.80  201388.96  49.59
892.4  406707.00  201713.64  49.60
893.6  407367.80  201967.95  49.58
894.8  408399.50  202428.15  49.57
896.0  409406.25  202867.00  49.55
897.2  410354.75  203303.90  49.54
898.4  411041.40  203697.81  49.56
899.6  411656.63  203972.91  49.55
900.8  412000.90  204150.99  49.55
902.0  412399.20  204274.50  49.53
903.2  412829.10  204430.09  49.52
904.3  413205.30  204614.03  49.52
905.5  413902.83  204886.77  49.50
906.7  414615.50  205205.84  49.49
907.9  415230.90  205478.05  49.49
909.1  415719.00  205621.87  49.46
910.2  415908.60  205727.91  49.46
911.4  416139.75  205848.41  49.47
912.6  416430.30  205956.64  49.46
913.8  416746.95  206055.67  49.44
915.0  417333.00  206224.62  49.41
916.2  417514.50  206377.97  49.43
917.3  417672.23  206343.09  49.40
918.5  417881.20  206457.55  49.41
919.7  418329.00  206576.10  49.38
920.8  418230.60  206581.49  49.39
922.0  418533.50  206650.03  49.37
923.2  418918.50  206671.40  49.33
924.4  419276.25  206779.69  49.32
925.5  419637.30  206909.10  49.31
926.7  420291.00  207159.69  49.29
927.9  421219.80  207576.74  49.28
929.0  422761.95  208285.92  49.27
930.2  425233.30  209365.20  49.24
931.4  427804.20  210560.34  49.22
932.5  430669.05  211855.39  49.19
933.7  432408.05  212539.55  49.15
934.9  433015.63  212820.92  49.15
936.0  432633.50  212562.20  49.13
937.2  430500.90  211419.89  49.11
938.3  428906.90  210468.91  49.07
939.5  427399.20  209588.85  49.04
940.7  427859.10  209619.77  48.99
941.8  429615.83  210352.95  48.96
943.0  431096.25  211002.86  48.95
944.2  431967.25  211359.10  48.93
945.3  431447.25  211033.27  48.91
946.5  431032.05  210482.54  48.83
947.6  431363.40  210452.89  48.79
948.8  431317.58  210267.66  48.75
949.9  431516.40  210165.20  48.70
951.1  431128.75  209752.97  48.65
952.2  431052.00  209455.54  48.59
953.4  430872.75  209089.59  48.53
954.5  430887.60  208859.04  48.47
955.7  430970.40  208610.40  48.40
956.8  431006.20  208341.45  48.34
958.0  430596.00  208066.55  48.32
959.1  430683.30  207826.08  48.25
960.3  430283.23  207424.31  48.21
961.4  430399.25  207284.12  48.16
962.6  430591.00  207290.13  48.14
963.7  430545.38  207180.47  48.12
964.9  430507.88  207112.36  48.11
966.0  430510.95  207008.73  48.08
967.2  430564.50  206992.97  48.07
968.3  430361.10  206815.22  48.06
969.5  430265.93  206768.34  48.06
970.6  430777.70  206864.59  48.02
971.8  431172.00  206962.56  48.00
972.9  430870.50  207025.99  48.05
974.0  431165.70  207061.34  48.02
975.2  431182.00  206981.65  48.00
976.3  431305.58  206981.60  47.99
977.5  431497.68  207031.00  47.98
978.6  431707.90  207137.49  47.98
979.7  432370.05  207314.34  47.95
980.9  432437.08  207210.77  47.92
982.0  431955.00  207265.26  47.98
983.2  431731.63  207104.67  47.97
984.3  431233.40  206892.59  47.98
985.4  431616.95  207019.65  47.96
986.6  432344.00  206872.39  47.85
987.7  433077.40  207432.40  47.90
988.9  432943.20  207502.83  47.93
990.0  432981.50  207886.56  48.01
993.1  373155.88  177778.22  47.64
996.9  374216.35  178634.02  47.74
1000.7  375512.38  179618.16  47.83
1004.5  376307.08  180258.68  47.90
1008.4  376178.33  180526.34  47.99
1012.2  376344.58  180859.19  48.06
1016.0  376548.60  181211.72  48.12
1019.8  376963.13  181627.60  48.18
1023.7  377216.05  181941.74  48.23
1027.5  377241.48  182113.61  48.28
1031.3  377746.63  182513.11  48.32
1035.1  377814.79  182659.50  48.35
1038.9  377916.73  182808.11  48.37
1042.7  377881.08  182845.44  48.39
1046.5  377765.33  182844.52  48.40
1050.3  377879.44  182936.38  48.41
1054.2  377647.08  182858.34  48.42
1058.0  377160.58  182616.29  48.42
1061.8  377025.24  182564.99  48.42
1065.6  376888.30  182445.35  48.41
1069.4  377052.07  182476.16  48.40
1073.2  376868.44  182307.89  48.37
1077.0  376483.48  182022.51  48.35
1080.8  375942.71  181616.81  48.31
1084.6  374686.67  180872.17  48.27
1088.4  373884.97  180376.75  48.24
1092.2  372966.75  179795.11  48.21
1096.0  372413.58  179359.92  48.16
1099.8  371991.97  178962.32  48.11
1103.6  371388.93  178475.51  48.06
1107.4  370545.99  177843.67  48.00
1111.2  370349.00  177542.49  47.94
1114.9  369658.92  177001.56  47.88
1118.7  369007.65  176384.72  47.80
1122.5  368315.13  175668.34  47.70
1126.3  367165.23  174676.83  47.57
1130.1  366685.82  173804.63  47.40
1133.9  365060.50  172160.18  47.16
1137.7  363655.00  170405.69  46.86
1141.4  361889.78  168291.00  46.50
1145.2  361240.93  166551.60  46.11
1149.0  360173.33  164733.54  45.74
1152.8  358577.30  162847.55  45.41
1156.6  356898.85  161237.31  45.18
1160.3  355169.33  159858.41  45.01
1164.1  352716.17  158364.07  44.90
1167.9  350869.79  157304.71  44.83
1171.7  349555.50  156564.75  44.79
1175.4  348430.23  155945.11  44.76
1179.2  347439.60  155367.98  44.72
1183.0  347213.67  155105.70  44.67
1186.7  346618.53  154695.71  44.63
1190.5  345440.20  154072.23  44.60
1194.3  344187.10  153441.12  44.58
1198.0  343014.10  152888.01  44.57
1201.8  341569.10  152254.70  44.58
1205.6  340315.33  151750.39  44.59
1209.3  339320.87  151432.38  44.63
1213.1  338260.05  151110.19  44.67
1216.8  337210.13  150847.45  44.73
1220.6  336089.60  150561.16  44.80
1224.3  334849.42  150200.06  44.86
1228.1  333621.80  149871.16  44.92
1231.9  332423.83  149503.58  44.97
1235.6  330981.15  149001.67  45.02
1239.4  329681.13  148555.07  45.06
1243.1  328419.99  148082.11  45.09
1246.9  327213.51  147604.29  45.11
1250.6  326225.27  147203.06  45.12
1254.3  325172.83  146737.77  45.13
1258.1  324199.52  146295.51  45.13
1261.8  322941.20  145696.68  45.12
1265.6  321448.62  144971.15  45.10
1269.3  319899.43  144167.42  45.07
1273.1  319776.85  143985.02  45.03
1276.8  320128.00  143975.60  44.97
1280.6  320181.10  143805.33  44.91
1284.3  318930.80  143021.01  44.84
1288.0  317427.13  142080.04  44.76
1291.8  315997.87  141093.16  44.65
1295.5  314470.93  140036.05  44.53
1299.2  313155.54  139025.95  44.40
1302.9  311714.03  137898.14  44.24
1306.7  310178.17  136644.94  44.05
1310.4  308705.96  135326.75  43.84
1314.1  307346.23  133975.99  43.59
1317.9  306158.96  132575.87  43.30
1321.6  304760.03  131012.94  42.99
1325.3  303114.53  129229.32  42.63
1329.0  301723.57  127509.34  42.26
1332.8  299576.20  125383.38  41.85
1336.5  297715.27  123350.31  41.43
1340.2  297327.33  121931.09  41.01
1343.9  296851.46  120472.93  40.58
1347.6  296130.15  118937.78  40.16
1351.4  296251.50  117780.81  39.76
1355.1  296523.70  116711.87  39.36
1358.8  296512.00  115465.90  38.94
1362.5  295953.98  113878.68  38.48
1366.2  294123.80  111582.66  37.94
1369.9  292306.38  109001.03  37.29
1373.6  290399.08  105972.80  36.49
1377.3  288553.20  102389.94  35.48
1381.0  287265.50  98230.98  34.20
1384.8  285122.50  92902.80  32.58
1388.4  282777.13  86973.44  30.76
1392.2  280959.75  80797.56  28.76
1395.9  279331.78  74541.94  26.69
1399.6  277640.07  68545.62  24.69
1403.3  276464.20  63233.69  22.87
1407.0  275362.30  58663.17  21.30
1410.7  274202.78  54896.09  20.02
1414.3  273035.64  51932.03  19.02
1418.1  271885.83  49705.93  18.28
1421.7  271025.88  48085.41  17.74
1425.4  270123.10  46927.71  17.37
1429.1  269277.75  46147.45  17.14
1432.8  267796.83  45553.39  17.01
1436.5  267027.37  45280.02  16.96
1440.2  266112.17  45160.88  16.97
1443.9  264752.58  45069.44  17.02
1447.6  263093.60  45016.16  17.11
1451.2  262031.00  45098.58  17.21
1454.9  260761.80  45197.74  17.33
1458.6  259682.31  45438.13  17.50
1462.3  258513.20  45803.71  17.72
1466.0  257153.84  46296.06  18.00
1469.7  255454.77  46913.09  18.36
1473.3  254421.33  47787.58  18.78
1477.0  252539.53  48612.57  19.25
1480.7  250932.65  49555.63  19.75
1484.4  249001.49  50441.30  20.26
1488.0  247456.00  51438.10  20.79
1491.7  245811.22  52387.33  21.31
1495.4  244070.46  53314.70  21.84
1499.0  242440.00  54230.23  22.37
1502.7  241104.33  55201.65  22.90
1506.4  239669.30  56107.81  23.41
1510.0  238242.43  56979.34  23.92
1513.7  236784.33  57792.55  24.41
1517.4  235453.67  58598.08  24.89
1521.0  234215.87  59387.83  25.36
1524.7  232994.67  60122.64  25.80
1528.3  231706.50  60793.33  26.24
1532.0  230496.93  61432.82  26.65
1535.7  229091.12  61970.52  27.05
1539.3  227821.74  62505.00  27.44
1543.0  226850.95  63087.53  27.81
1546.6  226136.08  63708.97  28.17
1550.3  225151.25  64198.91  28.51
1553.9  224056.20  64620.60  28.84
1557.6  222766.13  64947.69  29.16
1561.2  221498.10  65220.68  29.45
1564.9  220195.06  65463.25  29.73
1568.5  218842.98  65656.27  30.00
1572.2  217676.65  65870.86  30.26
1575.8  216580.00  66083.56  30.51
1579.5  215589.10  66296.87  30.75
1583.1  214591.68  66490.22  30.98
1586.8  213360.00  66584.89  31.21
1590.4  212324.33  66711.80  31.42
1594.0  211015.89  66719.08  31.62
1597.7  209803.97  66756.68  31.82
1601.3  208429.20  66724.20  32.01
1604.9  207062.95  66667.90  32.20
1608.6  205708.82  66582.86  32.37
1612.2  204680.85  66567.99  32.52
1615.8  203573.83  66501.26  32.67
1619.5  202473.58  66422.70  32.81
1623.1  201175.87  66256.09  32.93
1626.7  199912.38  66075.13  33.05
1630.3  198674.33  65887.69  33.16
1634.0  197554.00  65714.00  33.26
1637.6  196525.40  65548.66  33.35
1641.2  195505.75  65346.77  33.42
1644.8  194257.64  65035.39  33.48
1648.5  193154.48  64749.42  33.52
1652.1  192168.90  64445.95  33.54
1655.7  191217.20  64114.13  33.53
1659.3  190330.48  63775.20  33.51
1662.9  188870.00  63216.16  33.47
1666.6  187382.07  62633.51  33.43
1670.2  185949.58  62048.35  33.37
1673.8  184480.13  61431.41  33.30
1677.4  183310.35  60886.90  33.22
1681.0  182496.45  60431.35  33.11
1684.6  182111.58  60077.04  32.99
1688.2  181431.30  59577.56  32.84
1691.8  180772.93  59116.88  32.70
1695.4  180340.00  58703.48  32.55
1699.0  179980.50  58309.00  32.40
1702.6  179654.00  57903.94  32.23
1706.2  179037.95  57380.62  32.05
1709.8  178109.08  56754.14  31.86
1713.4  177374.38  56192.23  31.68
1717.0  176513.25  55596.03  31.50
1720.6  175719.08  55035.70  31.32
1724.2  175025.48  54494.97  31.14
1727.8  174309.10  53979.81  30.97
1731.4  173816.50  53553.54  30.81
1735.0  173576.52  53256.64  30.68
1738.6  173302.65  52933.91  30.54
1742.2  172669.78  52466.66  30.39
1745.8  171976.08  51942.52  30.20
1749.4  170951.55  51295.32  30.01
1753.0  169406.53  50475.94  29.80
1756.6  167707.46  49618.80  29.59
1760.1  166342.38  48868.97  29.38
1763.7  164618.67  48037.38  29.18
1767.3  163176.78  47331.06  29.01
1770.9  161931.12  46709.45  28.85
1774.5  160466.12  46049.81  28.70
1778.0  159315.01  45499.77  28.56
1781.6  158181.15  45003.92  28.45
1785.2  157011.25  44526.47  28.36
1788.8  155847.10  44097.03  28.30
1792.3  154633.57  43673.48  28.24
1795.9  154157.58  43479.94  28.20
1799.5  153611.67  43293.72  28.18
1803.1  152746.07  43035.35  28.17
1806.6  152959.98  43077.96  28.16
1810.2  153976.20  43351.12  28.15
1813.8  154984.90  43608.42  28.14
1817.3  155105.00  43594.88  28.11
1820.9  154435.63  43359.33  28.08
1824.5  153278.23  42967.56  28.03
1828.0  152468.71  42642.41  27.97
1831.6  151696.78  42293.74  27.88
1835.2  150974.17  41900.50  27.75
1838.7  150579.87  41506.28  27.56
1842.3  150195.00  41045.95  27.33
1845.8  149414.88  40352.28  27.01
1849.4  148931.40  39609.86  26.60
1852.9  148282.17  38642.09  26.06
1856.5  147419.15  37399.36  25.37
1860.0  146666.38  35944.34  24.51
1863.6  146430.03  34366.63  23.47
1867.1  146255.20  32519.12  22.23
1870.7  146118.78  30267.62  20.71
1874.2  145330.65  27489.91  18.92
1877.8  144169.27  24492.08  16.99
1881.3  142835.13  21403.97  14.99
1884.9  141987.18  18500.76  13.03
1888.4  141043.50  15752.19  11.17
1891.9  140114.00  13364.65  9.54
1895.5  139048.83  11428.80  8.22
1899.0  138578.63  10008.44  7.22
1901.3  169257.00  8164.28  4.82
1904.1  169183.50  7310.00  4.32
1906.8  168438.60  6617.60  3.93
1909.6  166768.35  6088.25  3.65
1912.4  165208.63  5697.11  3.45
1915.1  164041.35  5440.23  3.32
1917.9  162720.00  5248.22  3.23
1920.6  161644.77  5107.79  3.16
1923.3  160597.27  5014.18  3.12
1926.1  159262.57  4965.76  3.12
1928.8  158018.67  4932.89  3.12
1931.6  157026.42  4946.37  3.15
1934.3  156072.65  4989.93  3.20
1937.0  155179.83  5068.68  3.27
1939.8  154208.92  5162.30  3.35
1942.5  152988.00  5265.33  3.44
1945.2  151357.80  5367.82  3.55
1947.9  150038.47  5488.23  3.66
1950.7  149000.27  5632.11  3.78
1953.4  147318.30  5774.57  3.92
1956.1  145996.00  5945.06  4.07
1958.8  144827.58  6133.47  4.24
1961.5  143382.00  6314.27  4.40
1964.2  141896.30  6494.37  4.58
1966.9  140347.40  6684.93  4.76
1969.6  139113.00  6888.00  4.95
1972.3  137727.50  7108.13  5.16
1975.0  136670.55  7345.50  5.37
1977.7  135565.07  7588.21  5.60
1980.4  134428.07  7825.71  5.82
1983.1  133330.13  8074.54  6.06
1985.8  132396.60  8340.40  6.30
1988.4  131369.33  8591.56  6.54
1991.1  130441.03  8854.92  6.79
1993.8  129560.20  9122.18  7.04
1996.5  128922.57  9403.66  7.29
1999.1  128233.23  9679.39  7.55
2001.8  127540.23  9951.36  7.80
2004.5  126860.90  10215.65  8.05
2007.1  126125.65  10478.03  8.31
2009.8  125364.63  10731.24  8.56
2012.4  124769.33  10977.63  8.80
2015.1  124216.40  11226.21  9.04
2017.8  123413.50  11450.68  9.28
2020.4  122899.52  11692.82  9.51
2023.1  122550.17  11928.39  9.73
2025.7  122312.67  12170.89  9.95
2028.3  121957.33  12393.33  10.16
2031.0  121531.93  12596.62  10.36
2033.6  121260.60  12800.60  10.56
2036.2  121017.00  12992.00  10.74
2038.9  120416.70  13142.80  10.91
2041.5  120063.37  13304.54  11.08
2044.1  119503.20  13444.40  11.25
2046.8  119129.10  13589.40  11.41
2049.4  118494.00  13702.50  11.56
2052.0  118205.67  13856.89  11.72
2054.6  117818.75  13994.17  11.88
2057.2  117253.73  14113.07  12.04
2059.8  116921.87  14261.53  12.20
2062.4  116044.98  14344.73  12.36
2065.0  115524.53  14468.22  12.52
2067.6  114624.17  14545.21  12.69
2070.2  114005.28  14658.53  12.86
2072.8  113351.53  14760.22  13.02
2075.4  112918.75  14880.83  13.18
2078.0  112286.13  14972.66  13.33
2080.6  111707.20  15074.40  13.49
2083.2  111012.30  15151.72  13.65
2085.8  110529.47  15244.94  13.79
2088.4  109860.17  15319.95  13.94
2090.9  109053.35  15373.33  14.10
2093.5  108154.37  15400.11  14.24
2096.1  107376.25  15444.03  14.38
2098.7  106603.32  15482.09  14.52
2101.2  105620.93  15490.02  14.67
2103.8  104939.73  15522.04  14.79
2106.4  104284.73  15562.80  14.92
2108.9  103621.00  15600.64  15.06
2111.5  102765.13  15618.11  15.20
2114.0  102127.60  15658.87  15.33
2116.6  101605.00  15703.33  15.46
2119.1  101044.60  15733.24  15.57
2121.7  100555.00  15776.25  15.69
2124.2  100159.17  15820.91  15.80
2126.8  99339.50  15798.29  15.90
2129.3  98938.40  15834.13  16.00
2131.9  98340.00  15828.27  16.10
2134.4  97898.70  15841.50  16.18
2136.9  97512.35  15850.83  16.26
2139.4  96983.60  15838.82  16.33
2142.0  96522.53  15824.04  16.39
2144.5  96253.50  15856.83  16.47
2147.0  96015.47  15880.49  16.54
2149.5  95497.33  15853.69  16.60
2152.1  95331.13  15876.55  16.65
2154.6  95254.40  15912.00  16.70
2157.1  94721.00  15865.56  16.75
2159.6  94294.08  15847.39  16.81
2162.1  94130.40  15849.17  16.84
2164.6  93881.53  15840.25  16.87
2167.1  93559.80  15829.01  16.92
2169.6  93235.80  15821.94  16.97
2172.1  92767.30  15779.77  17.01
2174.6  92444.27  15771.87  17.06
2177.1  91997.83  15738.34  17.11
2179.5  91582.83  15707.90  17.15
2182.0  91097.05  15664.37  17.20
2184.5  90539.78  15610.74  17.24
2187.0  89918.53  15558.71  17.30
2189.5  89247.65  15492.61  17.36
2191.9  88473.50  15402.67  17.41
2194.4  87860.00  15337.30  17.46
2196.9  87100.80  15238.40  17.50
2199.3  86429.67  15163.78  17.54
2201.8  85546.27  15038.00  17.58
2204.3  85100.68  14983.51  17.61
2206.7  84444.05  14899.77  17.64
2209.2  83949.03  14838.18  17.68
2211.6  83328.30  14741.10  17.69
2214.1  83032.75  14702.78  17.71
2216.5  82456.60  14602.00  17.71
2219.0  82108.93  14542.40  17.71
2221.4  81733.17  14458.50  17.69
2223.9  81247.25  14352.72  17.67
2226.3  80741.50  14230.42  17.62
2228.7  80183.48  14090.34  17.57
2231.1  79596.00  13926.00  17.50
2233.6  78999.80  13760.98  17.42
2236.0  78460.67  13582.53  17.31
2238.4  77974.75  13420.55  17.21
2240.9  77519.73  13244.45  17.09
2243.3  76983.33  13049.09  16.95
2245.7  76416.00  12842.13  16.81
2248.1  75926.07  12641.06  16.65
2250.5  75404.12  12439.23  16.50
2252.9  74789.87  12199.20  16.31
2255.3  74246.90  11973.17  16.13
2257.7  73770.00  11766.67  15.95
2260.1  73273.43  11561.74  15.78
2262.5  72660.00  11333.33  15.60
2264.9  72129.58  11131.42  15.43
2267.3  71530.00  10916.67  15.26
2269.7  71025.97  10722.29  15.10
2272.1  70477.27  10527.52  14.94
2274.5  69913.28  10342.73  14.79
2276.8  69435.53  10176.93  14.66
2279.2  68852.55  9989.70  14.51
2281.6  68413.07  9835.13  14.38
2284.0  67952.80  9682.53  14.25
2286.3  67488.00  9521.96  14.11
2288.7  67097.98  9382.24  13.98
2291.1  66547.37  9216.82  13.85
2293.4  66096.80  9065.47  13.72
2295.8  65477.10  8885.47  13.57
2298.2  64863.45  8718.15  13.44
2300.5  64190.70  8542.20  13.31
2302.9  63436.33  8349.33  13.16
2305.2  62716.70  8178.20  13.04
2307.6  62044.43  8005.73  12.90
2309.9  61276.67  7849.89  12.81
2312.2  60687.67  7732.78  12.74
2314.6  60061.05  7617.60  12.68
2316.9  59357.25  7493.40  12.62
2319.2  58768.63  7387.98  12.57
2321.6  58115.52  7268.33  12.51
2323.9  57562.50  7156.25  12.43
2326.2  57018.17  7039.02  12.35
2328.6  56492.70  6910.93  12.23
2330.9  55996.50  6779.50  12.11
2333.2  55520.17  6663.97  12.00
2335.5  55051.50  6562.67  11.92
2337.8  54596.02  6448.43  11.81
2340.1  54024.50  6311.85  11.68
2342.4  53570.83  6196.67  11.57
2344.8  53142.33  6073.31  11.43
2347.1  52574.20  5943.93  11.31
2349.4  52031.72  5827.82  11.20
2351.6  51447.83  5717.65  11.11
2353.9  50951.93  5623.32  11.04
2356.2  50425.20  5506.45  10.92
2358.5  49817.60  5402.13  10.84
2360.8  49246.40  5290.13  10.74
2363.1  48792.50  5204.53  10.67
2365.4  48307.50  5107.60  10.57
2367.7  47834.40  5004.60  10.46
2369.9  47299.95  4892.97  10.34
2372.2  46657.87  4789.25  10.26
2374.5  46061.40  4681.60  10.16
2376.7  45444.40  4557.61  10.03
2379.0  44799.97  4447.81  9.93
2381.3  44181.67  4336.11  9.81
2383.5  43671.47  4231.82  9.69
2385.8  43042.47  4118.34  9.57
2388.0  42515.40  4015.93  9.45
2390.3  42008.00  3912.04  9.31
2392.5  41520.00  3820.00  9.20
2394.8  41043.20  3722.77  9.07
2397.0  40561.73  3627.87  8.94
2399.3  40070.98  3533.17  8.82
2401.5  39616.50  3446.33  8.70
2403.8  39093.10  3354.24  8.58
2406.0  38578.58  3265.58  8.46
2408.2  38172.93  3174.84  8.32
2410.4  37724.63  3095.87  8.21
2412.7  37285.30  3020.19  8.10
2414.9  36912.70  2943.23  7.97
2417.1  36499.80  2865.97  7.85
2419.3  36083.20  2786.13  7.72
2421.6  35714.58  2695.28  7.55
2423.8  35321.20  2623.59  7.43
2426.0  34964.12  2557.72  7.32
2428.2  34600.53  2491.38  7.20
2430.4  34261.10  2417.29  7.06
2432.6  33986.67  2360.00  6.94
2434.8  33684.00  2299.07  6.83
2437.0  33314.67  2225.46  6.68
2439.2  32953.63  2162.66  6.56
2441.4  32624.57  2108.62  6.46
2443.6  32372.45  2058.68  6.36
2445.7  32112.15  2003.83  6.24
2447.9  31827.42  1939.06  6.09
2450.1  31500.10  1882.70  5.98
2452.3  31113.13  1821.05  5.85
2454.5  30763.65  1768.19  5.75
2456.6  30388.00  1716.76  5.65
2458.8  30015.70  1658.80  5.53
2461.0  29712.75  1614.67  5.43
2463.1  29391.00  1566.55  5.33
2465.3  29105.70  1526.75  5.25
2467.5  28851.00  1479.92  5.13
2469.6  28610.17  1441.94  5.04
2471.8  28276.38  1401.56  4.96
2473.9  27949.42  1367.56  4.89
2476.1  27603.33  1324.55  4.80
2478.2  27267.67  1289.76  4.73
2480.4  26969.95  1258.70  4.67
2482.5  26615.85  1228.34  4.62
2484.6  26242.33  1189.53  4.53
2486.8  25967.80  1151.33  4.43
2488.9  25663.70  1136.40  4.43
2491.1  25291.47  1110.67  4.39
2493.2  24908.00  1075.09  4.32
2495.3  24514.97  1031.48  4.21
2497.4  24150.00  1014.30  4.20
2499.5  23805.68  1003.37  4.21
2501.7  23680.43  991.48  4.19
2503.8  23570.50  964.00  4.09
2505.9  23489.58  945.28  4.02
2508.0  23489.85  934.22  3.98
2510.1  23462.93  953.78  4.07
2512.2  23561.40  948.08  4.02
2514.3  23710.18  942.84  3.98
2516.4  23876.40  971.87  4.07
