/*** Spectra Vista SIG Data ***/
name= 45_20221021_QUPA_23_avg.sig
comm= Averaged Ref/Tar of files: HR.102122.0052_moc.sig,HR.102122.0053_moc.sig
data=
337.3  6317.33  401.10  6.35
338.8  6445.40  371.06  5.76
340.3  6805.80  391.61  5.75
341.8  7076.55  401.78  5.68
343.2  7461.30  406.06  5.44
344.7  7900.50  429.38  5.43
346.2  8225.00  423.00  5.14
347.7  8627.35  395.75  4.59
349.2  8920.80  367.20  4.12
350.6  9277.35  365.25  3.94
352.1  9834.25  373.97  3.80
353.6  10388.80  393.15  3.78
355.1  10910.10  389.65  3.57
356.6  11518.28  409.04  3.55
358.0  11968.43  398.04  3.33
359.5  12499.88  400.69  3.21
361.0  13223.90  415.10  3.14
362.5  13842.00  428.44  3.10
364.0  14539.78  452.60  3.11
365.4  15159.05  466.31  3.08
366.9  15764.93  456.62  2.90
368.4  16462.60  473.41  2.88
369.9  17172.00  492.14  2.87
371.3  18016.08  525.25  2.92
372.8  18805.90  564.03  3.00
374.3  19619.80  578.60  2.95
375.8  20443.28  565.98  2.77
377.2  21165.30  556.59  2.63
378.7  22018.15  571.90  2.60
380.2  22777.20  579.98  2.55
381.7  23632.00  595.33  2.52
383.1  24569.85  625.17  2.54
384.6  25446.30  630.90  2.48
386.1  26415.23  640.24  2.42
387.6  27181.28  645.92  2.38
389.0  28204.65  666.55  2.36
390.5  29186.03  683.76  2.34
392.0  30222.00  694.93  2.30
393.4  31287.38  719.25  2.30
394.9  32219.70  741.69  2.30
396.4  33345.40  773.46  2.32
397.9  34368.60  787.29  2.29
399.3  35267.38  796.25  2.26
400.8  36457.58  827.48  2.27
402.2  37657.95  854.47  2.27
403.7  38827.65  878.64  2.26
405.2  39922.60  908.83  2.28
406.6  41132.40  931.89  2.27
408.1  42175.95  955.97  2.27
409.6  43331.08  983.83  2.27
411.0  44556.33  996.60  2.24
412.5  45902.60  1031.13  2.25
414.0  47233.03  1061.23  2.25
415.4  48452.40  1105.72  2.28
416.9  49683.10  1131.11  2.28
418.4  51000.30  1172.78  2.30
419.8  52353.35  1196.85  2.29
421.3  53776.80  1232.55  2.29
422.7  55195.40  1284.40  2.33
424.2  56635.20  1329.73  2.35
425.7  58031.88  1368.91  2.36
427.1  59496.60  1399.05  2.35
428.6  60950.75  1445.49  2.37
430.0  62439.85  1475.45  2.36
431.5  64097.80  1512.37  2.36
432.9  65716.50  1556.57  2.37
434.4  67344.03  1608.05  2.39
435.9  68969.50  1660.85  2.41
437.3  70609.50  1696.40  2.40
438.8  72203.70  1737.91  2.41
440.2  73870.48  1776.83  2.41
441.7  75701.00  1825.87  2.41
443.1  77488.65  1876.12  2.42
444.6  79191.28  1931.94  2.44
446.0  80967.18  1988.09  2.46
447.5  82925.00  2039.29  2.46
448.9  84620.38  2086.58  2.47
450.4  86475.00  2135.72  2.47
451.8  88264.13  2200.24  2.49
453.3  90029.55  2253.09  2.50
454.7  91784.25  2310.05  2.52
456.2  93538.55  2350.60  2.51
457.6  95443.65  2400.11  2.51
459.1  97266.23  2454.90  2.52
460.5  99064.70  2512.41  2.54
462.0  101059.20  2572.72  2.55
463.4  102978.23  2627.40  2.55
464.8  104904.45  2677.50  2.55
466.3  106810.88  2730.71  2.56
467.7  108800.00  2782.17  2.56
469.2  110663.40  2839.12  2.57
470.6  112650.13  2894.63  2.57
472.0  114678.50  2954.31  2.58
473.5  116627.90  3008.04  2.58
474.9  118768.05  3073.80  2.59
476.4  120818.80  3125.52  2.59
477.8  122836.00  3200.00  2.61
479.2  124879.40  3254.91  2.61
480.7  126950.55  3313.04  2.61
482.1  129153.13  3370.95  2.61
483.6  131325.30  3443.66  2.62
485.0  133496.70  3524.85  2.64
486.4  135574.18  3593.60  2.65
487.9  137775.25  3660.40  2.66
489.3  139879.43  3739.92  2.67
490.7  142022.40  3832.62  2.70
492.2  144230.13  3927.91  2.72
493.6  146452.50  4030.73  2.75
495.0  148698.23  4148.35  2.79
496.5  150878.70  4264.65  2.83
497.9  153139.88  4406.23  2.88
499.3  155353.13  4556.22  2.93
500.7  157631.00  4730.15  3.00
502.2  159951.08  4923.25  3.08
503.6  162234.60  5144.49  3.17
505.0  164483.28  5393.89  3.28
506.5  166903.30  5693.69  3.41
507.9  169325.88  6034.04  3.56
509.3  171564.30  6413.05  3.74
510.7  174145.73  6858.71  3.94
512.2  176746.05  7377.41  4.17
513.6  179547.10  7972.92  4.44
515.0  182241.68  8642.85  4.74
516.4  185087.00  9394.29  5.08
517.8  187861.50  10210.97  5.44
519.3  190726.40  11113.15  5.83
520.7  193331.40  12051.76  6.23
522.1  195973.38  13052.05  6.66
523.5  198505.00  14083.13  7.09
524.9  201372.08  15151.08  7.52
526.3  203964.75  16185.93  7.94
527.8  206701.13  17232.25  8.34
529.2  209289.60  18267.43  8.73
530.6  211984.20  19306.80  9.11
532.0  214801.93  20319.89  9.46
533.4  217358.80  21259.95  9.78
534.8  219893.85  22151.61  10.07
536.3  222754.73  23044.95  10.35
537.7  225622.00  23903.57  10.59
539.1  228448.03  24741.79  10.83
540.5  231244.50  25538.47  11.04
541.9  234210.08  26345.12  11.25
543.3  236826.00  27110.43  11.45
544.7  239800.00  27921.14  11.64
546.1  242606.00  28706.00  11.83
547.5  245440.80  29480.92  12.01
549.0  248379.20  30246.35  12.18
550.4  251248.73  30961.13  12.32
551.8  254228.23  31620.32  12.44
553.2  257049.68  32184.89  12.52
554.6  259848.00  32650.00  12.57
556.0  262721.55  33014.40  12.57
557.4  265804.30  33304.07  12.53
558.8  268668.70  33479.70  12.46
560.2  271840.00  33617.14  12.37
561.6  274766.53  33639.97  12.24
563.0  277546.10  33572.78  12.10
564.4  280688.10  33492.10  11.93
565.8  283702.85  33327.66  11.75
567.2  286865.63  33109.54  11.54
568.6  289874.03  32813.39  11.32
570.0  292708.00  32396.70  11.07
571.4  296084.18  31979.37  10.80
572.8  299214.80  31500.80  10.53
574.2  302060.33  31005.23  10.26
575.6  305107.13  30568.49  10.02
577.0  308082.23  30166.72  9.79
578.4  311478.13  29856.25  9.59
579.8  314502.53  29558.43  9.40
581.2  317529.75  29284.18  9.22
582.5  320422.50  29044.29  9.06
583.9  323429.60  28854.95  8.92
585.3  326325.00  28690.43  8.79
586.7  329290.50  28571.40  8.68
588.1  332258.00  28485.92  8.57
589.5  335563.95  28461.86  8.48
590.9  338481.78  28447.05  8.40
592.3  341407.58  28477.29  8.34
593.7  344344.70  28543.65  8.29
595.0  347253.60  28634.40  8.25
596.4  350538.50  28762.61  8.21
597.8  353182.10  28839.90  8.17
599.2  356243.55  28913.49  8.12
600.6  359405.48  28961.86  8.06
602.0  362335.20  28936.55  7.99
603.3  365222.00  28841.43  7.90
604.7  368199.00  28682.66  7.79
606.1  371205.98  28460.63  7.67
607.5  374497.43  28183.42  7.53
608.9  377542.55  27835.50  7.37
610.2  380659.95  27454.47  7.21
611.6  383597.50  27040.36  7.05
613.0  386375.60  26616.00  6.89
614.4  389134.88  26201.63  6.73
615.8  392388.40  25835.95  6.58
617.1  395065.33  25487.18  6.45
618.5  398262.68  25225.16  6.33
619.9  400985.40  24986.90  6.23
621.3  403908.70  24825.91  6.15
622.6  406809.00  24724.61  6.08
624.0  409506.38  24677.63  6.03
625.4  412568.85  24704.47  5.99
626.8  415510.55  24784.78  5.96
628.1  418282.20  24888.85  5.95
629.5  420992.43  25009.68  5.94
630.9  423737.00  25145.89  5.93
632.2  426667.35  25268.90  5.92
633.6  429055.58  25303.39  5.90
635.0  431906.55  25296.54  5.86
636.3  434924.25  25179.83  5.79
637.7  437623.90  24931.86  5.70
639.1  440578.60  24577.77  5.58
640.4  443254.38  24114.16  5.44
641.8  446036.40  23593.12  5.29
643.2  448597.20  23010.30  5.13
644.5  451430.00  22420.00  4.97
645.9  454035.40  21816.00  4.80
647.2  456346.28  21250.08  4.66
648.6  458926.40  20780.18  4.53
650.0  461692.80  20374.72  4.41
651.3  464590.75  20058.24  4.32
652.7  468430.50  19786.07  4.22
654.0  471255.95  19488.19  4.14
655.4  473529.53  19141.88  4.04
656.8  475403.25  18731.03  3.94
658.1  478104.90  18295.28  3.83
659.5  481118.40  17847.78  3.71
660.8  483752.85  17392.20  3.60
662.2  486340.25  16894.05  3.47
663.5  489117.83  16442.72  3.36
664.9  491054.65  16035.13  3.27
666.2  493316.53  15685.85  3.18
667.6  495942.75  15444.97  3.11
668.9  498528.00  15274.29  3.06
670.3  501466.00  15159.38  3.02
671.6  503627.20  15106.52  3.00
673.0  505959.20  15112.57  2.99
674.3  508327.05  15173.40  2.98
675.7  510899.40  15294.47  2.99
677.0  513244.88  15454.35  3.01
678.4  515430.80  15656.20  3.04
679.7  517762.95  15942.95  3.08
681.1  520216.58  16313.27  3.14
682.4  522314.25  16792.61  3.22
683.8  524644.88  17440.34  3.32
685.1  526889.40  18314.15  3.48
686.4  529207.25  19511.52  3.69
687.8  531559.80  21179.00  3.98
689.1  534006.20  23478.90  4.40
690.5  536010.65  26542.51  4.95
691.8  538608.13  30654.25  5.69
693.1  541053.00  35862.65  6.63
694.5  543453.20  42195.47  7.76
695.8  545813.00  49518.35  9.07
697.1  548129.10  57690.25  10.52
698.5  550460.25  66565.52  12.09
699.8  552804.40  75938.74  13.74
701.1  554753.33  85543.95  15.42
702.5  556804.88  95251.50  17.11
703.8  559239.10  104982.67  18.77
705.1  561079.45  114402.98  20.39
706.5  563377.93  123674.48  21.95
707.8  565219.43  132572.32  23.46
709.1  567456.73  141281.81  24.90
710.5  569651.00  149683.98  26.28
711.8  571642.00  157754.72  27.60
713.1  573577.00  165556.14  28.86
714.4  575674.50  173151.04  30.08
715.8  577937.28  180564.25  31.24
717.1  580151.75  187739.49  32.36
718.4  582394.95  194657.13  33.42
719.7  584587.35  201299.69  34.43
721.0  586325.28  207527.20  35.39
722.4  588140.10  213535.80  36.31
723.7  590133.30  219325.17  37.17
725.0  591859.53  224737.38  37.97
726.3  594092.20  230092.57  38.73
727.6  595826.25  234992.79  39.44
729.0  597630.25  239642.65  40.10
730.3  599538.50  244078.67  40.71
731.6  601031.40  248072.50  41.27
732.9  602950.73  252005.51  41.80
734.2  604576.50  255571.45  42.27
735.5  606323.30  258985.50  42.71
736.8  608358.45  262276.75  43.11
738.1  610163.78  265285.72  43.48
739.5  611993.25  268097.92  43.81
740.8  613907.80  270810.49  44.11
742.1  615435.63  273214.19  44.39
743.4  617125.25  275560.55  44.65
744.7  618919.00  277823.00  44.89
746.0  620409.85  279799.59  45.10
747.3  621945.80  281692.50  45.29
748.6  623464.80  283469.29  45.47
749.9  625177.48  285220.62  45.62
751.2  626431.78  286654.27  45.76
752.5  627910.05  288117.98  45.89
753.8  629217.90  289394.62  45.99
755.1  630765.38  290748.46  46.09
756.4  631917.25  291822.85  46.18
757.7  633902.50  293228.97  46.26
759.0  637486.98  295301.68  46.32
760.3  640147.90  296913.27  46.38
761.6  642935.35  298539.08  46.43
762.9  644347.00  299504.47  46.48
764.2  645103.80  300113.05  46.52
765.5  645944.10  300755.37  46.56
766.8  646463.45  301216.24  46.59
768.1  647526.60  301891.95  46.62
769.3  648816.20  302641.39  46.65
770.6  650116.40  303440.22  46.67
771.9  651261.88  304116.28  46.70
773.2  652617.23  304900.33  46.72
774.5  653551.95  305407.08  46.73
775.8  654586.43  306008.90  46.75
777.1  655844.53  306647.87  46.76
778.4  657097.88  307338.82  46.77
779.6  658300.20  308011.03  46.79
780.9  658953.23  308390.14  46.80
782.2  659884.95  308909.14  46.81
783.5  660775.25  309385.50  46.82
784.8  661589.25  309810.00  46.83
786.0  662365.35  310251.10  46.84
787.3  663191.28  310683.41  46.85
788.6  664044.25  311153.23  46.86
789.9  664758.50  311524.70  46.86
791.2  666019.35  312171.77  46.87
792.4  667123.88  312711.15  46.87
793.7  668617.10  313471.60  46.88
795.0  669670.55  314006.12  46.89
796.2  670962.80  314674.50  46.90
797.5  672189.38  315282.50  46.90
798.8  673554.00  315921.00  46.90
800.0  674590.00  316430.00  46.91
801.3  675793.13  317013.75  46.91
802.6  676800.00  317571.43  46.92
803.8  677937.75  318139.73  46.93
805.1  678911.25  318643.99  46.93
806.4  679859.95  319096.56  46.94
807.7  680930.75  319639.07  46.94
808.9  682067.33  320213.40  46.95
810.2  682905.30  320656.80  46.95
811.4  683984.00  321188.80  46.96
812.7  685352.55  321863.95  46.96
814.0  686578.20  322464.45  46.97
815.2  687989.25  323136.35  46.97
816.5  689106.25  323700.63  46.97
817.7  689923.25  324145.86  46.98
819.0  690629.80  324520.00  46.99
820.2  691361.40  324958.16  47.00
821.5  692478.60  325499.69  47.01
822.7  693448.88  326014.50  47.01
824.0  694430.10  326486.18  47.01
825.2  695073.60  326810.81  47.02
826.5  695827.90  327216.98  47.03
827.7  696932.83  327758.69  47.03
829.0  697854.38  328214.24  47.03
830.2  698845.00  328711.09  47.04
831.5  699722.10  329160.64  47.04
832.7  700643.70  329621.08  47.05
834.0  701244.00  329960.35  47.05
835.2  702172.55  330457.64  47.06
836.4  702946.40  330869.03  47.07
837.7  703771.88  331281.97  47.07
838.9  705029.85  331894.71  47.08
840.1  705861.75  332344.89  47.08
841.4  706816.20  332873.25  47.09
842.6  707762.30  333335.00  47.10
843.8  708662.50  333761.44  47.10
845.1  709460.40  334228.95  47.11
846.3  710357.55  334694.70  47.12
847.5  711399.00  335171.11  47.11
848.8  712283.80  335637.50  47.12
850.0  713459.40  336258.49  47.13
851.2  714369.65  336725.92  47.14
852.5  715573.00  337305.25  47.14
853.7  716307.30  337672.99  47.14
854.9  717529.80  338234.19  47.14
856.1  718528.15  338721.47  47.14
857.4  719446.35  339232.74  47.15
858.6  720283.20  339732.80  47.17
859.8  721511.50  340307.86  47.17
861.0  722540.00  340764.95  47.16
862.2  723620.10  341257.80  47.16
863.5  724778.60  341685.41  47.14
864.7  725650.00  342207.14  47.16
865.9  726584.25  342731.95  47.17
867.1  727325.00  343079.02  47.17
868.3  728424.08  343669.03  47.18
869.5  729656.70  344178.10  47.17
870.8  730953.00  344700.45  47.16
872.0  732041.40  345175.30  47.15
873.2  732795.25  345593.41  47.16
874.4  733593.30  346020.23  47.17
875.6  734796.90  346557.96  47.16
876.8  736069.95  347217.05  47.17
878.0  737165.45  347713.00  47.17
879.2  738389.05  348207.85  47.16
880.4  739530.00  348718.57  47.15
881.6  740606.90  349160.05  47.15
882.8  741758.10  349744.27  47.15
884.0  742716.00  350162.10  47.15
885.2  743873.25  350765.25  47.15
886.5  745323.08  351409.48  47.15
887.7  746296.18  351766.55  47.13
888.8  747755.45  352427.74  47.13
890.0  748781.25  352878.75  47.13
891.2  749741.85  353375.24  47.13
892.4  751165.80  353964.48  47.12
893.6  752904.08  354773.42  47.12
894.8  754563.00  355472.52  47.11
896.0  755940.33  356239.31  47.13
897.2  757795.50  357017.34  47.11
898.4  759597.30  357871.80  47.11
899.6  760771.30  358409.92  47.11
900.8  761488.65  358654.59  47.10
902.0  761866.80  358897.94  47.11
903.2  762184.70  358972.97  47.10
904.3  763425.00  359492.95  47.09
905.5  764700.75  359995.82  47.08
906.7  765997.85  360570.33  47.07
907.9  766843.03  360911.67  47.06
909.1  767487.88  361366.50  47.08
910.2  768048.75  361597.50  47.08
911.4  768230.10  361632.60  47.07
912.6  768967.50  361844.65  47.06
913.8  769890.45  362220.75  47.05
915.0  770396.60  362342.57  47.03
916.2  770561.85  362368.62  47.03
917.3  771051.70  362645.11  47.03
918.5  771531.60  362815.93  47.03
919.7  771696.75  362857.75  47.02
920.8  771810.60  362858.81  47.01
922.0  771868.08  362838.38  47.01
923.2  772226.03  362946.63  47.00
924.4  772890.25  363208.63  46.99
925.5  773614.20  363497.26  46.99
926.7  774600.68  363733.31  46.96
927.9  776166.38  364275.80  46.93
929.0  779306.40  365646.73  46.92
930.2  783522.00  367616.35  46.92
931.4  788510.90  369817.04  46.90
932.5  792702.35  371874.02  46.91
933.7  795675.45  372947.27  46.87
934.9  797396.25  373607.50  46.85
936.0  796395.15  372967.30  46.83
937.2  793219.68  371394.06  46.82
938.3  789340.50  369324.89  46.79
939.5  786836.70  367995.09  46.77
940.7  787009.30  367809.20  46.74
941.8  789805.90  368981.33  46.72
943.0  792009.15  369744.46  46.68
944.2  793854.00  370496.57  46.67
945.3  792939.00  370020.52  46.66
946.5  791253.75  368832.50  46.61
947.6  792292.50  368861.64  46.56
948.8  791378.55  368120.53  46.52
949.9  791653.98  368020.38  46.49
951.1  791452.88  367733.58  46.46
952.2  790865.75  367099.87  46.42
953.4  790611.90  366504.50  46.36
954.5  788618.25  365389.50  46.33
955.7  788774.75  364758.43  46.24
956.8  788960.65  364645.68  46.22
958.0  788183.55  363796.59  46.16
959.1  787449.60  363074.40  46.11
960.3  787175.00  362666.08  46.07
961.4  787796.40  362726.40  46.04
962.6  787276.80  362282.40  46.02
963.7  787260.60  362107.40  46.00
964.9  787452.70  362060.52  45.98
966.0  787917.90  361926.15  45.93
967.2  787831.80  361950.00  45.94
968.3  789415.95  362492.52  45.92
969.5  789735.85  362576.00  45.91
970.6  789637.15  362749.76  45.94
971.8  789349.23  362561.53  45.93
972.9  789974.50  362633.50  45.90
974.0  791183.90  362799.21  45.86
975.2  790121.25  362443.66  45.87
976.3  790852.35  362760.08  45.87
977.5  790040.48  362499.49  45.88
978.6  790017.30  362613.76  45.90
979.7  789096.00  362084.80  45.89
980.9  789257.18  362348.53  45.91
982.0  788567.60  362495.72  45.97
983.2  788471.60  362732.60  46.00
984.3  786614.85  361934.50  46.01
985.4  786035.60  361415.00  45.98
986.6  786894.73  361546.23  45.95
987.7  785502.63  361054.93  45.96
988.9  787489.73  361358.92  45.89
990.0  785694.15  361668.74  46.03
993.1  870034.20  396265.76  45.55
996.9  869214.10  397146.47  45.69
1000.7  868367.43  397841.23  45.81
1004.5  867147.73  398254.96  45.93
1008.4  867824.13  399613.18  46.05
1012.2  868740.75  400992.40  46.16
1016.0  868108.50  401742.73  46.28
1019.8  866515.93  401931.31  46.38
1023.7  864761.41  401938.58  46.48
1027.5  862200.40  401485.67  46.57
1031.3  860440.55  401165.23  46.62
1035.1  859277.25  401034.04  46.67
1038.9  858841.48  401137.82  46.71
1042.7  858563.13  401361.92  46.75
1046.5  857846.50  401310.19  46.78
1050.3  856289.49  400806.54  46.81
1054.2  854311.43  400096.01  46.83
1058.0  853358.40  399788.23  46.85
1061.8  852214.08  399429.31  46.87
1065.6  850312.29  398519.74  46.87
1069.4  848161.53  397600.58  46.88
1073.2  846070.88  396651.94  46.88
1077.0  844615.20  395952.23  46.88
1080.8  844050.17  395545.86  46.86
1084.6  843778.83  395226.07  46.84
1088.4  843203.70  394833.48  46.83
1092.2  842007.13  394046.30  46.80
1096.0  840606.57  393138.29  46.77
1099.8  839086.50  392084.52  46.73
1103.6  837283.35  390912.60  46.69
1107.4  835866.29  389845.44  46.64
1111.2  834475.30  388819.28  46.59
1114.9  833632.50  387950.79  46.54
1118.7  833359.92  387194.16  46.46
1122.5  833559.78  386397.86  46.36
1126.3  831256.65  384288.30  46.23
1130.1  830739.13  382590.49  46.05
1133.9  827194.54  379002.33  45.82
1137.7  824574.80  375324.30  45.52
1141.4  820723.48  370722.24  45.17
1145.2  819750.58  367082.85  44.78
1149.0  817709.25  363191.43  44.42
1152.8  814172.35  358971.42  44.09
1156.6  810533.37  355283.43  43.83
1160.3  807308.25  352335.73  43.64
1164.1  802644.47  349245.93  43.51
1167.9  799607.67  347179.70  43.42
1171.7  797072.00  345585.35  43.36
1175.4  794630.31  344191.88  43.31
1179.2  792573.00  342914.79  43.27
1183.0  792824.50  342575.74  43.21
1186.7  792978.67  342240.00  43.16
1190.5  791727.08  341342.94  43.11
1194.3  788997.77  339881.78  43.08
1198.0  785884.88  338432.32  43.06
1201.8  783346.67  337359.00  43.07
1205.6  781751.79  336903.74  43.10
1209.3  780784.50  336786.27  43.13
1213.1  779710.63  336631.08  43.17
1216.8  777929.07  336372.74  43.24
1220.6  775700.50  335985.68  43.31
1224.3  773391.67  335529.47  43.38
1228.1  771234.61  335232.50  43.47
1231.9  768788.15  334669.31  43.53
1235.6  766269.90  334035.73  43.59
1239.4  763853.63  333480.81  43.66
1243.1  761611.50  332876.83  43.71
1246.9  759579.70  332284.70  43.75
1250.6  757499.77  331575.11  43.77
1254.3  755493.60  330873.43  43.80
1258.1  753309.33  330062.29  43.81
1261.8  750739.27  329020.05  43.83
1265.6  748375.33  327987.98  43.83
1269.3  746233.53  326933.85  43.81
1273.1  746871.48  326998.28  43.78
1276.8  746907.33  326727.93  43.74
1280.6  746084.93  326108.63  43.71
1284.3  743275.00  324517.14  43.66
1288.0  741383.61  323204.54  43.59
1291.8  739897.20  321837.30  43.50
1295.5  738321.72  320310.88  43.38
1299.2  736072.35  318341.54  43.25
1302.9  733219.30  315913.46  43.09
1306.7  730114.88  313201.36  42.90
1310.4  727032.43  310242.42  42.67
1314.1  724505.63  307341.97  42.42
1317.9  721957.60  304155.81  42.13
1321.6  719106.27  300596.73  41.80
1325.3  716251.28  296745.96  41.43
1329.0  713564.13  292823.30  41.04
1332.8  709847.50  288210.81  40.60
1336.5  706401.46  283672.73  40.16
1340.2  704836.15  279895.79  39.71
1343.9  704747.08  276695.23  39.26
1347.6  705693.85  273935.85  38.82
1351.4  707781.25  271766.25  38.40
1355.1  712082.43  270504.58  37.99
1358.8  713593.25  268046.75  37.56
1362.5  714683.78  265124.98  37.10
1366.2  711189.33  259978.73  36.56
1369.9  704739.00  253032.43  35.90
1373.6  699712.11  245556.54  35.09
1377.3  698013.30  237729.52  34.06
1381.0  696356.10  227977.78  32.74
1384.8  692015.35  215254.29  31.11
1388.4  686113.60  200710.12  29.25
1392.2  681417.38  185580.26  27.23
1395.9  679495.47  171028.96  25.17
1399.6  674958.38  156531.70  23.19
1403.3  671869.20  143780.66  21.40
1407.0  668472.75  132679.45  19.85
1410.7  665916.79  123649.01  18.57
1414.3  662730.50  116273.36  17.54
1418.1  659750.00  110578.13  16.76
1421.7  657092.10  106194.80  16.16
1425.4  655161.89  103000.50  15.72
1429.1  651173.25  100374.75  15.41
1432.8  649502.85  98802.48  15.21
1436.5  646101.63  97444.64  15.08
1440.2  642574.50  96495.29  15.02
1443.9  640351.32  96026.52  15.00
1447.6  636456.00  95574.86  15.02
1451.2  633144.30  95348.65  15.06
1454.9  631221.15  95492.55  15.13
1458.6  627453.63  95630.03  15.24
1462.3  626622.27  96545.32  15.41
1466.0  626681.83  97996.73  15.64
1469.7  624844.73  99568.70  15.93
1473.3  622545.00  101401.30  16.29
1477.0  618159.26  103158.69  16.69
1480.7  614793.46  105250.51  17.12
1484.4  610918.43  107306.06  17.56
1488.0  607647.65  109576.19  18.03
1491.7  604136.08  111772.54  18.50
1495.4  600693.38  114008.50  18.98
1499.0  597761.45  116257.26  19.45
1502.7  594914.58  118547.93  19.93
1506.4  592137.08  120741.75  20.39
1510.0  589352.29  122879.60  20.85
1513.7  586593.33  124931.75  21.30
1517.4  583992.50  126960.80  21.74
1521.0  581604.65  128955.42  22.17
1524.7  579107.99  130755.37  22.58
1528.3  576629.58  132515.30  22.98
1532.0  574049.20  134137.65  23.37
1535.7  571287.38  135586.53  23.73
1539.3  568696.10  136997.85  24.09
1543.0  566995.33  138553.19  24.44
1546.6  565615.08  140095.64  24.77
1550.3  564023.79  141505.65  25.09
1553.9  561597.40  142629.57  25.40
1557.6  559377.10  143725.40  25.69
1561.2  556863.26  144621.98  25.97
1564.9  554069.10  145424.44  26.25
1568.5  551269.33  146157.15  26.51
1572.2  548943.73  146925.63  26.77
1575.8  547060.40  147803.35  27.02
1579.5  545155.82  148614.61  27.26
1583.1  542749.78  149260.80  27.50
1586.8  540486.37  149881.00  27.73
1590.4  538190.68  150433.87  27.95
1594.0  535783.85  150934.10  28.17
1597.7  533797.45  151527.95  28.39
1601.3  531652.28  152064.19  28.60
1604.9  529160.87  152398.09  28.80
1608.6  526236.53  152543.44  28.99
1612.2  523400.46  152610.13  29.16
1615.8  520875.60  152730.77  29.32
1619.5  518538.18  152872.47  29.48
1623.1  515664.60  152811.10  29.63
1626.7  512825.15  152670.93  29.77
1630.3  510220.20  152541.13  29.90
1634.0  507751.18  152383.41  30.01
1637.6  505572.50  152196.97  30.10
1641.2  503259.98  151865.23  30.18
1644.8  500695.88  151319.88  30.22
1648.5  498001.93  150655.60  30.25
1652.1  495769.42  149981.12  30.25
1655.7  493938.57  149320.62  30.23
1659.3  492116.63  148651.88  30.21
1662.9  488841.90  147535.61  30.18
1666.6  485184.70  146341.27  30.16
1670.2  481798.35  145191.05  30.14
1673.8  478507.70  144023.01  30.10
1677.4  475901.40  142996.15  30.05
1681.0  474218.08  142090.23  29.96
1684.6  473315.33  141282.34  29.85
1688.2  471780.40  140142.60  29.71
1691.8  470072.67  139025.92  29.58
1695.4  469226.21  138080.83  29.43
1699.0  468350.35  137099.80  29.27
1702.6  467760.67  136141.55  29.10
1706.2  466171.87  134857.66  28.93
1709.8  463993.93  133423.59  28.76
1713.4  462352.80  132141.19  28.58
1717.0  460639.92  130889.91  28.41
1720.6  458829.30  129644.58  28.26
1724.2  457324.13  128519.43  28.10
1727.8  455890.39  127482.02  27.96
1731.4  455085.61  126672.10  27.83
1735.0  455073.93  126145.67  27.72
1738.6  454576.13  125387.76  27.58
1742.2  453736.90  124396.87  27.42
1745.8  452068.27  123076.58  27.23
1749.4  449686.69  121523.88  27.02
1753.0  445935.20  119555.15  26.81
1756.6  442065.75  117627.75  26.61
1760.1  438784.40  115901.83  26.41
1763.7  434890.58  114109.49  26.24
1767.3  431760.28  112626.84  26.09
1770.9  429066.63  111321.09  25.94
1774.5  425911.44  109985.07  25.82
1778.0  423746.68  108983.96  25.72
1781.6  421462.02  108070.18  25.64
1785.2  418813.17  107118.27  25.58
1788.8  415982.08  106277.86  25.55
1792.3  413724.58  105608.51  25.53
1795.9  413324.95  105515.38  25.53
1799.5  414086.13  105753.52  25.54
1803.1  416945.92  106547.09  25.55
1806.6  420101.68  107338.56  25.55
1810.2  422810.33  107991.00  25.54
1813.8  423164.73  108059.59  25.54
1817.3  422836.98  107993.09  25.54
1820.9  422193.75  107854.02  25.55
1824.5  421384.69  107621.39  25.54
1828.0  422213.86  107711.59  25.51
1831.6  424070.93  107981.51  25.46
1835.2  424518.88  107722.66  25.38
1838.7  425265.75  107283.75  25.23
1842.3  423591.00  106044.38  25.03
1845.8  421214.38  104265.82  24.75
1849.4  420548.57  102531.20  24.38
1852.9  418328.13  99891.75  23.88
1856.5  416325.87  96734.39  23.24
1860.0  415575.17  93189.39  22.42
1863.6  415568.03  89060.00  21.43
1867.1  417228.38  84493.99  20.25
1870.7  419467.94  78988.50  18.83
1874.2  417243.33  71738.24  17.19
1877.8  410901.18  63457.21  15.44
1881.3  404954.25  55156.05  13.62
1884.9  401366.15  47525.37  11.84
1888.4  398437.49  40505.28  10.17
1891.9  396262.27  34565.71  8.72
1895.5  394706.08  29852.53  7.56
1899.0  394313.38  26379.52  6.69
1901.3  417425.60  18977.74  4.55
1904.1  417961.08  16995.96  4.07
1906.8  416064.52  15371.68  3.69
1909.6  411885.27  14159.80  3.44
1912.4  407553.18  13213.66  3.24
1915.1  403285.07  12521.05  3.10
1917.9  399180.65  12017.28  3.01
1920.6  395842.33  11644.80  2.94
1923.3  392771.87  11343.87  2.89
1926.1  388721.55  11131.43  2.86
1928.8  384170.80  11001.90  2.86
1931.6  382375.05  10997.73  2.88
1934.3  378089.93  10971.09  2.90
1937.0  373706.40  11026.20  2.95
1939.8  369991.10  11100.27  3.00
1942.5  365015.48  11162.60  3.06
1945.2  360961.00  11319.17  3.14
1947.9  357834.75  11533.71  3.22
1950.7  353370.55  11702.58  3.31
1953.4  349646.97  11931.05  3.41
1956.1  346830.07  12211.10  3.52
1958.8  344556.33  12529.13  3.64
1961.5  341535.95  12852.70  3.76
1964.2  338027.67  13187.20  3.90
1966.9  334960.00  13545.87  4.04
1969.6  332153.93  13921.87  4.19
1972.3  329561.32  14340.50  4.35
1975.0  327008.67  14776.67  4.52
1977.7  324712.50  15225.41  4.69
1980.4  322434.93  15687.47  4.87
1983.1  320047.30  16162.77  5.05
1985.8  317893.20  16636.20  5.23
1988.4  315832.00  17155.05  5.43
1991.1  314000.40  17701.60  5.64
1993.8  312477.90  18219.25  5.83
1996.5  310914.80  18747.05  6.03
1999.1  309524.42  19290.68  6.23
2001.8  308257.15  19853.37  6.44
2004.5  306995.40  20388.65  6.64
2007.1  305465.00  20906.70  6.84
2009.8  303493.75  21366.04  7.04
2012.4  302182.92  21891.70  7.24
2015.1  301023.87  22374.50  7.43
2017.8  299814.55  22859.40  7.62
2020.4  298692.70  23313.00  7.81
2023.1  298230.27  23819.85  7.99
2025.7  297993.30  24296.75  8.15
2028.3  297148.02  24709.08  8.32
2031.0  296536.95  25130.25  8.47
2033.6  296247.75  25543.25  8.62
2036.2  295862.70  25906.42  8.76
2038.9  294881.60  26208.00  8.89
2041.5  293916.67  26510.42  9.02
2044.1  293104.17  26802.09  9.14
2046.8  291932.93  27040.85  9.26
2049.4  291090.00  27272.74  9.37
2052.0  290891.95  27572.10  9.48
2054.6  290467.20  27829.07  9.58
2057.2  289374.35  28070.18  9.70
2059.8  287847.00  28266.00  9.82
2062.4  286457.17  28456.57  9.93
2065.0  285059.10  28628.00  10.04
2067.6  283150.73  28742.05  10.15
2070.2  281657.37  28899.80  10.26
2072.8  280724.58  29126.63  10.38
2075.4  279696.33  29326.42  10.49
2078.0  279035.17  29566.22  10.60
2080.6  277745.30  29731.72  10.70
2083.2  276434.53  29907.29  10.82
2085.8  275116.10  30039.45  10.92
2088.4  274036.27  30220.16  11.03
2090.9  272340.50  30315.00  11.13
2093.5  270410.40  30377.30  11.23
2096.1  268596.90  30437.55  11.33
2098.7  267059.32  30549.30  11.44
2101.2  265124.60  30602.00  11.54
2103.8  263596.33  30690.08  11.64
2106.4  262129.67  30788.99  11.75
2108.9  261086.95  30936.00  11.85
2111.5  260143.92  31123.17  11.96
2114.0  259501.67  31286.67  12.06
2116.6  257285.23  31260.17  12.15
2119.1  256146.80  31378.20  12.25
2121.7  255605.17  31565.18  12.35
2124.2  255471.83  31767.50  12.43
2126.8  254290.75  31827.50  12.52
2129.3  253138.08  31908.81  12.61
2131.9  253360.27  32137.60  12.68
2134.4  252492.45  32221.70  12.76
2136.9  252217.97  32360.09  12.83
2139.4  251133.92  32448.13  12.92
2142.0  250689.17  32589.59  13.00
2144.5  250110.42  32689.38  13.07
2147.0  249652.77  32834.13  13.15
2149.5  249272.23  32977.52  13.23
2152.1  249601.73  33198.32  13.30
2154.6  249632.00  33361.60  13.36
2157.1  249532.63  33507.80  13.43
2159.6  248457.77  33507.80  13.49
2162.1  248299.60  33650.27  13.55
2164.6  247606.98  33687.63  13.61
2167.1  246637.47  33689.32  13.66
2169.6  246764.48  33867.30  13.72
2172.1  245978.80  33902.15  13.78
2174.6  245596.63  33995.15  13.84
2177.1  244494.00  33993.63  13.90
2179.5  244029.67  34096.30  13.97
2182.0  243678.33  34195.54  14.03
2184.5  242725.85  34198.15  14.09
2187.0  241920.80  34215.15  14.14
2189.5  240889.30  34214.68  14.20
2191.9  239613.00  34196.34  14.27
2194.4  237905.50  34100.13  14.33
2196.9  236791.13  34083.96  14.39
2199.3  235360.60  34013.95  14.45
2201.8  234176.02  33951.75  14.50
2204.3  233412.50  33979.60  14.56
2206.7  232178.10  33882.45  14.59
2209.2  230931.90  33784.88  14.63
2211.6  228951.53  33553.70  14.66
2214.1  228267.20  33542.78  14.69
2216.5  227968.48  33534.24  14.71
2219.0  226579.83  33337.89  14.71
2221.4  226614.00  33347.70  14.72
2223.9  225411.33  33126.60  14.70
2226.3  224126.35  32864.88  14.66
2228.7  223208.27  32589.27  14.60
2231.1  222565.43  32331.87  14.53
2233.6  221516.80  32014.40  14.45
2236.0  220427.78  31625.77  14.35
2238.4  219548.98  31239.42  14.23
2240.9  218843.80  30852.40  14.10
2243.3  217970.32  30410.31  13.95
2245.7  217142.73  29968.35  13.80
2248.1  216125.87  29480.54  13.64
2250.5  215353.60  29023.13  13.48
2252.9  214672.13  28553.97  13.30
2255.3  213950.40  28075.39  13.12
2257.7  213048.73  27598.09  12.95
2260.1  212119.60  27136.20  12.79
2262.5  211068.80  26667.60  12.63
2264.9  210150.77  26258.19  12.49
2267.3  209151.80  25854.40  12.36
2269.7  208241.90  25444.12  12.22
2272.1  207427.00  25085.00  12.09
2274.5  206685.33  24767.60  11.98
2276.8  205995.47  24445.07  11.87
2279.2  205187.90  24157.85  11.77
2281.6  204589.15  23898.68  11.68
2284.0  204217.20  23656.05  11.58
2286.3  203786.13  23452.77  11.51
2288.7  203254.57  23180.80  11.40
2291.1  202733.50  22890.25  11.29
2293.4  201975.30  22610.55  11.19
2295.8  201267.73  22292.51  11.08
2298.2  200476.50  21988.25  10.97
2300.5  199393.00  21637.60  10.85
2302.9  198007.80  21248.93  10.73
2305.2  196543.08  20892.38  10.63
2307.6  194969.60  20515.60  10.52
2309.9  193892.93  20234.53  10.44
2312.2  192903.50  19975.50  10.36
2314.6  191869.60  19776.04  10.31
2316.9  190808.10  19540.00  10.24
2319.2  190139.77  19345.43  10.17
2321.6  189526.68  19157.99  10.11
2323.9  188710.00  18954.50  10.04
2326.2  187883.55  18724.49  9.97
2328.6  187122.80  18499.03  9.89
2330.9  186787.60  18315.53  9.81
2333.2  186329.50  18156.88  9.74
2335.5  185836.30  17940.87  9.65
2337.8  185336.60  17738.90  9.57
2340.1  184697.40  17510.37  9.48
2342.4  184254.75  17313.75  9.40
2344.8  183568.35  17076.99  9.30
2347.1  182770.00  16822.30  9.20
2349.4  182101.07  16602.67  9.12
2351.6  181336.00  16454.00  9.07
2353.9  180265.80  16235.00  9.01
2356.2  179490.47  16048.06  8.94
2358.5  178660.60  15831.19  8.86
2360.8  177966.67  15615.63  8.77
2363.1  177549.33  15447.75  8.70
2365.4  177025.50  15207.75  8.59
2367.7  176503.13  15054.80  8.53
2369.9  175747.18  14877.96  8.47
2372.2  174512.00  14619.58  8.38
2374.5  173357.50  14407.50  8.31
2376.7  172400.00  14136.80  8.20
2379.0  171149.55  13882.28  8.11
2381.3  169658.13  13605.08  8.02
2383.5  168732.67  13344.34  7.91
2385.8  168123.08  13115.67  7.80
2388.0  167221.53  12884.13  7.70
2390.3  166413.68  12691.40  7.63
2392.5  165944.25  12479.84  7.52
2394.8  165066.58  12252.71  7.42
2397.0  164567.87  12033.34  7.31
2399.3  163980.30  11838.15  7.22
2401.5  163133.70  11585.50  7.10
2403.8  162458.23  11382.58  7.01
2406.0  162023.03  11136.22  6.87
2408.2  161141.40  10881.68  6.75
2410.4  160268.95  10648.33  6.64
2412.7  159904.00  10520.00  6.58
2414.9  159320.60  10280.47  6.45
2417.1  159280.40  10164.54  6.38
2419.3  158798.70  10003.94  6.30
2421.6  157986.97  9731.29  6.16
2423.8  157319.37  9554.15  6.07
2426.0  156873.30  9360.05  5.97
2428.2  156502.50  9153.38  5.85
2430.4  156571.22  8970.54  5.73
2432.6  156578.60  8865.20  5.66
2434.8  155944.40  8630.05  5.53
2437.0  155377.30  8492.90  5.47
2439.2  154916.67  8334.52  5.38
2441.4  154111.20  8101.20  5.26
2443.6  154016.27  7912.23  5.14
2445.7  154100.93  7763.52  5.04
2447.9  154014.90  7648.23  4.97
2450.1  153208.25  7557.21  4.93
2452.3  152262.18  7300.24  4.79
2454.5  151596.67  7119.93  4.70
2456.6  151016.17  6977.42  4.62
2458.8  149774.80  6814.27  4.55
2461.0  149389.50  6639.54  4.44
2463.1  148982.33  6429.08  4.32
2465.3  148458.00  6358.33  4.28
2467.5  148070.00  6261.67  4.23
2469.6  147585.83  6218.08  4.21
2471.8  147276.57  6082.67  4.13
2473.9  146757.00  5884.13  4.01
2476.1  145860.00  5804.79  3.98
2478.2  144961.33  5672.40  3.91
2480.4  144148.90  5547.26  3.85
2482.5  143237.47  5468.63  3.82
2484.6  142188.00  5412.00  3.81
2486.8  141571.83  5272.62  3.72
2488.9  141119.20  5178.30  3.67
2491.1  139770.17  5098.00  3.65
2493.2  138427.63  5032.95  3.64
2495.3  136996.70  4905.14  3.58
2497.4  135563.32  4857.18  3.58
2499.5  134722.67  4830.52  3.59
2501.7  134754.50  4796.50  3.56
2503.8  135152.03  4724.30  3.50
2505.9  135873.75  4719.83  3.47
2508.0  136700.75  4724.00  3.46
2510.1  137597.10  4751.70  3.45
2512.2  138520.92  4728.21  3.41
2514.3  139880.65  4684.23  3.35
2516.4  141770.90  4983.26  3.52
