/*** Spectra Vista SIG Data ***/
name= 24_20220824_LIST_48_avg.sig
comm= Averaged Ref/Tar of files: HR.082422.0068_moc.sig,HR.082422.0069_moc.sig,HR.082422.0070_moc.sig
data=
337.3  3573.00  345.01  9.66
338.8  3655.60  328.00  8.97
340.3  3841.70  319.47  8.32
341.8  4023.80  328.35  8.16
343.2  4218.00  318.83  7.56
344.7  4435.60  306.27  6.90
346.2  4575.20  304.24  6.65
347.7  4758.33  296.62  6.23
349.2  4914.00  285.12  5.80
350.6  5178.23  288.90  5.58
352.1  5465.93  298.73  5.47
353.6  5794.90  291.48  5.03
355.1  6027.83  295.06  4.89
356.6  6358.35  282.80  4.45
358.0  6635.20  282.54  4.26
359.5  6921.60  296.05  4.28
361.0  7241.85  300.39  4.15
362.5  7640.78  307.25  4.02
364.0  8000.33  308.60  3.86
365.4  8373.80  315.26  3.76
366.9  8757.13  316.24  3.61
368.4  9137.13  322.10  3.53
369.9  9512.80  335.11  3.52
371.3  9932.40  351.42  3.54
372.8  10354.50  361.59  3.49
374.3  10776.88  362.43  3.36
375.8  11211.20  373.19  3.33
377.2  11674.60  372.50  3.19
378.7  12105.00  381.21  3.15
380.2  12535.40  384.80  3.07
381.7  13053.08  384.01  2.94
383.1  13555.85  395.27  2.92
384.6  14053.98  411.56  2.93
386.1  14539.45  419.53  2.89
387.6  15038.10  424.53  2.82
389.0  15570.80  428.29  2.75
390.5  16062.75  443.51  2.76
392.0  16689.95  450.41  2.70
393.4  17262.68  460.44  2.67
394.9  17826.30  466.82  2.62
396.4  18397.13  475.61  2.59
397.9  18962.50  492.00  2.59
399.3  19525.58  503.61  2.58
400.8  20114.48  512.74  2.55
402.2  20793.85  529.34  2.55
403.7  21426.75  538.82  2.51
405.2  22065.10  556.48  2.52
406.6  22643.20  561.22  2.48
408.1  23278.00  578.56  2.49
409.6  23903.55  592.86  2.48
411.0  24595.20  606.75  2.47
412.5  25281.55  629.51  2.49
414.0  25957.75  644.63  2.48
415.4  26712.00  660.23  2.47
416.9  27389.78  678.11  2.48
418.4  28105.88  701.82  2.50
419.8  28865.20  722.11  2.50
421.3  29607.33  745.25  2.52
422.7  30415.20  770.90  2.53
424.2  31235.63  791.36  2.53
425.7  32029.50  812.52  2.54
427.1  32821.05  839.78  2.56
428.6  33635.00  868.30  2.58
430.0  34416.90  892.87  2.59
431.5  35312.55  920.23  2.61
432.9  36214.80  947.09  2.62
434.4  37144.73  974.92  2.62
435.9  38010.00  1004.27  2.64
437.3  38898.75  1028.24  2.64
438.8  39761.18  1055.23  2.65
440.2  40654.08  1087.24  2.67
441.7  41674.00  1119.47  2.69
443.1  42598.75  1149.09  2.70
444.6  43609.90  1179.00  2.70
446.0  44582.10  1210.75  2.72
447.5  45573.55  1243.02  2.73
448.9  46556.10  1274.03  2.74
450.4  47604.20  1306.10  2.74
451.8  48516.00  1341.35  2.76
453.3  49462.73  1375.74  2.78
454.7  50512.95  1408.34  2.79
456.2  51432.03  1433.59  2.79
457.6  52449.53  1464.30  2.79
459.1  53473.23  1491.64  2.79
460.5  54449.63  1520.93  2.79
462.0  55547.18  1552.15  2.79
463.4  56608.40  1583.46  2.80
464.8  57664.50  1616.37  2.80
466.3  58708.65  1650.14  2.81
467.7  59734.30  1680.42  2.81
469.2  60832.15  1709.11  2.81
470.6  61862.15  1738.72  2.81
472.0  62929.33  1765.41  2.81
473.5  63972.13  1798.05  2.81
474.9  65051.25  1832.69  2.82
476.4  66254.40  1875.57  2.83
477.8  67381.50  1910.41  2.84
479.2  68440.00  1941.34  2.84
480.7  69610.28  1974.11  2.84
482.1  70776.10  2011.99  2.84
483.6  72047.70  2049.42  2.84
485.0  73200.08  2086.61  2.85
486.4  74466.90  2131.78  2.86
487.9  75611.25  2174.53  2.88
489.3  76864.50  2222.21  2.89
490.7  77983.60  2260.36  2.90
492.2  79277.10  2311.40  2.92
493.6  80443.15  2356.84  2.93
495.0  81592.88  2411.87  2.96
496.5  82840.38  2468.75  2.98
497.9  84014.38  2532.77  3.01
499.3  85247.08  2598.73  3.05
500.7  86566.85  2673.56  3.09
502.2  87775.20  2750.64  3.13
503.6  89089.20  2834.35  3.18
505.0  90214.70  2927.77  3.25
506.5  91575.45  3038.58  3.32
507.9  92863.80  3162.67  3.41
509.3  94305.60  3306.46  3.51
510.7  95632.88  3457.91  3.62
512.2  97098.30  3634.19  3.74
513.6  98641.90  3835.41  3.89
515.0  100129.78  4064.01  4.06
516.4  101563.88  4313.52  4.25
517.8  103239.63  4602.06  4.46
519.3  104619.48  4910.16  4.69
520.7  106246.10  5242.92  4.93
522.1  107607.50  5593.99  5.20
523.5  109017.70  5961.11  5.47
524.9  110470.05  6341.80  5.74
526.3  111901.30  6713.34  6.00
527.8  113483.70  7092.36  6.25
529.2  114819.40  7468.45  6.50
530.6  116452.55  7860.25  6.75
532.0  118230.00  8222.40  6.95
533.4  119636.48  8514.24  7.12
534.8  120651.68  8757.47  7.26
536.3  122459.70  9039.09  7.38
537.7  124551.00  9337.92  7.50
539.1  126047.78  9575.00  7.60
540.5  127308.25  9769.22  7.67
541.9  129136.43  10004.71  7.75
543.3  130508.13  10206.95  7.82
544.7  131886.60  10403.75  7.89
546.1  133744.05  10641.24  7.96
547.5  135049.60  10833.49  8.02
549.0  136961.00  11057.83  8.07
550.4  138539.38  11241.65  8.11
551.8  140119.33  11401.08  8.14
553.2  141737.23  11532.08  8.14
554.6  143156.00  11611.15  8.11
556.0  144755.10  11668.89  8.06
557.4  146429.15  11698.13  7.99
558.8  148149.90  11692.15  7.89
560.2  149669.75  11641.74  7.78
561.6  151433.55  11580.88  7.65
563.0  153092.13  11485.79  7.50
564.4  154736.85  11367.47  7.35
565.8  156325.63  11216.96  7.18
567.2  158154.00  11064.72  7.00
568.6  159742.88  10871.48  6.81
570.0  161266.65  10663.94  6.61
571.4  163075.90  10463.82  6.42
572.8  164917.00  10274.20  6.23
574.2  166622.40  10094.29  6.06
575.6  168243.75  9922.71  5.90
577.0  169839.00  9774.82  5.76
578.4  171660.13  9655.32  5.62
579.8  173238.08  9541.08  5.51
581.2  175048.73  9459.53  5.40
582.5  176529.60  9368.25  5.31
583.9  178121.00  9301.77  5.22
585.3  180007.88  9258.80  5.14
586.7  181553.45  9211.15  5.07
588.1  183136.00  9178.51  5.01
589.5  184852.50  9164.87  4.96
590.9  186570.40  9164.19  4.91
592.3  188463.35  9183.49  4.87
593.7  189972.90  9199.15  4.84
595.0  191682.45  9226.67  4.81
596.4  193201.05  9246.79  4.79
597.8  194739.05  9266.81  4.76
599.2  196363.20  9288.53  4.73
600.6  198196.05  9304.15  4.69
602.0  199562.63  9293.68  4.66
603.3  201447.85  9288.33  4.61
604.7  203196.83  9264.36  4.56
606.1  204750.60  9221.55  4.50
607.5  206465.98  9167.69  4.44
608.9  208221.00  9110.56  4.38
610.2  209690.78  9036.90  4.31
611.6  211351.05  8965.81  4.24
613.0  212978.55  8896.80  4.18
614.4  214423.35  8822.01  4.11
615.8  215952.75  8762.19  4.06
617.1  217560.00  8715.28  4.01
618.5  219291.60  8681.54  3.96
619.9  220875.08  8658.77  3.92
621.3  222582.38  8651.61  3.89
622.6  224281.75  8657.35  3.86
624.0  225817.20  8674.07  3.84
625.4  227397.23  8703.66  3.83
626.8  229097.05  8742.07  3.82
628.1  230524.80  8775.10  3.81
629.5  232523.28  8839.77  3.80
630.9  234246.10  8891.39  3.80
632.2  235714.85  8928.20  3.79
633.6  237438.13  8960.45  3.77
635.0  239080.00  8975.45  3.75
636.3  240729.50  8971.29  3.73
637.7  242207.50  8933.07  3.69
639.1  243967.50  8889.67  3.64
640.4  245541.10  8826.39  3.59
641.8  246840.60  8748.85  3.54
643.2  248510.68  8681.18  3.49
644.5  249952.00  8606.00  3.44
645.9  251787.15  8548.15  3.39
647.2  254155.30  8517.62  3.35
648.6  256324.50  8496.51  3.31
650.0  257968.80  8466.79  3.28
651.3  258196.40  8416.56  3.26
652.7  258690.15  8394.15  3.24
654.0  260808.10  8413.68  3.23
655.4  262504.65  8392.48  3.20
656.8  262979.50  8316.42  3.16
658.1  264250.70  8250.26  3.12
659.5  266678.48  8251.27  3.09
660.8  268672.50  8247.86  3.07
662.2  269561.60  8187.73  3.04
663.5  271248.90  8161.75  3.01
664.9  272824.50  8144.59  2.99
666.2  273681.60  8123.93  2.97
667.6  275512.83  8139.06  2.95
668.9  276832.25  8182.37  2.96
670.3  277606.63  8207.15  2.96
671.6  279571.50  8289.50  2.97
673.0  280854.75  8380.95  2.98
674.3  282217.00  8481.77  3.01
675.7  283641.68  8601.68  3.03
677.0  284893.38  8731.13  3.06
678.4  286413.10  8882.16  3.10
679.7  287602.45  9048.29  3.15
681.1  289005.90  9237.44  3.20
682.4  290239.30  9440.70  3.25
683.8  291675.80  9682.33  3.32
685.1  292802.25  9941.50  3.40
686.4  294194.40  10260.21  3.49
687.8  295569.00  10639.74  3.60
689.1  296726.00  11111.01  3.74
690.5  298216.05  11719.91  3.93
691.8  299142.25  12482.40  4.17
693.1  300542.85  13513.64  4.50
694.5  301824.25  14832.57  4.91
695.8  303143.75  16497.00  5.44
697.1  304417.75  18542.33  6.09
698.5  305587.40  21023.66  6.88
699.8  306815.43  23951.28  7.81
701.1  308062.55  27308.04  8.86
702.5  308957.55  31023.65  10.04
703.8  310005.00  35072.14  11.31
705.1  311303.85  39416.74  12.66
706.5  312466.88  43964.10  14.07
707.8  313570.50  48677.02  15.52
709.1  314536.93  53486.02  17.00
710.5  315831.78  58427.71  18.50
711.8  316816.10  63371.93  20.00
713.1  317953.40  68386.24  21.51
714.4  318956.90  73387.81  23.01
715.8  319871.20  78355.83  24.50
717.1  321348.30  83433.19  25.96
718.4  322425.60  88360.11  27.40
719.7  323684.95  93277.67  28.82
721.0  324315.00  97920.00  30.19
722.4  325216.10  102529.05  31.53
723.7  326295.90  107072.81  32.81
725.0  327467.25  111510.06  34.05
726.3  328520.23  115745.36  35.23
727.6  329159.33  119672.56  36.36
729.0  330234.63  123562.69  37.42
730.3  331145.55  127204.13  38.41
731.6  332179.35  130716.36  39.35
732.9  333111.80  134009.03  40.23
734.2  334052.13  137136.90  41.05
735.5  335207.73  140178.98  41.82
736.8  336089.70  142940.79  42.53
738.1  337061.70  145558.74  43.18
739.5  338159.90  148076.71  43.79
740.8  338978.75  150325.92  44.35
742.1  339838.68  152482.81  44.87
743.4  340700.00  154500.00  45.35
744.7  341826.15  156512.74  45.79
746.0  342833.40  158334.17  46.18
747.3  343540.98  159858.94  46.53
748.6  344380.50  161368.63  46.86
749.9  345254.00  162791.70  47.15
751.2  346121.40  164114.41  47.42
752.5  347141.25  165428.39  47.65
753.8  347866.58  166524.39  47.87
755.1  348764.00  167592.04  48.05
756.4  349493.63  168509.47  48.22
757.7  350630.53  169556.04  48.36
759.0  352673.80  170967.02  48.48
760.3  353997.60  172019.38  48.59
761.6  355801.60  173237.95  48.69
762.9  356497.25  173875.51  48.77
764.2  356989.90  174396.54  48.85
765.5  357432.65  174839.40  48.92
766.8  358006.40  175336.90  48.98
768.1  358720.80  175839.63  49.02
769.3  359450.00  176363.81  49.06
770.6  360219.60  176899.54  49.11
771.9  361090.80  177466.01  49.15
773.2  361645.60  177832.69  49.17
774.5  362447.80  178313.10  49.20
775.8  363336.90  178834.83  49.22
777.1  364054.35  179270.28  49.24
778.4  364516.90  179597.87  49.27
779.6  365468.88  180123.87  49.29
780.9  366090.00  180489.71  49.30
782.2  366690.50  180851.21  49.32
783.5  367189.50  181146.76  49.33
784.8  367896.38  181545.75  49.35
786.0  368473.35  181860.23  49.36
787.3  368981.43  182178.50  49.37
788.6  369583.73  182517.89  49.38
789.9  370203.40  182864.11  49.40
791.2  371029.25  183323.41  49.41
792.4  371892.05  183786.32  49.42
793.7  372543.60  184133.25  49.43
795.0  373360.35  184549.84  49.43
796.2  374181.93  185000.79  49.44
797.5  375099.45  185481.11  49.45
798.8  375991.65  185932.98  49.45
800.0  376835.03  186383.19  49.46
801.3  377461.60  186738.08  49.47
802.6  378229.28  187145.19  49.48
803.8  379073.48  187575.84  49.48
805.1  379711.50  187920.75  49.49
806.4  380352.30  188243.03  49.49
807.7  381056.40  188621.31  49.50
808.9  381748.95  189003.95  49.51
810.2  382448.50  189355.61  49.51
811.4  383115.40  189695.91  49.51
812.7  383865.63  190100.24  49.52
814.0  384875.95  190616.99  49.53
815.2  385644.75  191032.10  49.54
816.5  386224.40  191326.18  49.54
817.7  386806.95  191639.89  49.54
819.0  387487.10  191990.24  49.55
820.2  387728.00  192154.29  49.56
821.5  388588.95  192603.94  49.56
822.7  389002.80  192850.80  49.58
824.0  389461.50  193078.13  49.58
825.2  390065.63  193387.38  49.58
826.5  390444.23  193614.09  49.59
827.7  391163.63  193956.97  49.58
829.0  391651.55  194216.92  49.59
830.2  391990.15  194420.45  49.60
831.5  392574.20  194708.09  49.60
832.7  392937.30  194920.53  49.61
834.0  393316.90  195121.48  49.61
835.2  393727.40  195354.98  49.62
836.4  394096.45  195570.94  49.63
837.7  394521.80  195850.93  49.64
838.9  395052.98  196139.38  49.65
840.1  395480.48  196405.51  49.66
841.4  396024.00  196708.18  49.67
842.6  396392.40  196942.77  49.68
843.8  396780.60  197188.44  49.70
845.1  397288.90  197505.50  49.71
846.3  397741.80  197753.04  49.72
847.5  398164.20  198041.00  49.74
848.8  398671.80  198319.14  49.74
850.0  398955.20  198540.83  49.77
851.2  399608.10  198866.80  49.77
852.5  400074.60  199134.04  49.77
853.7  400569.75  199412.70  49.78
854.9  401028.70  199691.25  49.79
856.1  401432.20  199989.21  49.82
857.4  401727.48  200127.67  49.82
858.6  402151.70  200399.16  49.83
859.8  402652.50  200636.46  49.83
861.0  403088.40  200907.05  49.84
862.2  403634.93  201220.77  49.85
863.5  404015.63  201443.82  49.86
864.7  404672.40  201727.05  49.85
865.9  405021.20  201971.63  49.87
867.1  405378.05  202168.21  49.87
868.3  405911.55  202410.08  49.87
869.5  406391.80  202723.27  49.88
870.8  407056.50  203044.11  49.88
872.0  407502.75  203332.35  49.90
873.2  408021.15  203590.43  49.90
874.4  408537.68  203826.20  49.89
875.6  408926.65  204038.62  49.90
876.8  409540.70  204330.23  49.89
878.0  410127.95  204633.56  49.90
879.2  410687.85  204920.05  49.90
880.4  411267.75  205223.71  49.90
881.6  411795.68  205483.42  49.90
882.8  412249.60  205713.92  49.90
884.0  413049.33  206050.15  49.89
885.2  413680.90  206347.24  49.88
886.5  414396.40  206719.26  49.88
887.7  414925.23  207009.49  49.89
888.8  415666.35  207375.06  49.89
890.0  416302.35  207707.86  49.89
891.2  416965.00  207987.23  49.88
892.4  417729.90  208354.53  49.88
893.6  418448.05  208662.90  49.87
894.8  419543.00  209192.45  49.86
896.0  420621.50  209682.17  49.85
897.2  421538.00  210154.90  49.85
898.4  422396.70  210593.81  49.86
899.6  423082.88  210886.04  49.85
900.8  423703.08  211119.08  49.83
902.0  424056.75  211276.16  49.82
903.2  424549.80  211491.45  49.82
904.3  424986.00  211733.83  49.82
905.5  425750.98  212085.08  49.81
906.7  426419.50  212402.82  49.81
907.9  427206.50  212742.37  49.80
909.1  427513.28  212937.54  49.81
910.2  427987.95  213113.12  49.79
911.4  428372.10  213256.35  49.78
912.6  428828.40  213400.13  49.76
913.8  429069.45  213580.61  49.78
915.0  429703.05  213821.58  49.76
916.2  430062.75  213987.80  49.76
917.3  430391.25  213985.51  49.72
918.5  430631.00  214166.90  49.73
919.7  431089.35  214293.70  49.71
920.8  431400.08  214362.82  49.69
922.0  431739.00  214447.57  49.67
923.2  432159.00  214515.60  49.64
924.4  432560.25  214613.04  49.61
925.5  432965.80  214768.57  49.60
926.7  433816.63  215013.37  49.56
927.9  434812.20  215467.77  49.55
929.0  436594.05  216189.98  49.52
930.2  439042.50  217276.18  49.49
931.4  441900.90  218478.42  49.44
932.5  444758.55  219811.11  49.42
933.7  446587.98  220536.15  49.38
934.9  447584.38  220822.17  49.34
936.0  447240.63  220555.86  49.31
937.2  445391.40  219411.91  49.26
938.3  443783.25  218450.72  49.22
939.5  442458.00  217529.97  49.16
940.7  442814.40  217517.35  49.12
941.8  444702.38  218222.02  49.07
943.0  446332.50  218883.03  49.04
944.2  447309.85  219166.08  49.00
945.3  447193.50  218824.36  48.93
946.5  446607.00  218238.74  48.87
947.6  447000.80  218084.52  48.79
948.8  447227.63  217821.70  48.70
949.9  447505.80  217670.16  48.64
951.1  447371.28  217197.22  48.55
952.2  447372.00  216760.69  48.45
953.4  447245.50  216238.73  48.35
954.5  447525.00  215895.09  48.24
955.7  447678.00  215485.20  48.13
956.8  447784.50  215127.48  48.04
958.0  447430.00  214694.68  47.98
959.1  447612.68  214326.96  47.88
960.3  447301.38  213951.22  47.83
961.4  447521.40  213762.17  47.77
962.6  448092.75  213847.87  47.72
963.7  448208.78  213591.63  47.65
964.9  448330.65  213615.10  47.65
966.0  448256.03  213494.44  47.63
967.2  448526.70  213594.21  47.62
968.3  448270.20  213472.34  47.62
969.5  448438.30  213462.17  47.60
970.6  448678.65  213546.51  47.59
971.8  449137.50  213772.34  47.60
972.9  449291.78  213799.79  47.59
974.0  449742.00  213964.21  47.57
975.2  449943.88  214038.07  47.57
976.3  450307.40  214138.45  47.55
977.5  450406.43  214255.95  47.57
978.6  450512.60  214385.01  47.59
979.7  450633.23  214627.70  47.63
980.9  450474.08  214709.01  47.66
982.0  451153.00  214880.47  47.63
983.2  451146.78  215045.90  47.67
984.3  450810.20  215096.21  47.71
985.4  451867.08  215516.43  47.69
986.6  451996.00  215528.63  47.68
987.7  453296.38  216240.54  47.70
988.9  453625.20  216405.94  47.71
990.0  454084.80  217187.26  47.83
993.1  363083.35  172256.06  47.44
996.9  365065.45  173837.39  47.62
1000.7  366999.50  175356.22  47.78
1004.5  367957.50  176418.88  47.95
1008.4  367968.92  177022.04  48.11
1012.2  368181.75  177724.68  48.27
1016.0  368620.80  178491.25  48.42
1019.8  369363.23  179348.40  48.56
1023.7  370158.90  180157.87  48.67
1027.5  370854.25  180857.13  48.77
1031.3  372048.68  181736.17  48.85
1035.1  372665.07  182279.11  48.91
1038.9  373059.87  182699.76  48.97
1042.7  373083.42  182927.25  49.03
1046.5  373004.67  183055.91  49.08
1050.3  373153.19  183279.47  49.12
1054.2  372978.67  183344.67  49.16
1058.0  372480.27  183196.63  49.18
1061.8  372346.54  183223.38  49.21
1065.6  372263.17  183186.17  49.21
1069.4  372887.87  183477.94  49.20
1073.2  373220.47  183572.37  49.19
1077.0  373090.65  183448.46  49.17
1080.8  372287.50  182984.82  49.15
1084.6  370516.77  182033.83  49.13
1088.4  369221.87  181318.58  49.11
1092.2  368140.50  180631.28  49.07
1096.0  367588.68  180172.56  49.01
1099.8  367308.72  179759.76  48.94
1103.6  366878.25  179286.65  48.87
1107.4  366187.93  178628.84  48.78
1111.2  366055.50  178245.54  48.69
1114.9  365381.92  177538.58  48.59
1118.7  364624.43  176717.47  48.47
1122.5  363774.67  175708.00  48.30
1126.3  362526.68  174375.97  48.10
1130.1  361988.10  173106.71  47.82
1133.9  360450.30  170991.80  47.44
1137.7  359131.80  168632.39  46.96
1141.4  357522.97  165783.66  46.37
1145.2  356981.02  163204.93  45.72
1149.0  356008.33  160533.13  45.09
1152.8  354477.45  157944.18  44.56
1156.6  352924.37  155865.23  44.16
1160.3  351300.33  154266.38  43.91
1164.1  348814.60  152728.85  43.79
1167.9  346940.63  151738.39  43.74
1171.7  345633.75  151146.00  43.73
1175.4  344657.47  150749.98  43.74
1179.2  343902.43  150415.27  43.74
1183.0  343734.67  150310.38  43.73
1186.7  342942.13  149921.03  43.72
1190.5  341415.07  149222.43  43.71
1194.3  339995.03  148588.03  43.70
1198.0  338951.25  148192.95  43.72
1201.8  337649.75  147735.04  43.75
1205.6  336362.33  147364.90  43.81
1209.3  335225.77  147140.53  43.89
1213.1  334011.75  146872.90  43.97
1216.8  332822.88  146674.77  44.07
1220.6  331736.53  146502.40  44.16
1224.3  330511.42  146255.44  44.25
1228.1  329450.80  146118.03  44.35
1231.9  328409.55  145924.47  44.43
1235.6  327159.68  145611.38  44.51
1239.4  325993.38  145336.20  44.58
1243.1  324870.40  145005.16  44.63
1246.9  323720.71  144649.74  44.68
1250.6  322817.93  144355.65  44.72
1254.3  321811.42  143987.42  44.74
1258.1  320940.43  143646.30  44.76
1261.8  319797.20  143146.82  44.76
1265.6  318286.88  142437.56  44.75
1269.3  316395.95  141517.18  44.73
1273.1  316073.19  141204.05  44.67
1276.8  316602.00  141189.94  44.60
1280.6  317169.63  141143.79  44.50
1284.3  316306.80  140423.83  44.39
1288.0  314828.47  139379.02  44.27
1291.8  313009.40  138095.93  44.12
1295.5  311115.20  136702.35  43.94
1299.2  309703.43  135416.28  43.72
1302.9  308342.63  134022.07  43.47
1306.7  306919.67  132494.60  43.17
1310.4  305593.48  130838.76  42.81
1314.1  304363.77  129115.59  42.42
1317.9  303284.58  127278.54  41.97
1321.6  301995.14  125214.06  41.46
1325.3  300419.70  122870.10  40.90
1329.0  299064.27  120539.65  40.31
1332.8  296850.40  117730.80  39.66
1336.5  294936.73  115001.62  38.99
1340.2  294460.83  112857.33  38.33
1343.9  293825.00  110662.35  37.66
1347.6  292901.10  108394.99  37.01
1351.4  292562.50  106438.50  36.38
1355.1  292329.77  104566.79  35.77
1358.8  291664.00  102507.43  35.15
1362.5  290842.68  100250.34  34.47
1366.2  288923.50  97338.36  33.69
1369.9  287575.63  94220.39  32.76
1373.6  286178.26  90529.81  31.63
1377.3  284371.50  86041.71  30.26
1381.0  282803.50  80717.86  28.54
1384.8  280410.00  74213.75  26.47
1388.4  278349.75  67362.90  24.20
1392.2  276794.17  60376.83  21.81
1395.9  275197.33  53484.58  19.43
1399.6  273495.23  47125.84  17.23
1403.3  272382.79  41701.05  15.31
1407.0  271468.70  37238.15  13.72
1410.7  270487.80  33734.84  12.47
1414.3  269583.77  31119.48  11.54
1418.1  268735.75  29261.70  10.89
1421.7  268110.97  27987.59  10.44
1425.4  267434.70  27150.22  10.15
1429.1  266756.25  26647.07  9.99
1432.8  265423.95  26326.24  9.92
1436.5  264592.47  26217.54  9.91
1440.2  263652.63  26229.83  9.95
1443.9  262242.93  26271.66  10.02
1447.6  260629.60  26342.80  10.11
1451.2  259641.98  26498.74  10.21
1454.9  258504.45  26670.49  10.32
1458.6  257554.38  26940.78  10.46
1462.3  256483.70  27309.12  10.65
1466.0  255126.31  27791.26  10.89
1469.7  253451.14  28404.83  11.21
1473.3  252418.83  29236.50  11.58
1477.0  250575.57  30094.47  12.01
1480.7  249060.46  31067.01  12.47
1484.4  247203.01  32027.32  12.96
1488.0  245696.00  33062.86  13.46
1491.7  244060.22  34081.96  13.96
1495.4  242308.90  35093.90  14.48
1499.0  240671.00  36100.86  15.00
1502.7  239331.08  37153.81  15.52
1506.4  237931.94  38162.40  16.04
1510.0  236561.53  39159.43  16.55
1513.7  235155.08  40112.63  17.06
1517.4  233891.33  41062.95  17.56
1521.0  232760.67  42013.30  18.05
1524.7  231558.17  42893.81  18.52
1528.3  230251.63  43731.00  18.99
1532.0  229000.57  44534.05  19.45
1535.7  227595.63  45255.50  19.88
1539.3  226363.43  45978.18  20.31
1543.0  225394.08  46721.80  20.73
1546.6  224713.67  47491.01  21.13
1550.3  223732.20  48153.36  21.52
1553.9  222666.90  48749.80  21.89
1557.6  221400.67  49270.26  22.25
1561.2  220131.00  49735.74  22.59
1564.9  218823.08  50161.23  22.92
1568.5  217510.18  50553.18  23.24
1572.2  216384.05  50945.30  23.54
1575.8  215320.00  51332.00  23.84
1579.5  214356.45  51698.09  24.12
1583.1  213367.74  52046.97  24.39
1586.8  212184.00  52318.00  24.66
1590.4  211243.77  52620.99  24.91
1594.0  209965.71  52813.28  25.15
1597.7  208655.30  52986.35  25.39
1601.3  207068.40  53071.20  25.63
1604.9  205555.14  53129.61  25.85
1608.6  204198.62  53188.61  26.05
1612.2  203334.45  53333.07  26.23
1615.8  202399.93  53430.42  26.40
1619.5  201374.17  53483.74  26.56
1623.1  200100.43  53438.46  26.71
1626.7  198822.33  53368.53  26.84
1630.3  197616.67  53278.96  26.96
1634.0  196406.00  53150.00  27.06
1637.6  195245.33  52991.14  27.14
1641.2  194072.65  52759.76  27.19
1644.8  192705.73  52398.35  27.19
1648.5  191548.03  52034.49  27.17
1652.1  190505.10  51644.27  27.11
1655.7  189541.60  51257.94  27.04
1659.3  188673.95  50937.64  27.00
1662.9  187240.83  50536.55  26.99
1666.6  185806.60  50191.88  27.01
1670.2  184403.16  49878.97  27.05
1673.8  183024.99  49536.49  27.07
1677.4  181933.45  49243.24  27.07
1681.0  181145.25  48983.01  27.04
1684.6  180759.58  48776.62  26.98
1688.2  180072.90  48423.32  26.89
1691.8  179415.33  48063.48  26.79
1695.4  179005.20  47709.97  26.65
1699.0  178685.27  47348.20  26.50
1702.6  178407.00  46964.19  26.32
1706.2  177856.47  46491.58  26.14
1709.8  177011.51  45965.76  25.97
1713.4  176337.19  45488.26  25.80
1717.0  175480.75  44968.53  25.63
1720.6  174699.60  44455.87  25.45
1724.2  174025.50  43941.33  25.25
1727.8  173285.70  43419.25  25.06
1731.4  172772.88  42937.71  24.85
1735.0  172511.35  42530.58  24.65
1738.6  172221.15  42068.14  24.43
1742.2  171615.22  41502.51  24.18
1745.8  170931.44  40905.85  23.93
1749.4  169932.68  40219.81  23.67
1753.0  168396.87  39401.41  23.40
1756.6  166702.67  38566.34  23.13
1760.1  165349.85  37835.90  22.88
1763.7  163652.67  37040.95  22.63
1767.3  162220.75  36354.97  22.41
1770.9  160994.40  35735.53  22.20
1774.5  159571.78  35104.54  22.00
1778.0  158418.70  34569.72  21.82
1781.6  157302.45  34085.33  21.67
1785.2  156139.80  33628.10  21.54
1788.8  154956.20  33209.21  21.43
1792.3  153750.03  32812.60  21.34
1795.9  153274.55  32603.32  21.27
1799.5  152718.67  32400.91  21.22
1803.1  151163.37  32028.62  21.19
1806.6  150501.34  31823.03  21.14
1810.2  151143.77  31878.60  21.09
1813.8  152329.10  32036.07  21.03
1817.3  152733.20  32041.32  20.98
1820.9  152415.67  31897.86  20.93
1824.5  151421.58  31598.54  20.87
1828.0  150847.13  31358.84  20.79
1831.6  150028.43  31042.25  20.69
1835.2  149189.17  30656.67  20.55
1838.7  148719.60  30250.09  20.34
1842.3  148260.00  29768.57  20.08
1845.8  147595.17  29121.89  19.73
1849.4  147275.58  28396.63  19.28
1852.9  146622.29  27438.75  18.71
1856.5  145807.48  26242.54  18.00
1860.0  145119.98  24836.75  17.11
1863.6  144882.35  23300.71  16.08
1867.1  144523.05  21542.85  14.91
1870.7  144033.68  19469.49  13.52
1874.2  143098.20  17074.16  11.93
1877.8  142341.07  14704.74  10.33
1881.3  141587.25  12433.52  8.78
1884.9  141194.17  10452.79  7.40
1888.4  140440.75  8722.66  6.21
1891.9  139839.27  7375.53  5.27
1895.5  138912.73  6403.18  4.61
1899.0  138628.38  5799.43  4.18
1901.3  164053.67  3952.05  2.41
1904.1  164023.50  3708.75  2.26
1906.8  163447.20  3496.80  2.14
1909.6  162046.85  3329.90  2.05
1912.4  160662.83  3201.37  1.99
1915.1  159666.10  3113.55  1.95
1917.9  158426.00  3051.00  1.93
1920.6  157412.77  2997.67  1.90
1923.3  156439.03  2987.52  1.91
1926.1  155184.10  2973.23  1.92
1928.8  154029.33  2972.44  1.93
1931.6  153088.67  2970.58  1.94
1934.3  152177.65  2968.85  1.95
1937.0  151289.63  2980.86  1.97
1939.8  150363.25  2992.36  1.99
1942.5  149215.00  3017.67  2.02
1945.2  147773.45  3027.02  2.05
1947.9  146627.13  3063.51  2.09
1950.7  145689.37  3102.54  2.13
1953.4  144119.05  3132.40  2.17
1956.1  142907.33  3173.42  2.22
1958.8  141818.30  3226.67  2.28
1961.5  140474.80  3281.33  2.34
1964.2  139066.20  3336.67  2.40
1966.9  137578.10  3399.78  2.47
1969.6  136413.00  3468.00  2.54
1972.3  135066.40  3545.17  2.62
1975.0  134033.25  3622.60  2.70
1977.7  132964.15  3717.70  2.80
1980.4  131859.43  3816.42  2.89
1983.1  130793.58  3919.59  3.00
1985.8  129899.70  4022.30  3.10
1988.4  128882.00  4134.00  3.21
1991.1  127971.90  4253.36  3.32
1993.8  127121.68  4380.14  3.45
1996.5  126509.90  4512.26  3.57
1999.1  125837.80  4641.51  3.69
2001.8  125174.70  4774.24  3.81
2004.5  124499.45  4910.32  3.94
2007.1  123781.50  5060.25  4.09
2009.8  123033.63  5194.39  4.22
2012.4  122468.68  5330.84  4.35
2015.1  121919.93  5476.41  4.49
2017.8  121142.93  5605.91  4.63
2020.4  120650.57  5741.57  4.76
2023.1  120305.50  5896.56  4.90
2025.7  120050.67  6043.56  5.03
2028.3  119730.00  6176.44  5.16
2031.0  119335.05  6298.31  5.28
2033.6  119050.80  6435.10  5.41
2036.2  118798.50  6562.70  5.52
2038.9  118206.90  6664.20  5.64
2041.5  117875.48  6769.94  5.74
2044.1  117336.90  6849.80  5.84
2046.8  116980.20  6951.30  5.94
2049.4  116345.10  7032.50  6.04
2052.0  116039.80  7132.22  6.15
2054.6  115631.25  7212.92  6.24
2057.2  115087.87  7289.42  6.33
2059.8  114782.20  7400.04  6.45
2062.4  113926.83  7458.56  6.55
2065.0  113428.53  7539.78  6.65
2067.6  112567.03  7592.22  6.74
2070.2  111974.30  7670.67  6.85
2072.8  111337.98  7737.49  6.95
2075.4  110897.50  7813.75  7.05
2078.0  110283.53  7866.94  7.13
2080.6  109736.00  7925.87  7.22
2083.2  109048.57  7977.67  7.32
2085.8  108553.22  8030.89  7.40
2088.4  107890.33  8073.67  7.48
2090.9  107113.68  8108.39  7.57
2093.5  106243.23  8135.47  7.66
2096.1  105479.05  8156.79  7.73
2098.7  104706.12  8174.36  7.81
2101.2  103752.00  8174.40  7.88
2103.8  103079.53  8188.95  7.94
2106.4  102415.80  8212.24  8.02
2108.9  101778.27  8229.71  8.09
2111.5  100948.60  8223.89  8.15
2114.0  100328.53  8229.71  8.20
2116.6  99811.25  8239.58  8.26
2119.1  99273.73  8243.59  8.30
2121.7  98805.00  8254.17  8.35
2124.2  98405.83  8272.81  8.41
2126.8  97626.75  8250.48  8.45
2129.3  97231.20  8260.27  8.50
2131.9  96641.60  8254.40  8.54
2134.4  96208.35  8262.95  8.59
2136.9  95815.63  8288.15  8.65
2139.4  95298.93  8296.25  8.71
2142.0  94873.33  8305.11  8.75
2144.5  94615.90  8336.33  8.81
2147.0  94380.67  8367.55  8.87
2149.5  93889.33  8373.51  8.92
2152.1  93714.13  8417.38  8.98
2154.6  93622.40  8462.22  9.04
2157.1  93086.00  8459.61  9.09
2159.6  92677.25  8465.67  9.13
2162.1  92510.60  8502.43  9.19
2164.6  92274.07  8521.40  9.23
2167.1  91971.08  8531.32  9.28
2169.6  91650.53  8543.85  9.32
2172.1  91179.17  8540.83  9.37
2174.6  90868.93  8550.04  9.41
2177.1  90447.52  8553.04  9.46
2179.5  90045.58  8565.12  9.51
2182.0  89563.65  8570.83  9.57
2184.5  89029.07  8563.85  9.62
2187.0  88418.63  8543.46  9.66
2189.5  87749.28  8525.52  9.72
2191.9  87001.00  8499.33  9.77
2194.4  86398.85  8483.58  9.82
2196.9  85689.60  8444.80  9.86
2199.3  85037.67  8413.22  9.89
2201.8  84164.13  8364.18  9.94
2204.3  83687.08  8357.26  9.99
2206.7  83065.05  8336.38  10.04
2209.2  82614.78  8311.88  10.06
2211.6  81981.90  8283.00  10.10
2214.1  81679.55  8275.08  10.13
2216.5  81135.47  8234.73  10.15
2219.0  80807.67  8211.55  10.16
2221.4  80434.08  8181.25  10.17
2223.9  79948.17  8138.28  10.18
2226.3  79472.17  8075.47  10.16
2228.7  78928.30  8002.21  10.14
2231.1  78328.80  7933.20  10.13
2233.6  77748.20  7847.33  10.09
2236.0  77240.92  7748.22  10.03
2238.4  76755.00  7655.67  9.97
2240.9  76307.87  7555.96  9.90
2243.3  75781.40  7443.38  9.82
2245.7  75231.95  7333.15  9.75
2248.1  74750.00  7215.87  9.65
2250.5  74256.03  7084.84  9.54
2252.9  73653.67  6946.76  9.43
2255.3  73122.55  6815.75  9.32
2257.7  72660.00  6703.33  9.23
2260.1  72179.80  6591.90  9.13
2262.5  71570.00  6463.33  9.03
2264.9  71061.37  6329.44  8.91
2267.3  70460.00  6196.67  8.79
2269.7  69982.50  6083.55  8.69
2272.1  69435.53  5969.93  8.60
2274.5  68885.00  5866.87  8.52
2276.8  68413.83  5762.92  8.42
2279.2  67847.55  5648.10  8.32
2281.6  67436.60  5540.02  8.22
2284.0  66973.10  5443.90  8.13
2286.3  66515.20  5340.27  8.03
2288.7  66110.20  5244.42  7.93
2291.1  65575.20  5143.95  7.84
2293.4  65142.00  5040.93  7.74
2295.8  64550.10  4926.83  7.63
2298.2  63952.65  4809.30  7.52
2300.5  63290.25  4705.80  7.44
2302.9  62558.00  4588.00  7.33
2305.2  61861.80  4490.80  7.26
2307.6  61229.42  4388.02  7.17
2309.9  60460.33  4295.22  7.10
2312.2  59871.33  4222.89  7.05
2314.6  59253.75  4133.10  6.98
2316.9  58549.95  4039.95  6.90
2319.2  57970.40  3956.61  6.83
2321.6  57357.53  3869.52  6.75
2323.9  56812.50  3798.61  6.69
2326.2  56256.53  3714.27  6.60
2328.6  55740.30  3636.60  6.52
2330.9  55240.50  3559.50  6.44
2333.2  54768.75  3492.50  6.38
2335.5  54345.30  3420.43  6.29
2337.8  53884.32  3335.64  6.19
2340.1  53312.80  3263.76  6.12
2342.4  52877.50  3199.44  6.05
2344.8  52465.50  3122.17  5.95
2347.1  51905.23  3067.01  5.91
2349.4  51359.70  3003.88  5.85
2351.6  50797.85  2923.09  5.75
2353.9  50323.03  2857.64  5.68
2356.2  49802.67  2801.40  5.63
2358.5  49201.60  2744.00  5.58
2360.8  48619.20  2669.33  5.49
2363.1  48186.80  2606.01  5.41
2365.4  47719.90  2561.33  5.37
2367.7  47264.40  2504.20  5.30
2369.9  46727.45  2438.85  5.22
2372.2  46107.47  2365.96  5.13
2374.5  45541.65  2306.15  5.06
2376.7  44921.65  2238.14  4.98
2379.0  44299.73  2175.43  4.91
2381.3  43691.67  2119.44  4.85
2383.5  43190.40  2061.15  4.77
2385.8  42571.80  1996.41  4.69
2388.0  42031.60  1943.07  4.62
2390.3  41521.47  1886.80  4.54
2392.5  41064.00  1820.00  4.43
2394.8  40595.50  1778.70  4.38
2397.0  40100.67  1735.07  4.33
2399.3  39644.57  1681.30  4.24
2401.5  39200.00  1629.25  4.16
2403.8  38662.02  1584.75  4.10
2406.0  38144.00  1543.81  4.05
2408.2  37749.07  1496.00  3.96
2410.4  37337.65  1452.23  3.89
2412.7  36920.87  1411.66  3.82
2414.9  36533.20  1378.85  3.77
2417.1  36118.80  1346.20  3.73
2419.3  35699.20  1301.33  3.65
2421.6  35314.17  1261.53  3.57
2423.8  34945.17  1223.19  3.50
2426.0  34600.58  1185.81  3.43
2428.2  34247.73  1154.22  3.37
2430.4  33903.80  1146.89  3.38
2432.6  33613.33  1106.67  3.29
2434.8  33323.10  1073.79  3.22
2437.0  32965.40  1038.85  3.15
2439.2  32588.68  1013.75  3.11
2441.4  32256.47  990.69  3.07
2443.6  32013.22  962.56  3.01
2445.7  31751.18  939.44  2.96
2447.9  31465.58  909.22  2.89
2450.1  31162.90  889.83  2.86
2452.3  30802.57  875.23  2.84
2454.5  30437.43  841.54  2.76
2456.6  30045.60  813.20  2.71
2458.8  29686.80  786.50  2.65
2461.0  29381.17  764.08  2.60
2463.1  29056.35  756.60  2.60
2465.3  28783.77  741.42  2.58
2467.5  28556.00  717.83  2.51
2469.6  28282.00  716.00  2.53
2471.8  27961.03  680.75  2.43
2473.9  27662.83  653.61  2.36
2476.1  27330.33  662.28  2.42
2478.2  26963.00  649.96  2.41
2480.4  26647.60  634.47  2.38
2482.5  26290.70  634.82  2.41
2484.6  25977.42  618.14  2.38
2486.8  25669.50  601.83  2.34
2488.9  25332.25  594.51  2.35
2491.1  24990.00  560.62  2.24
2493.2  24620.60  537.55  2.18
2495.3  24210.33  529.10  2.19
2497.4  23892.40  520.57  2.18
2499.5  23530.57  534.05  2.27
2501.7  23384.63  520.39  2.23
2503.8  23269.60  490.35  2.11
2505.9  23182.08  501.11  2.16
2508.0  23139.52  496.30  2.14
2510.1  23141.03  488.81  2.11
2512.2  23249.45  489.33  2.10
2514.3  23387.47  506.22  2.16
2516.4  23640.00  479.37  2.03
