/*** Spectra Vista SIG Data ***/
name= 41_20220926_LIST_57_avg.sig
comm= Averaged Ref/Tar of files: HR.092722.0038_moc.sig,HR.092722.0039_moc.sig,HR.092722.0040_moc.sig
data=
337.3  3225.63  211.73  6.56
338.8  3318.90  205.23  6.18
340.3  3466.90  206.14  5.95
341.8  3612.28  219.48  6.08
343.2  3818.40  219.04  5.74
344.7  4009.10  216.09  5.39
346.2  4207.55  212.42  5.05
347.7  4365.08  214.98  4.92
349.2  4573.80  216.72  4.74
350.6  4847.70  225.25  4.65
352.1  5108.68  238.17  4.66
353.6  5378.50  240.59  4.47
355.1  5657.40  237.97  4.21
356.6  5997.83  244.72  4.08
358.0  6252.40  259.45  4.15
359.5  6550.80  267.80  4.09
361.0  6852.83  271.32  3.96
362.5  7230.93  288.85  3.99
364.0  7598.88  294.40  3.87
365.4  7952.30  299.73  3.77
366.9  8342.75  316.77  3.80
368.4  8700.73  323.66  3.72
369.9  9080.40  342.32  3.77
371.3  9505.20  363.12  3.82
372.8  9929.70  375.24  3.78
374.3  10373.75  390.58  3.77
375.8  10780.00  395.27  3.67
377.2  11190.40  405.29  3.62
378.7  11674.60  419.64  3.59
380.2  12078.10  430.40  3.56
381.7  12593.65  443.21  3.52
383.1  13043.80  449.17  3.44
384.6  13568.43  467.57  3.45
386.1  14053.00  475.64  3.38
387.6  14526.05  492.29  3.39
389.0  15008.00  503.84  3.36
390.5  15478.65  523.92  3.38
392.0  16055.15  536.05  3.34
393.4  16632.08  553.53  3.33
394.9  17199.90  567.24  3.30
396.4  17724.38  583.05  3.29
397.9  18296.25  601.33  3.29
399.3  18841.80  617.93  3.28
400.8  19416.58  648.05  3.34
402.2  20081.90  664.49  3.31
403.7  20680.43  677.31  3.28
405.2  21307.50  694.47  3.26
406.6  21877.60  714.56  3.27
408.1  22464.40  732.24  3.26
409.6  23069.45  755.08  3.27
411.0  23762.55  779.99  3.28
412.5  24448.55  799.68  3.27
414.0  25102.00  823.15  3.28
415.4  25797.75  842.70  3.27
416.9  26483.85  866.09  3.27
418.4  27190.80  883.95  3.25
419.8  27918.80  905.15  3.24
421.3  28644.78  931.65  3.25
422.7  29440.80  960.48  3.26
424.2  30223.13  978.75  3.24
425.7  30986.30  1008.43  3.25
427.1  31760.78  1025.46  3.23
428.6  32565.50  1056.07  3.24
430.0  33339.48  1082.48  3.25
431.5  34223.03  1106.44  3.23
432.9  35116.05  1132.93  3.23
434.4  36013.05  1161.28  3.22
435.9  36876.00  1185.33  3.21
437.3  37730.00  1210.00  3.21
438.8  38607.30  1239.85  3.21
440.2  39495.23  1268.45  3.21
441.7  40481.40  1302.48  3.22
443.1  41406.25  1332.07  3.22
444.6  42391.60  1364.15  3.22
446.0  43349.48  1396.11  3.22
447.5  44332.75  1425.20  3.21
448.9  45291.90  1455.12  3.21
450.4  46322.15  1493.57  3.22
451.8  47216.00  1525.33  3.23
453.3  48168.30  1562.03  3.24
454.7  49195.45  1593.30  3.24
456.2  50069.85  1624.03  3.24
457.6  51068.93  1654.95  3.24
459.1  52074.10  1686.06  3.24
460.5  53031.88  1719.13  3.24
462.0  54140.58  1758.25  3.25
463.4  55197.30  1791.96  3.25
464.8  56207.63  1824.10  3.25
466.3  57179.93  1855.04  3.24
467.7  58171.98  1889.80  3.25
469.2  59269.83  1923.58  3.25
470.6  60288.55  1953.89  3.24
472.0  61367.00  1991.14  3.24
473.5  62404.25  2026.47  3.25
474.9  63483.75  2067.20  3.26
476.4  64656.00  2106.24  3.26
477.8  65728.50  2146.00  3.26
479.2  66743.50  2184.67  3.27
480.7  67873.28  2219.50  3.27
482.1  69027.65  2265.76  3.28
483.6  70255.90  2313.93  3.29
485.0  71376.23  2358.46  3.30
486.4  72589.95  2405.60  3.31
487.9  73695.38  2451.15  3.33
489.3  74861.90  2505.21  3.35
490.7  75936.83  2556.26  3.37
492.2  77175.00  2616.60  3.39
493.6  78304.25  2676.07  3.42
495.0  79443.00  2743.65  3.45
496.5  80639.13  2817.60  3.49
497.9  81783.78  2899.78  3.55
499.3  82972.45  2991.74  3.61
500.7  84266.80  3097.99  3.68
502.2  85453.80  3217.84  3.77
503.6  86753.20  3356.05  3.87
505.0  87856.05  3512.09  4.00
506.5  89181.90  3701.63  4.15
507.9  90373.20  3913.80  4.33
509.3  91715.60  4163.73  4.54
510.7  92971.13  4446.00  4.78
512.2  94391.48  4770.96  5.05
513.6  95915.40  5148.78  5.37
515.0  97384.35  5564.82  5.71
516.4  98813.93  6021.54  6.09
517.8  100485.25  6537.05  6.51
519.3  101832.63  7065.65  6.94
520.7  103422.05  7639.45  7.39
522.1  104742.63  8211.71  7.84
523.5  106112.60  8795.92  8.29
524.9  107624.25  9391.14  8.73
526.3  109117.40  9955.07  9.12
527.8  110632.50  10503.90  9.49
529.2  111660.60  10992.23  9.84
530.6  113201.30  11496.42  10.16
532.0  114884.00  11970.93  10.42
533.4  116256.30  12367.73  10.64
534.8  117199.95  12678.37  10.82
536.3  118796.10  13022.12  10.96
537.7  120758.40  13374.48  11.08
539.1  122214.70  13647.88  11.17
540.5  123428.15  13881.60  11.25
541.9  125203.58  14166.11  11.31
543.3  126526.33  14400.84  11.38
544.7  127873.80  14636.08  11.45
546.1  129707.60  14923.59  11.51
547.5  130950.40  15140.91  11.56
549.0  132605.00  15394.13  11.61
550.4  134119.38  15617.33  11.64
551.8  135719.88  15829.60  11.66
553.2  137232.98  16004.40  11.66
554.6  138569.60  16113.07  11.63
556.0  140107.95  16197.06  11.56
557.4  141731.28  16240.54  11.46
558.8  143409.60  16248.12  11.33
560.2  144886.88  16180.85  11.17
561.6  146585.93  16092.03  10.98
563.0  148189.83  15945.74  10.76
564.4  149810.00  15756.07  10.52
565.8  151331.88  15521.00  10.26
567.2  153101.50  15273.60  9.98
568.6  154599.00  14968.35  9.68
570.0  156042.55  14645.04  9.39
571.4  157771.90  14342.90  9.09
572.8  159565.88  14053.10  8.81
574.2  161201.60  13771.52  8.54
575.6  162765.00  13507.50  8.30
577.0  164313.30  13273.73  8.08
578.4  166029.50  13073.67  7.87
579.8  167592.38  12884.13  7.69
581.2  169319.10  12727.87  7.52
582.5  170761.50  12570.48  7.36
583.9  172291.80  12440.35  7.22
585.3  174093.08  12341.58  7.09
586.7  175601.08  12236.64  6.97
588.1  177097.75  12147.63  6.86
589.5  178764.25  12086.67  6.76
590.9  180420.00  12037.92  6.67
592.3  182238.55  12021.23  6.60
593.7  183711.45  11999.00  6.53
595.0  185334.08  12000.78  6.48
596.4  186803.75  11995.15  6.42
597.8  188306.15  11994.13  6.37
599.2  189855.60  11996.16  6.32
600.6  191626.83  12006.71  6.27
602.0  192944.10  11973.31  6.21
603.3  194754.15  11960.13  6.14
604.7  196455.05  11922.78  6.07
606.1  197961.00  11855.12  5.99
607.5  199614.88  11778.69  5.90
608.9  201322.45  11693.35  5.81
610.2  202716.68  11578.14  5.71
611.6  204346.13  11467.64  5.61
613.0  205926.95  11353.85  5.51
614.4  207322.95  11236.48  5.42
615.8  208801.13  11122.80  5.33
617.1  210357.00  11025.00  5.24
618.5  211995.20  10953.97  5.17
619.9  213531.98  10893.26  5.10
621.3  215180.55  10858.02  5.05
622.6  216778.75  10837.67  5.00
624.0  218262.15  10833.54  4.96
625.4  219747.83  10847.10  4.94
626.8  221357.50  10882.08  4.92
628.1  222623.23  10911.85  4.90
629.5  224442.55  10970.40  4.89
630.9  225925.70  11006.64  4.87
632.2  227176.43  11008.85  4.85
633.6  228687.25  10996.53  4.81
635.0  230153.20  10939.20  4.75
636.3  231681.60  10850.56  4.68
637.7  233068.25  10714.58  4.60
639.1  234710.00  10551.33  4.50
640.4  236208.70  10366.98  4.39
641.8  237446.83  10143.61  4.27
643.2  239047.55  9949.80  4.16
644.5  240407.25  9764.97  4.06
645.9  241990.20  9613.68  3.97
647.2  243034.58  9476.46  3.90
648.6  244599.75  9393.30  3.84
650.0  246024.00  9342.72  3.80
651.3  247034.98  9303.47  3.77
652.7  249193.55  9312.20  3.74
654.0  251258.80  9330.99  3.71
655.4  252665.85  9334.71  3.69
656.8  252923.40  9307.00  3.68
658.1  254376.20  9303.97  3.66
659.5  256655.18  9312.94  3.63
660.8  258052.50  9300.00  3.60
662.2  259078.40  9273.60  3.58
663.5  260616.90  9279.37  3.56
664.9  261664.00  9293.79  3.55
666.2  262537.20  9318.08  3.55
667.6  264261.03  9400.31  3.56
668.9  265231.88  9484.53  3.58
670.3  267090.38  9609.32  3.60
671.6  268155.00  9740.90  3.63
673.0  269371.88  9900.20  3.68
674.3  270636.60  10077.60  3.72
675.7  271986.08  10284.01  3.78
677.0  273065.95  10492.71  3.84
678.4  274387.45  10733.52  3.91
679.7  275444.65  10986.07  3.99
681.1  276710.13  11267.08  4.07
682.4  277797.00  11559.77  4.16
683.8  278968.30  11883.91  4.26
685.1  279991.88  12239.55  4.37
686.4  281296.20  12671.76  4.50
687.8  282508.25  13207.60  4.68
689.1  283598.50  13928.50  4.91
690.5  284940.15  14923.84  5.24
691.8  285769.63  16259.91  5.69
693.1  287088.75  18068.66  6.29
694.5  288265.25  20344.57  7.06
695.8  289493.75  23107.93  7.98
697.1  290654.00  26362.70  9.07
698.5  291740.40  30066.91  10.31
699.8  292824.95  34172.74  11.67
701.1  294004.05  38620.06  13.14
702.5  294796.15  43256.91  14.67
703.8  295717.50  48054.00  16.25
705.1  296884.58  52958.88  17.84
706.5  297900.75  57870.70  19.43
707.8  298886.55  62749.86  20.99
709.1  299757.78  67546.52  22.53
710.5  300874.03  72330.02  24.04
711.8  301719.00  76973.65  25.51
713.1  302677.90  81561.51  26.95
714.4  303592.20  86033.40  28.34
715.8  304439.60  90392.31  29.69
717.1  305748.00  94787.84  31.00
718.4  306723.20  98948.27  32.26
719.7  307817.60  103031.39  33.47
721.0  308340.00  106779.00  34.63
722.4  309115.40  110467.94  35.74
723.7  310078.50  114083.52  36.79
725.0  311105.25  117570.06  37.79
726.3  312063.40  120869.03  38.73
727.6  312588.38  123851.49  39.62
729.0  313499.38  126814.99  40.45
730.3  314314.28  129572.42  41.22
731.6  315210.40  132220.45  41.95
732.9  316004.68  134647.43  42.61
734.2  316801.38  136946.33  43.23
735.5  317799.23  139195.86  43.80
736.8  318599.10  141204.60  44.32
738.1  319495.20  143110.01  44.79
739.5  320463.80  144927.51  45.22
740.8  321185.43  146494.30  45.61
742.1  321876.80  147946.39  45.96
743.4  322500.00  149263.33  46.28
744.7  323372.88  150610.28  46.57
746.0  324226.50  151863.40  46.84
747.3  324831.15  152877.73  47.06
748.6  325557.25  153871.70  47.26
749.9  326222.00  154724.27  47.43
751.2  326822.70  155494.87  47.58
752.5  327554.90  156265.43  47.71
753.8  328075.65  156884.58  47.82
755.1  328770.00  157528.80  47.91
756.4  329337.03  158083.85  48.00
757.7  330344.18  158807.18  48.07
759.0  332165.85  159874.59  48.13
760.3  333326.40  160592.96  48.18
761.6  334867.40  161483.28  48.22
762.9  335418.25  161837.50  48.25
764.2  335765.80  162095.81  48.28
765.5  336001.83  162272.51  48.30
766.8  336355.20  162503.68  48.31
768.1  336855.60  162770.61  48.32
769.3  337440.60  163057.58  48.32
770.6  338083.20  163384.52  48.33
771.9  338776.20  163726.80  48.33
773.2  339124.40  163898.29  48.33
774.5  339682.20  164167.81  48.33
775.8  340314.60  164475.77  48.33
777.1  340850.95  164732.48  48.33
778.4  341153.45  164870.24  48.33
779.6  341926.68  165227.40  48.32
780.9  342330.00  165444.00  48.33
782.2  342762.75  165657.07  48.33
783.5  343033.50  165789.87  48.33
784.8  343452.15  166023.45  48.34
786.0  343802.55  166191.48  48.34
787.3  344179.13  166364.26  48.34
788.6  344569.28  166555.08  48.34
789.9  344958.60  166765.95  48.34
791.2  345555.60  167061.97  48.35
792.4  346171.55  167372.31  48.35
793.7  346591.80  167587.84  48.35
795.0  347179.80  167884.75  48.36
796.2  347794.45  168177.09  48.36
797.5  348430.65  168504.22  48.36
798.8  349044.53  168812.29  48.36
800.0  349650.68  169113.77  48.37
801.3  350025.60  169313.81  48.37
802.6  350576.33  169590.09  48.37
803.8  351192.23  169894.71  48.38
805.1  351643.25  170105.13  48.37
806.4  352044.00  170317.16  48.38
807.7  352507.95  170557.11  48.38
808.9  353042.80  170824.31  48.39
810.2  353458.35  171061.66  48.40
811.4  353962.70  171285.81  48.39
812.7  354534.38  171583.75  48.40
814.0  355330.25  171957.62  48.39
815.2  355918.75  172271.63  48.40
816.5  356335.98  172453.82  48.40
817.7  356726.25  172696.93  48.41
819.0  357159.00  172931.00  48.42
820.2  357280.00  173002.13  48.42
821.5  357959.05  173307.49  48.42
822.7  358261.08  173487.76  48.42
824.0  358570.80  173630.52  48.42
825.2  359046.68  173873.79  48.43
826.5  359290.00  174003.52  48.43
827.7  359803.30  174279.52  48.44
829.0  360175.20  174448.49  48.43
830.2  360441.05  174598.06  48.44
831.5  360879.40  174829.59  48.45
832.7  361211.03  174985.09  48.44
834.0  361506.03  175133.95  48.45
835.2  361844.73  175314.44  48.45
836.4  362139.80  175464.59  48.45
837.7  362489.60  175658.59  48.46
838.9  362889.18  175887.52  48.47
840.1  363210.08  176067.90  48.48
841.4  363647.90  176276.20  48.47
842.6  364024.40  176467.25  48.48
843.8  364257.60  176636.03  48.49
845.1  364765.10  176886.74  48.49
846.3  365107.50  177086.65  48.50
847.5  365460.90  177283.96  48.51
848.8  365856.00  177506.08  48.52
850.0  366251.90  177683.75  48.51
851.2  366741.00  177930.72  48.52
852.5  367024.40  178102.43  48.53
853.7  367488.00  178358.70  48.53
854.9  367912.60  178584.57  48.54
856.1  368358.90  178792.21  48.54
857.4  368561.05  178877.13  48.53
858.6  368993.75  179112.43  48.54
859.8  369352.50  179311.25  48.55
861.0  369813.60  179496.72  48.54
862.2  370158.60  179715.51  48.55
863.5  370473.35  179868.95  48.55
864.7  370986.00  180115.76  48.55
865.9  371330.60  180289.97  48.55
867.1  371639.80  180431.67  48.55
868.3  371929.65  180647.98  48.57
869.5  372424.95  180864.02  48.56
870.8  372861.00  181070.40  48.56
872.0  373325.10  181301.35  48.56
873.2  373635.15  181485.14  48.57
874.4  374104.58  181695.15  48.57
875.6  374463.85  181865.73  48.57
876.8  374861.20  182075.44  48.57
878.0  375345.05  182275.46  48.56
879.2  375809.55  182491.20  48.56
880.4  376228.88  182715.05  48.56
881.6  376612.48  182918.81  48.57
882.8  376982.40  183069.87  48.56
884.0  377553.58  183331.22  48.56
885.2  377987.00  183515.17  48.55
886.5  378589.85  183789.19  48.55
887.7  378915.23  183963.09  48.55
888.8  379521.45  184241.63  48.55
890.0  379969.50  184480.89  48.55
891.2  380515.70  184701.44  48.54
892.4  380955.23  184982.00  48.56
893.6  381546.00  185210.39  48.54
894.8  382398.00  185581.63  48.53
896.0  383105.00  185901.87  48.53
897.2  383857.50  186280.03  48.53
898.4  384443.40  186608.84  48.54
899.6  384960.75  186836.50  48.53
900.8  385222.95  186967.72  48.53
902.0  385340.85  187019.90  48.53
903.2  385589.33  187082.63  48.52
904.3  385900.50  187199.36  48.51
905.5  386406.18  187424.32  48.50
906.7  386921.50  187623.07  48.49
907.9  387249.45  187832.68  48.50
909.1  387459.45  187898.76  48.50
910.2  387486.60  187932.58  48.50
911.4  387597.60  187978.44  48.50
912.6  387744.50  187981.13  48.48
913.8  387912.30  188024.92  48.47
915.0  388219.65  188141.38  48.46
916.2  388362.00  188130.80  48.44
917.3  388122.98  188104.53  48.47
918.5  388348.50  188072.56  48.43
919.7  388467.15  188116.50  48.43
920.8  388433.00  188132.82  48.43
922.0  388484.25  188039.13  48.40
923.2  388615.50  188060.60  48.39
924.4  388695.38  188060.85  48.38
925.5  388771.30  188076.83  48.38
926.7  389110.88  188219.75  48.37
927.9  389986.20  188500.56  48.34
929.0  391419.00  189117.18  48.32
930.2  393412.10  190066.63  48.31
931.4  395780.18  191122.65  48.29
932.5  398419.75  192306.02  48.27
933.7  399746.43  192825.74  48.24
934.9  400316.88  193019.75  48.22
936.0  399644.38  192617.10  48.20
937.2  397410.90  191458.74  48.18
938.3  395644.05  190439.57  48.13
939.5  394066.80  189571.68  48.11
940.7  394166.70  189456.72  48.07
941.8  395407.95  190020.36  48.06
943.0  396859.50  190554.70  48.02
944.2  397446.40  190759.66  48.00
945.3  396990.75  190387.60  47.96
946.5  395941.50  189826.74  47.94
947.6  396083.90  189632.08  47.88
948.8  395811.00  189316.66  47.83
949.9  395984.40  189109.20  47.76
951.1  395234.78  188707.39  47.75
952.2  394944.00  188387.20  47.70
953.4  394811.25  187989.57  47.62
954.5  394453.80  187714.80  47.59
955.7  394342.20  187382.16  47.52
956.8  393963.20  187016.31  47.47
958.0  393384.00  186591.60  47.43
959.1  393212.95  186238.17  47.36
960.3  392567.33  185850.46  47.34
961.4  392402.15  185669.78  47.32
962.6  392231.00  185566.50  47.31
963.7  392029.35  185302.15  47.27
964.9  392101.05  185122.57  47.21
966.0  391677.53  184891.68  47.21
967.2  391734.45  184834.56  47.18
968.3  391015.35  184626.54  47.22
969.5  390845.85  184482.22  47.20
970.6  390933.65  184553.02  47.21
971.8  391049.05  184525.65  47.19
972.9  390905.70  184379.27  47.17
974.0  391405.90  184459.40  47.13
975.2  391270.38  184434.92  47.14
976.3  390792.25  184425.26  47.19
977.5  390654.78  184448.55  47.22
978.6  390497.60  184366.08  47.21
979.7  390747.00  184274.02  47.16
980.9  390501.05  184097.65  47.14
982.0  390679.30  183916.84  47.08
983.2  389324.85  183864.88  47.23
984.3  388817.00  183659.39  47.24
985.4  388802.40  183523.99  47.20
986.6  388741.13  183336.78  47.16
987.7  390030.55  183579.60  47.07
988.9  389511.00  183380.40  47.08
990.0  389319.50  183574.45  47.15
993.1  391963.19  184298.38  47.02
996.9  390646.38  184159.11  47.14
1000.7  390583.32  184566.74  47.25
1004.5  390645.33  184956.75  47.35
1008.4  390155.13  185165.48  47.46
1012.2  389870.21  185420.46  47.56
1016.0  389425.80  185583.38  47.66
1019.8  388686.38  185572.57  47.74
1023.7  387460.30  185282.41  47.82
1027.5  385817.60  184743.92  47.88
1031.3  384851.90  184453.29  47.93
1035.1  383805.98  184110.55  47.97
1038.9  383331.48  184001.49  48.00
1042.7  383002.92  183967.16  48.03
1046.5  382879.83  183981.59  48.05
1050.3  382857.76  184023.67  48.07
1054.2  382470.08  183921.78  48.09
1058.0  382053.64  183750.43  48.10
1061.8  381973.87  183754.66  48.11
1065.6  381483.40  183473.63  48.09
1069.4  380684.67  183099.63  48.10
1073.2  379359.74  182450.54  48.09
1077.0  378615.25  182039.67  48.08
1080.8  378661.46  181974.04  48.06
1084.6  378614.83  181851.57  48.03
1088.4  378846.98  181879.88  48.01
1092.2  378378.00  181535.71  47.98
1096.0  377700.76  181075.08  47.94
1099.8  377044.20  180588.28  47.90
1103.6  376123.75  179981.29  47.85
1107.4  374959.57  179249.22  47.80
1111.2  374642.50  178920.46  47.76
1114.9  374073.00  178434.63  47.70
1118.7  373772.03  178017.79  47.63
1122.5  373392.93  177485.46  47.53
1126.3  372416.92  176594.53  47.42
1130.1  372016.93  175776.04  47.25
1133.9  370344.10  174075.96  47.00
1137.7  368769.30  172230.79  46.70
1141.4  366685.69  169972.18  46.35
1145.2  365726.38  168135.05  45.97
1149.0  364412.71  166276.53  45.63
1152.8  362578.95  164427.72  45.35
1156.6  360727.03  162893.05  45.16
1160.3  358916.67  161664.87  45.04
1164.1  356569.27  160392.36  44.98
1167.9  354870.83  159570.11  44.97
1171.7  353548.13  158969.63  44.96
1175.4  352062.40  158327.13  44.97
1179.2  350625.40  157684.83  44.97
1183.0  350266.67  157473.49  44.96
1186.7  350200.67  157402.89  44.95
1190.5  349814.33  157187.75  44.93
1194.3  348862.87  156750.61  44.93
1198.0  347373.68  156140.03  44.95
1201.8  345646.13  155435.02  44.97
1205.6  344558.67  155046.15  45.00
1209.3  343944.37  154904.72  45.04
1213.1  343483.73  154794.25  45.07
1216.8  342877.88  154656.27  45.11
1220.6  341777.33  154280.62  45.14
1224.3  340533.00  153837.69  45.18
1228.1  339034.40  153311.73  45.22
1231.9  337427.40  152696.76  45.25
1235.6  335706.23  151994.24  45.28
1239.4  334076.63  151401.74  45.32
1243.1  332686.86  150827.14  45.34
1246.9  331379.40  150276.16  45.35
1250.6  330278.20  149816.49  45.36
1254.3  329082.69  149290.71  45.37
1258.1  327828.55  148721.58  45.37
1261.8  326347.20  148043.86  45.36
1265.6  325108.67  147421.82  45.35
1269.3  324249.15  146936.13  45.32
1273.1  324593.27  146946.85  45.27
1276.8  324392.00  146686.81  45.22
1280.6  323274.40  145998.98  45.16
1284.3  321276.00  144866.93  45.09
1288.0  319960.83  143983.67  45.00
1291.8  319424.86  143389.17  44.89
1295.5  318649.47  142641.20  44.76
1299.2  317514.43  141672.04  44.62
1302.9  315865.84  140397.21  44.45
1306.7  314088.37  138997.56  44.25
1310.4  312373.14  137499.56  44.02
1314.1  310769.98  135994.25  43.76
1317.9  309337.50  134440.94  43.46
1321.6  307798.36  132742.86  43.13
1325.3  306083.40  130878.69  42.76
1329.0  304749.67  129133.49  42.37
1332.8  302779.40  127016.02  41.95
1336.5  301104.47  125007.83  41.52
1340.2  300952.17  123647.33  41.09
1343.9  300927.29  122339.94  40.65
1347.6  301120.50  121137.32  40.23
1351.4  302591.00  120483.96  39.82
1355.1  304627.77  120062.67  39.41
1358.8  306336.00  119404.44  38.98
1362.5  306613.30  118002.02  38.49
1366.2  304621.30  115432.76  37.89
1369.9  301402.75  112033.40  37.17
1373.6  298524.57  108233.89  36.26
1377.3  296948.40  104183.87  35.08
1381.0  296415.83  99606.43  33.60
1384.8  294466.25  93601.29  31.79
1388.4  291232.32  86648.69  29.75
1392.2  288953.17  79656.92  27.57
1395.9  287456.45  72908.15  25.36
1399.6  285610.90  66559.50  23.30
1403.3  284154.27  61066.04  21.49
1407.0  282443.00  56433.03  19.98
1410.7  280629.53  52727.71  18.79
1414.3  278727.40  49870.16  17.89
1418.1  277023.83  47787.19  17.25
1421.7  275659.07  46311.87  16.80
1425.4  274293.18  45291.10  16.51
1429.1  273029.25  44619.47  16.34
1432.8  271356.16  44146.83  16.27
1436.5  270508.03  43997.91  16.26
1440.2  269863.73  44015.37  16.31
1443.9  268764.93  44038.38  16.39
1447.6  267220.80  44055.98  16.49
1451.2  265987.33  44151.76  16.60
1454.9  264534.15  44281.53  16.74
1458.6  263289.22  44565.93  16.93
1462.3  262076.10  45016.48  17.18
1466.0  260687.12  45616.43  17.50
1469.7  258942.56  46344.87  17.90
1473.3  257877.50  47336.70  18.36
1477.0  255817.73  48256.76  18.86
1480.7  254146.33  49301.75  19.40
1484.4  252097.24  50290.14  19.95
1488.0  250492.00  51390.60  20.52
1491.7  248875.47  52468.85  21.08
1495.4  247171.38  53529.14  21.66
1499.0  245586.50  54574.09  22.22
1502.7  244304.83  55673.05  22.79
1506.4  242856.85  56690.80  23.34
1510.0  241403.10  57662.10  23.89
1513.7  239899.92  58569.29  24.41
1517.4  238506.67  59466.95  24.93
1521.0  237226.13  60348.00  25.44
1524.7  235966.25  61171.52  25.92
1528.3  234644.50  61947.32  26.40
1532.0  233390.85  62676.66  26.85
1535.7  231969.22  63302.07  27.29
1539.3  230695.88  63925.10  27.71
1543.0  229694.64  64581.08  28.12
1546.6  228995.00  65274.46  28.50
1550.3  227989.35  65832.50  28.88
1553.9  226904.97  66321.98  29.23
1557.6  225636.40  66717.00  29.57
1561.2  224343.90  67044.36  29.88
1564.9  223008.30  67336.54  30.19
1568.5  221633.53  67577.90  30.49
1572.2  220486.65  67836.97  30.77
1575.8  219366.00  68077.78  31.03
1579.5  218317.55  68308.86  31.29
1583.1  217248.17  68507.37  31.53
1586.8  215894.00  68573.56  31.76
1590.4  214681.93  68659.09  31.98
1594.0  213343.33  68670.77  32.19
1597.7  212474.62  68824.51  32.39
1601.3  211519.35  68928.75  32.59
1604.9  210515.41  68979.16  32.77
1608.6  209162.70  68877.69  32.93
1612.2  207808.43  68755.67  33.09
1615.8  206396.78  68580.43  33.23
1619.5  205145.58  68439.29  33.36
1623.1  203787.63  68245.12  33.49
1626.7  202553.65  68065.79  33.60
1630.3  201332.42  67872.25  33.71
1634.0  200186.00  67675.56  33.81
1637.6  199184.00  67491.42  33.88
1641.2  198147.15  67254.23  33.94
1644.8  196910.01  66913.36  33.98
1648.5  195775.53  66588.72  34.01
1652.1  194805.60  66274.25  34.02
1655.7  193872.60  65961.03  34.02
1659.3  193034.72  65694.89  34.03
1662.9  191590.00  65232.78  34.05
1666.6  190096.93  64767.18  34.07
1670.2  188662.83  64286.75  34.07
1673.8  187166.53  63756.25  34.06
1677.4  185993.90  63311.98  34.04
1681.0  185156.63  62960.60  34.00
1684.6  184731.08  62722.92  33.95
1688.2  184034.90  62342.65  33.88
1691.8  183332.57  61975.52  33.80
1695.4  182881.80  61645.81  33.71
1699.0  182514.03  61320.14  33.60
1702.6  182162.33  60986.06  33.48
1706.2  181530.59  60549.76  33.36
1709.8  180549.72  60002.60  33.23
1713.4  179799.37  59510.87  33.10
1717.0  178902.75  58960.67  32.96
1720.6  178053.53  58401.35  32.80
1724.2  177309.00  57848.12  32.63
1727.8  176581.65  57282.45  32.44
1731.4  176100.38  56767.25  32.24
1735.0  175935.10  56347.56  32.03
1738.6  175743.75  55885.59  31.80
1742.2  175197.64  55301.49  31.57
1745.8  174564.30  54676.26  31.32
1749.4  173616.30  53934.69  31.07
1753.0  172093.80  53010.09  30.80
1756.6  170428.13  52054.34  30.54
1760.1  169087.36  51212.21  30.29
1763.7  167317.33  50266.07  30.04
1767.3  165832.40  49444.00  29.82
1770.9  164559.97  48709.99  29.60
1774.5  163058.19  47957.12  29.41
1778.0  161897.59  47343.02  29.24
1781.6  160786.95  46791.38  29.10
1785.2  159595.55  46258.63  28.98
1788.8  158429.20  45767.86  28.89
1792.3  157162.30  45288.70  28.82
1795.9  156620.75  45044.36  28.76
1799.5  156369.00  44904.15  28.72
1803.1  157354.52  45115.82  28.67
1806.6  159541.32  45661.52  28.62
1810.2  161420.23  46125.94  28.58
1813.8  162315.45  46303.58  28.53
1817.3  161831.80  46095.15  28.48
1820.9  160548.00  45649.54  28.43
1824.5  159083.53  45128.26  28.37
1828.0  157918.29  44647.97  28.27
1831.6  157385.58  44306.35  28.15
1835.2  157065.83  43946.12  27.98
1838.7  156814.67  43505.42  27.74
1842.3  156555.00  42974.05  27.45
1845.8  155378.63  42026.11  27.05
1849.4  154750.00  41075.32  26.54
1852.9  153894.13  39860.34  25.90
1856.5  152834.35  38352.55  25.09
1860.0  151772.72  36571.28  24.10
1863.6  151722.08  34745.16  22.90
1867.1  152309.15  32740.98  21.50
1870.7  153129.03  30360.06  19.83
1874.2  152138.70  27275.25  17.93
1877.8  149561.53  23866.26  15.96
1881.3  146634.63  20478.63  13.97
1884.9  144772.38  17519.86  12.10
1888.4  143233.49  14911.52  10.41
1891.9  141614.47  12776.61  9.02
1895.5  140160.32  11156.60  7.96
1899.0  139399.50  10050.29  7.21
1901.3  180332.67  9390.78  5.21
1904.1  180180.75  8718.25  4.84
1906.8  179070.00  8149.80  4.55
1909.6  176758.05  7686.93  4.35
1912.4  174589.92  7353.50  4.21
1915.1  173015.70  7108.93  4.11
1917.9  171383.33  6930.66  4.04
1920.6  169950.07  6824.10  4.02
1923.3  168466.43  6742.63  4.00
1926.1  166610.03  6672.91  4.01
1928.8  164868.00  6624.45  4.02
1931.6  163464.98  6622.79  4.05
1934.3  162200.78  6638.81  4.09
1937.0  160978.43  6687.56  4.15
1939.8  159653.08  6726.05  4.21
1942.5  158004.00  6776.00  4.29
1945.2  155945.35  6813.40  4.37
1947.9  154272.53  6882.86  4.46
1950.7  152955.77  6973.40  4.56
1953.4  151042.80  7051.08  4.67
1956.1  149574.33  7159.81  4.79
1958.8  148256.12  7282.53  4.91
1961.5  146703.20  7406.00  5.05
1964.2  145117.70  7531.77  5.19
1966.9  143478.70  7665.35  5.34
1969.6  142173.00  7827.00  5.51
1972.3  140726.80  7992.20  5.68
1975.0  139635.30  8177.40  5.86
1977.7  138483.38  8369.96  6.04
1980.4  137294.77  8565.03  6.24
1983.1  136163.05  8768.97  6.44
1985.8  135206.70  8987.10  6.65
1988.4  134134.00  9192.44  6.85
1991.1  133169.17  9421.85  7.08
1993.8  132274.45  9659.28  7.30
1996.5  131628.20  9909.17  7.53
1999.1  130921.63  10150.43  7.75
2001.8  130207.93  10403.17  7.99
2004.5  129507.80  10648.15  8.22
2007.1  128772.55  10890.35  8.46
2009.8  127989.17  11125.49  8.69
2012.4  127388.80  11368.25  8.92
2015.1  126832.30  11611.83  9.16
2017.8  126029.40  11839.18  9.39
2020.4  125518.98  12077.70  9.62
2023.1  125131.53  12325.52  9.85
2025.7  124886.67  12575.33  10.07
2028.3  124531.33  12815.11  10.29
2031.0  124119.57  13042.37  10.51
2033.6  123827.10  13270.40  10.72
2036.2  123557.40  13496.60  10.92
2038.9  122939.70  13679.30  11.13
2041.5  122565.05  13879.84  11.32
2044.1  122000.10  14044.70  11.51
2046.8  121608.60  14227.40  11.70
2049.4  120947.40  14372.40  11.88
2052.0  120633.53  14561.38  12.07
2054.6  120225.00  14726.25  12.25
2057.2  119655.40  14869.95  12.43
2059.8  119314.80  15044.62  12.61
2062.4  118407.20  15143.75  12.79
2065.0  117865.07  15289.15  12.97
2067.6  116942.80  15373.29  13.15
2070.2  116332.63  15495.33  13.32
2072.8  115670.17  15611.55  13.50
2075.4  115220.00  15747.08  13.67
2078.0  114578.58  15850.99  13.83
2080.6  114012.80  15963.20  14.00
2083.2  113291.63  16060.54  14.18
2085.8  112778.00  16167.19  14.34
2088.4  112086.17  16244.50  14.49
2090.9  111275.15  16304.96  14.65
2093.5  110354.80  16343.99  14.81
2096.1  109563.30  16398.48  14.97
2098.7  108781.58  16448.26  15.12
2101.2  107804.27  16462.33  15.27
2103.8  107114.33  16514.73  15.42
2106.4  106433.13  16567.13  15.57
2108.9  105743.20  16607.89  15.71
2111.5  104878.60  16628.27  15.85
2114.0  104223.60  16669.02  15.99
2116.6  103696.25  16721.25  16.13
2119.1  103131.07  16761.86  16.25
2121.7  102628.75  16814.58  16.38
2124.2  102210.57  16872.91  16.51
2126.8  101386.02  16858.14  16.63
2129.3  100980.00  16910.67  16.75
2131.9  100364.00  16922.40  16.86
2134.4  99907.65  16956.60  16.97
2136.9  99511.10  16987.89  17.07
2139.4  98952.00  16985.58  17.17
2142.0  98473.20  16997.40  17.26
2144.5  98175.90  17040.53  17.36
2147.0  97927.20  17083.51  17.45
2149.5  97418.00  17077.56  17.53
2152.1  97253.57  17113.25  17.60
2154.6  97176.53  17154.14  17.65
2157.1  96610.33  17125.11  17.73
2159.6  96174.33  17100.89  17.78
2162.1  95995.90  17111.03  17.82
2164.6  95735.60  17109.78  17.87
2167.1  95396.47  17087.12  17.91
2169.6  95060.70  17066.20  17.95
2172.1  94577.03  17010.88  17.99
2174.6  94232.73  16982.71  18.02
2177.1  93789.52  16932.80  18.05
2179.5  93353.00  16894.22  18.10
2182.0  92864.20  16836.23  18.13
2184.5  92313.23  16761.76  18.16
2187.0  91682.57  16681.28  18.19
2189.5  90983.10  16589.51  18.23
2191.9  90183.50  16469.83  18.26
2194.4  89540.80  16384.62  18.30
2196.9  88780.80  16275.20  18.33
2199.3  88102.00  16165.89  18.35
2201.8  87181.47  16014.58  18.37
2204.3  86700.80  15942.27  18.39
2206.7  86049.60  15838.80  18.41
2209.2  85560.02  15767.21  18.43
2211.6  84932.10  15658.50  18.44
2214.1  84634.70  15604.92  18.44
2216.5  84036.00  15489.38  18.43
2219.0  83688.33  15419.85  18.43
2221.4  83290.08  15337.78  18.41
2223.9  82804.17  15235.30  18.40
2226.3  82278.58  15109.70  18.36
2228.7  81715.40  14973.25  18.32
2231.1  81110.70  14826.90  18.28
2233.6  80499.73  14668.22  18.22
2236.0  79928.33  14514.70  18.16
2238.4  79412.67  14365.95  18.09
2240.9  78950.13  14214.60  18.00
2243.3  78393.87  14045.73  17.92
2245.7  77809.00  13860.35  17.81
2248.1  77311.43  13687.56  17.70
2250.5  76781.82  13520.76  17.61
2252.9  76145.33  13315.47  17.49
2255.3  75560.30  13114.10  17.36
2257.7  75080.00  12943.33  17.24
2260.1  74567.73  12772.43  17.13
2262.5  73950.00  12566.67  16.99
2264.9  73417.43  12376.01  16.86
2267.3  72790.00  12176.67  16.73
2269.7  72280.13  11993.18  16.59
2272.1  71709.32  11809.65  16.47
2274.5  71121.27  11633.91  16.36
2276.8  70627.52  11465.75  16.23
2279.2  70018.35  11282.80  16.11
2281.6  69590.87  11133.73  16.00
2284.0  69114.30  10978.70  15.88
2286.3  68633.07  10812.27  15.75
2288.7  68218.15  10661.95  15.63
2291.1  67642.33  10495.99  15.52
2293.4  67174.80  10331.69  15.38
2295.8  66527.70  10152.37  15.26
2298.2  65939.85  9967.05  15.12
2300.5  65246.40  9780.75  14.99
2302.9  64490.33  9585.89  14.86
2305.2  63757.00  9383.30  14.72
2307.6  63086.42  9195.59  14.58
2309.9  62279.00  9007.22  14.46
2312.2  61679.67  8848.78  14.35
2314.6  61054.65  8680.20  14.22
2316.9  60309.45  8504.25  14.10
2319.2  59722.37  8348.62  13.98
2321.6  59081.17  8182.06  13.85
2323.9  58489.58  8034.72  13.74
2326.2  57925.87  7891.08  13.62
2328.6  57401.85  7739.97  13.48
2330.9  56878.50  7595.00  13.35
2333.2  56409.17  7468.31  13.24
2335.5  55939.60  7340.20  13.12
2337.8  55447.90  7203.27  12.99
2340.1  54854.82  7052.30  12.86
2342.4  54394.17  6922.50  12.73
2344.8  53961.08  6790.17  12.58
2347.1  53385.73  6653.11  12.46
2349.4  52835.93  6521.87  12.34
2351.6  52252.05  6371.30  12.19
2353.9  51757.37  6248.54  12.07
2356.2  51192.25  6110.46  11.94
2358.5  50590.40  5980.80  11.82
2360.8  49996.80  5853.87  11.71
2363.1  49544.02  5727.98  11.56
2365.4  49064.60  5608.57  11.43
2367.7  48586.80  5491.00  11.30
2369.9  48044.20  5366.23  11.17
2372.2  47391.73  5240.26  11.06
2374.5  46789.05  5116.65  10.94
2376.7  46153.02  4979.68  10.79
2379.0  45521.23  4854.98  10.67
2381.3  44870.00  4725.00  10.53
2383.5  44352.00  4611.20  10.40
2385.8  43724.93  4494.86  10.28
2388.0  43176.20  4377.80  10.14
2390.3  42672.53  4268.04  10.00
2392.5  42168.00  4172.00  9.89
2394.8  41672.40  4061.57  9.75
2397.0  41180.53  3951.42  9.60
2399.3  40704.52  3849.93  9.46
2401.5  40253.50  3760.75  9.34
2403.8  39696.62  3666.26  9.24
2406.0  39187.00  3576.00  9.13
2408.2  38758.87  3482.35  8.98
2410.4  38323.83  3395.47  8.86
2412.7  37901.07  3296.66  8.70
2414.9  37532.55  3208.88  8.55
2417.1  37122.10  3124.20  8.42
2419.3  36684.80  3054.93  8.33
2421.6  36282.92  2979.44  8.21
2423.8  35891.73  2908.85  8.10
2426.0  35509.42  2830.37  7.97
2428.2  35136.27  2770.13  7.88
2430.4  34816.90  2704.01  7.77
2432.6  34546.67  2626.67  7.60
2434.8  34245.40  2557.49  7.47
2437.0  33852.00  2498.60  7.38
2439.2  33480.78  2433.00  7.27
2441.4  33156.27  2367.65  7.14
2443.6  32925.12  2321.20  7.05
2445.7  32653.60  2262.98  6.93
2447.9  32356.25  2208.11  6.82
2450.1  32034.00  2159.02  6.74
2452.3  31649.57  2089.27  6.60
2454.5  31288.43  2028.22  6.48
2456.6  30901.60  1978.31  6.40
2458.8  30530.50  1935.27  6.34
2461.0  30217.33  1893.39  6.27
2463.1  29900.25  1838.15  6.15
2465.3  29617.87  1790.14  6.04
2467.5  29352.50  1760.17  6.00
2469.6  29102.42  1725.36  5.93
2471.8  28816.98  1676.86  5.82
2473.9  28492.42  1629.00  5.72
2476.1  28103.83  1592.50  5.67
2478.2  27739.90  1558.88  5.62
2480.4  27445.80  1524.77  5.56
2482.5  27095.83  1486.40  5.49
2484.6  26772.17  1459.64  5.45
2486.8  26485.90  1433.93  5.41
2488.9  26200.33  1388.93  5.30
2491.1  25830.93  1359.25  5.26
2493.2  25418.93  1330.56  5.23
2495.3  25012.00  1304.05  5.21
2497.4  24649.10  1266.53  5.14
2499.5  24339.73  1235.33  5.08
2501.7  24206.30  1221.54  5.05
2503.8  24122.15  1214.75  5.04
2505.9  24053.33  1207.22  5.02
2508.0  24050.38  1202.81  5.00
2510.1  24088.85  1192.22  4.95
2512.2  24222.00  1192.75  4.92
2514.3  24393.58  1183.30  4.85
2516.4  24625.00  1208.27  4.91
