/*** Spectra Vista SIG Data ***/
name= 51_20220722_ACRU_21_avg.sig
comm= Averaged Ref/Tar of files: HR.072222.0030_moc.sig,HR.072222.0031_moc.sig,HR.072222.0032_moc.sig
data=
337.3  3275.25  324.22  9.90
338.8  3367.00  327.08  9.71
340.3  3560.60  337.32  9.47
341.8  3703.73  329.22  8.89
343.2  3907.20  319.68  8.18
344.7  4094.40  301.39  7.36
346.2  4289.25  299.57  6.98
347.7  4443.73  288.38  6.49
349.2  4611.60  297.36  6.45
350.6  4884.43  303.59  6.22
352.1  5144.40  300.09  5.83
353.6  5413.20  305.36  5.64
355.1  5657.40  305.32  5.40
356.6  5932.28  314.64  5.30
358.0  6220.50  314.75  5.06
359.5  6489.00  321.36  4.95
361.0  6822.90  327.18  4.80
362.5  7172.38  343.49  4.79
364.0  7541.53  347.92  4.61
365.4  7868.00  355.93  4.52
366.9  8204.63  364.65  4.44
368.4  8537.08  378.21  4.43
369.9  8918.25  392.76  4.40
371.3  9318.30  409.40  4.39
372.8  9743.85  428.34  4.40
374.3  10131.88  437.17  4.31
375.8  10564.40  438.39  4.15
377.2  10948.30  451.92  4.13
378.7  11351.80  455.51  4.01
380.2  11755.30  455.51  3.87
381.7  12296.38  468.43  3.81
383.1  12774.30  477.91  3.74
384.6  13271.70  496.34  3.74
386.1  13728.70  511.67  3.73
387.6  14202.65  513.85  3.62
389.0  14713.20  521.71  3.55
390.5  15213.15  527.46  3.47
392.0  15764.20  536.05  3.40
393.4  16343.05  557.03  3.41
394.9  16886.70  577.68  3.42
396.4  17413.88  583.05  3.35
397.9  17963.13  594.50  3.31
399.3  18512.58  611.18  3.30
400.8  19092.55  611.49  3.20
402.2  19713.65  638.30  3.24
403.7  20295.23  645.21  3.18
405.2  20905.03  666.06  3.19
406.6  21460.00  677.44  3.16
408.1  22057.60  693.07  3.14
409.6  22652.40  699.47  3.09
411.0  23292.85  723.05  3.10
412.5  23927.93  738.59  3.09
414.0  24572.25  755.23  3.07
415.4  25261.13  781.75  3.09
416.9  25924.88  804.41  3.10
418.4  26593.20  824.19  3.10
419.8  27300.00  849.33  3.11
421.3  28003.08  872.24  3.11
422.7  28779.60  897.84  3.12
424.2  29548.13  927.00  3.14
425.7  30285.40  951.92  3.14
427.1  31001.18  981.15  3.16
428.6  31790.50  1006.47  3.17
430.0  32504.85  1035.95  3.19
431.5  33372.30  1066.64  3.20
432.9  34222.40  1099.73  3.21
434.4  35110.58  1126.90  3.21
435.9  35910.00  1149.87  3.20
437.3  36726.25  1182.50  3.22
438.8  37521.30  1214.51  3.24
440.2  38363.33  1248.68  3.25
441.7  39315.60  1281.04  3.26
443.1  40213.75  1316.17  3.27
444.6  41134.00  1351.92  3.29
446.0  42051.98  1387.46  3.30
447.5  42975.63  1426.92  3.32
448.9  43885.80  1463.72  3.34
450.4  44858.80  1500.47  3.34
451.8  45708.00  1535.73  3.36
453.3  46586.23  1577.72  3.39
454.7  47574.93  1617.89  3.40
456.2  48416.73  1655.77  3.42
457.6  49383.00  1688.58  3.42
459.1  50328.53  1730.47  3.44
460.5  51239.63  1763.72  3.44
462.0  52260.60  1799.73  3.44
463.4  53251.90  1841.28  3.46
464.8  54223.50  1877.75  3.46
466.3  55188.38  1916.75  3.47
467.7  56159.25  1953.61  3.48
469.2  57200.80  1994.90  3.49
470.6  58152.95  2032.57  3.50
472.0  59157.23  2069.96  3.50
473.5  60130.13  2105.57  3.50
474.9  61118.25  2145.10  3.51
476.4  62236.80  2194.56  3.53
477.8  63307.00  2242.67  3.54
479.2  64293.00  2287.13  3.56
480.7  65383.58  2331.44  3.57
482.1  66484.45  2377.51  3.58
483.6  67626.00  2429.53  3.59
485.0  68698.35  2480.05  3.61
486.4  69854.55  2539.46  3.64
487.9  70916.63  2605.20  3.67
489.3  72049.43  2677.99  3.72
490.7  73094.90  2748.67  3.76
492.2  74308.50  2832.20  3.81
493.6  75388.90  2914.37  3.87
495.0  76474.13  3010.80  3.94
496.5  77630.75  3122.84  4.02
497.9  78702.03  3244.15  4.12
499.3  79832.00  3386.99  4.24
500.7  81058.45  3547.25  4.38
502.2  82168.80  3723.97  4.53
503.6  83366.00  3932.27  4.72
505.0  84413.30  4164.51  4.93
506.5  85680.23  4450.23  5.19
507.9  86859.68  4767.72  5.49
509.3  88222.80  5138.56  5.82
510.7  89461.13  5549.70  6.20
512.2  90830.63  6025.46  6.63
513.6  92241.80  6562.73  7.11
515.0  93628.95  7163.71  7.65
516.4  94958.33  7818.93  8.23
517.8  96516.13  8550.33  8.86
519.3  97779.03  9310.14  9.52
520.7  99277.30  10132.86  10.21
522.1  100550.13  10969.44  10.91
523.5  101887.00  11835.39  11.62
524.9  103285.80  12701.94  12.30
526.3  104640.20  13550.23  12.95
527.8  106088.40  14398.56  13.57
529.2  107205.50  15207.93  14.19
530.6  108692.90  16045.28  14.76
532.0  110334.00  16854.13  15.28
533.4  111627.23  17547.95  15.72
534.8  112544.75  18132.36  16.11
536.3  114203.70  18801.32  16.46
537.7  116134.20  19477.92  16.77
539.1  117506.55  20032.23  17.05
540.5  118668.40  20534.81  17.30
541.9  120364.05  21111.79  17.54
543.3  121595.38  21595.86  17.76
544.7  122869.20  22074.96  17.97
546.1  124577.48  22623.66  18.16
547.5  125764.80  23061.55  18.34
549.0  127457.00  23560.53  18.49
550.4  128902.50  23982.75  18.61
551.8  130383.70  24360.46  18.68
553.2  131869.78  24687.48  18.72
554.6  133172.00  24917.01  18.71
556.0  134653.50  25116.00  18.65
557.4  136176.43  25263.21  18.55
558.8  137758.50  25361.64  18.41
560.2  139149.50  25363.42  18.23
561.6  140758.35  25341.09  18.00
563.0  142281.93  25241.96  17.74
564.4  143807.05  25093.53  17.45
565.8  145275.63  24880.92  17.13
567.2  146941.75  24653.33  16.78
568.6  148400.25  24349.85  16.41
570.0  149775.83  23979.64  16.01
571.4  151462.35  23624.90  15.60
572.8  153135.63  23270.53  15.20
574.2  154705.60  22907.73  14.81
575.6  156183.75  22557.00  14.44
577.0  157657.60  22230.87  14.10
578.4  159318.25  21967.40  13.79
579.8  160764.75  21709.17  13.50
581.2  162443.55  21506.35  13.24
582.5  163776.60  21287.76  13.00
583.9  165247.20  21112.56  12.78
585.3  166973.85  20992.77  12.57
586.7  168398.10  20856.16  12.39
588.1  169847.00  20748.30  12.22
589.5  171438.75  20687.80  12.07
590.9  173004.80  20650.13  11.94
592.3  174746.20  20658.97  11.82
593.7  176119.13  20646.73  11.72
595.0  177703.20  20672.19  11.63
596.4  179098.50  20678.56  11.55
597.8  180526.53  20684.65  11.46
599.2  182028.00  20683.52  11.36
600.6  183698.45  20682.18  11.26
602.0  184942.80  20595.74  11.14
603.3  186678.35  20523.73  10.99
604.7  188291.08  20397.63  10.83
606.1  189722.40  20210.56  10.65
607.5  191301.65  20007.44  10.46
608.9  192934.60  19774.91  10.25
610.2  194254.20  19497.24  10.04
611.6  195794.10  19220.33  9.82
613.0  197285.85  18942.99  9.60
614.4  198636.60  18656.98  9.39
615.8  200026.13  18388.50  9.19
617.1  201507.60  18155.48  9.01
618.5  203085.60  17963.25  8.85
619.9  204517.28  17804.53  8.71
621.3  206075.25  17702.07  8.59
622.6  207613.50  17635.10  8.49
624.0  208992.15  17596.52  8.42
625.4  210405.53  17593.62  8.36
626.8  211913.98  17630.04  8.32
628.1  213196.50  17665.78  8.29
629.5  214990.25  17765.48  8.26
630.9  216548.48  17848.60  8.24
632.2  217874.13  17878.07  8.21
633.6  219439.75  17880.78  8.15
635.0  220916.80  17807.73  8.06
636.3  222408.80  17652.92  7.94
637.7  223737.88  17398.17  7.78
639.1  225312.50  17080.00  7.58
640.4  226717.23  16673.42  7.35
641.8  227874.80  16204.11  7.11
643.2  229404.18  15712.99  6.85
644.5  230734.75  15203.47  6.59
645.9  232396.20  14730.48  6.34
647.2  234202.85  14318.97  6.11
648.6  236054.25  13972.50  5.92
650.0  237492.00  13656.96  5.75
651.3  237882.15  13332.84  5.60
652.7  238867.15  13073.96  5.47
654.0  240770.60  12869.80  5.35
655.4  242234.90  12638.61  5.22
656.8  242549.50  12324.59  5.08
658.1  243798.00  12040.08  4.94
659.5  246112.65  11775.12  4.78
660.8  247815.00  11466.00  4.63
662.2  248684.80  11125.33  4.47
663.5  250250.70  10835.78  4.33
664.9  251564.30  10575.59  4.20
666.2  252280.80  10351.12  4.10
667.6  253946.88  10212.94  4.02
668.9  255073.10  10127.24  3.97
670.3  256149.00  10062.78  3.93
671.6  257667.75  10071.30  3.91
673.0  258818.25  10118.50  3.91
674.3  260006.50  10201.36  3.92
675.7  261301.78  10328.16  3.95
677.0  262383.83  10472.15  3.99
678.4  263683.30  10680.66  4.05
679.7  264740.50  10921.46  4.13
681.1  266025.83  11234.70  4.22
682.4  267122.70  11627.55  4.35
683.8  268360.30  12137.32  4.52
685.1  269349.75  12808.90  4.76
686.4  270618.00  13716.64  5.07
687.8  271850.50  14949.03  5.50
689.1  272874.00  16574.77  6.07
690.5  274189.80  18729.30  6.83
691.8  274981.63  21468.12  7.81
693.1  276284.70  24918.02  9.02
694.5  277436.25  29022.93  10.46
695.8  278642.00  33727.63  12.10
697.1  279779.50  38932.83  13.92
698.5  280844.40  44552.53  15.86
699.8  281918.28  50462.46  17.90
701.1  283052.03  56554.47  19.98
702.5  283791.75  62604.81  22.06
703.8  284737.50  68586.00  24.09
705.1  285851.48  74445.02  26.04
706.5  286892.25  80048.80  27.90
707.8  287868.00  85397.86  29.67
709.1  288729.23  90434.11  31.32
710.5  289845.48  95297.98  32.88
711.8  290702.80  99826.69  34.34
713.1  291661.70  104173.71  35.72
714.4  292553.70  108262.04  37.01
715.8  293356.50  112103.59  38.21
717.1  294662.40  115924.98  39.34
718.4  295590.40  119403.95  40.40
719.7  296692.48  122764.44  41.38
721.0  297247.50  125706.00  42.29
722.4  297998.25  128568.07  43.14
723.7  298934.70  131339.80  43.94
725.0  299970.00  133995.69  44.67
726.3  300924.80  136441.76  45.34
727.6  301472.60  138587.31  45.97
729.0  302357.83  140741.16  46.55
730.3  303101.10  142690.53  47.08
731.6  303982.65  144582.55  47.56
732.9  304786.13  146300.44  48.00
734.2  305558.00  147923.23  48.41
735.5  306577.80  149540.58  48.78
736.8  307341.60  150959.52  49.12
738.1  308190.50  152303.55  49.42
739.5  309125.73  153617.62  49.69
740.8  309829.03  154727.69  49.94
742.1  310579.40  155805.02  50.17
743.4  311325.00  156830.00  50.38
744.7  312321.05  157911.03  50.56
746.0  313173.90  158870.14  50.73
747.3  313702.25  159612.93  50.88
748.6  314433.25  160381.30  51.01
749.9  315198.00  161137.60  51.12
751.2  315944.30  161844.09  51.23
752.5  316859.55  162614.65  51.32
753.8  317515.28  163205.16  51.40
755.1  318214.00  163796.53  51.47
756.4  318791.18  164293.61  51.54
757.7  319757.73  164960.88  51.59
759.0  321518.50  166018.24  51.64
760.3  322687.20  166738.88  51.67
761.6  324227.40  167643.84  51.71
762.9  324798.50  168007.83  51.73
764.2  325167.20  168289.99  51.75
765.5  325489.10  168499.07  51.77
766.8  325937.60  168785.07  51.78
768.1  326471.00  169109.15  51.80
769.3  327099.50  169457.63  51.81
770.6  327797.60  169820.47  51.81
771.9  328520.50  170222.08  51.81
773.2  328928.80  170445.44  51.82
774.5  329557.80  170787.76  51.82
775.8  330245.95  171153.59  51.83
777.1  330852.50  171483.62  51.83
778.4  331237.23  171673.30  51.83
779.6  332028.25  172076.04  51.83
780.9  332550.00  172332.00  51.82
782.2  332992.00  172590.37  51.83
783.5  333304.00  172776.40  51.84
784.8  333896.40  173067.99  51.83
786.0  334301.80  173277.07  51.83
787.3  334736.63  173490.20  51.83
788.6  335180.90  173726.31  51.83
789.9  335685.00  173983.04  51.83
791.2  336336.88  174324.03  51.83
792.4  337070.45  174683.96  51.82
793.7  337573.80  174940.29  51.82
795.0  338216.18  175281.15  51.83
796.2  338895.95  175629.01  51.82
797.5  339645.23  176009.45  51.82
798.8  340343.95  176364.53  51.82
800.0  341017.33  176729.19  51.82
801.3  341506.00  176986.27  51.83
802.6  342141.08  177301.62  51.82
803.8  342790.68  177637.02  51.82
805.1  343328.13  177906.05  51.82
806.4  343814.40  178145.44  51.81
807.7  344389.73  178436.79  51.81
808.9  344980.15  178733.76  51.81
810.2  345508.80  179013.85  51.81
811.4  346022.90  179279.08  51.81
812.7  346653.13  179611.25  51.81
814.0  347511.75  180055.94  51.81
815.2  348153.25  180365.57  51.81
816.5  348599.65  180581.89  51.80
817.7  349056.10  180838.43  51.81
819.0  349598.70  181111.19  51.81
820.2  349756.00  181197.87  51.81
821.5  350457.85  181576.67  51.81
822.7  350790.70  181758.00  51.81
824.0  351135.00  181929.24  51.81
825.2  351641.25  182188.98  51.81
826.5  351962.38  182336.52  51.81
827.7  352551.53  182623.07  51.80
829.0  352963.90  182816.20  51.79
830.2  353221.35  182958.41  51.80
831.5  353707.95  183221.35  51.80
832.7  353979.68  183370.74  51.80
834.0  354316.25  183520.30  51.80
835.2  354648.80  183697.43  51.80
836.4  354990.90  183844.10  51.79
837.7  355389.40  184063.20  51.79
838.9  355784.50  184266.26  51.79
840.1  356150.93  184464.18  51.79
841.4  356592.30  184704.99  51.80
842.6  356972.80  184890.64  51.79
843.8  357284.20  185058.80  51.80
845.1  357761.80  185330.27  51.80
846.3  358196.00  185508.67  51.79
847.5  358579.20  185704.40  51.79
848.8  358934.40  185919.12  51.80
850.0  359297.75  186070.50  51.79
851.2  359824.95  186348.42  51.79
852.5  360208.60  186555.73  51.79
853.7  360636.75  186780.30  51.79
854.9  361104.30  187018.93  51.79
856.1  361596.95  187227.91  51.78
857.4  361778.55  187323.61  51.78
858.6  362197.40  187551.80  51.78
859.8  362553.75  187719.50  51.78
861.0  363074.40  187939.44  51.76
862.2  363477.55  188187.65  51.77
863.5  363793.63  188353.88  51.77
864.7  364379.40  188605.12  51.76
865.9  364798.00  188804.37  51.76
867.1  365040.45  188944.09  51.76
868.3  365567.40  189130.98  51.74
869.5  365994.70  189356.99  51.74
870.8  366511.50  189628.20  51.74
872.0  366984.45  189879.27  51.74
873.2  367383.15  190092.06  51.74
874.4  367865.55  190266.57  51.72
875.6  368241.40  190417.61  51.71
876.8  368731.80  190645.85  51.70
878.0  369221.30  190875.93  51.70
879.2  369693.45  191119.86  51.70
880.4  370207.88  191367.45  51.69
881.6  370692.23  191579.29  51.68
882.8  371076.00  191755.41  51.68
884.0  371666.48  192023.35  51.67
885.2  372198.80  192273.48  51.66
886.5  372903.45  192567.57  51.64
887.7  373333.68  192785.54  51.64
888.8  373953.68  193089.22  51.63
890.0  374607.40  193343.77  51.61
891.2  375174.80  193634.17  51.61
892.4  375823.88  193901.68  51.59
893.6  376343.10  194164.52  51.59
894.8  377217.25  194587.67  51.59
896.0  378043.25  194993.17  51.58
897.2  378920.75  195374.40  51.56
898.4  379737.60  195747.64  51.55
899.6  380286.38  196032.90  51.55
900.8  380689.68  196217.01  51.54
902.0  381062.85  196303.16  51.51
903.2  381356.85  196444.72  51.51
904.3  381716.70  196594.56  51.50
905.5  382382.28  196873.03  51.49
906.7  382949.00  197172.20  51.49
907.9  383564.65  197428.51  51.47
909.1  383956.20  197552.16  51.45
910.2  384170.70  197643.43  51.45
911.4  384479.55  197796.30  51.45
912.6  384705.75  197883.40  51.44
913.8  384954.90  197997.93  51.43
915.0  385470.75  198154.04  51.41
916.2  385700.25  198253.90  51.40
917.3  385938.90  198211.23  51.36
918.5  386136.80  198324.44  51.36
919.7  386362.35  198412.48  51.35
920.8  386437.63  198437.83  51.35
922.0  386597.75  198459.80  51.33
923.2  386841.00  198543.80  51.32
924.4  387311.63  198632.70  51.28
925.5  387508.60  198739.63  51.29
926.7  388114.25  198983.30  51.27
927.9  388974.00  199413.04  51.27
929.0  390388.95  200045.52  51.24
930.2  392811.70  201013.92  51.17
931.4  395167.28  202216.14  51.17
932.5  397793.55  203515.00  51.16
933.7  399427.78  204212.16  51.13
934.9  399993.13  204437.33  51.11
936.0  399644.38  204171.50  51.09
937.2  397741.80  203128.48  51.07
938.3  396145.50  202162.35  51.03
939.5  394743.60  201370.56  51.01
940.7  395026.20  201352.20  50.97
941.8  396635.93  202066.21  50.95
943.0  398114.25  202695.90  50.91
944.2  398907.60  203033.74  50.90
945.3  398658.00  202712.90  50.85
946.5  398005.65  202211.64  50.81
947.6  398181.60  202218.28  50.79
948.8  398333.33  202044.70  50.72
949.9  398353.20  201979.68  50.70
951.1  398242.65  201674.68  50.64
952.2  398004.00  201361.60  50.59
953.4  397712.75  201032.50  50.55
954.5  397823.40  200856.24  50.49
955.7  397983.60  200691.12  50.43
956.8  397885.40  200380.84  50.36
958.0  397592.50  200029.27  50.31
959.1  397276.00  199841.87  50.30
960.3  396936.85  199526.31  50.27
961.4  396858.60  199336.23  50.23
962.6  397265.75  199376.10  50.19
963.7  397181.18  199203.90  50.15
964.9  397121.55  199079.56  50.13
966.0  397078.20  198916.29  50.09
967.2  397017.45  198957.78  50.11
968.3  396985.05  198772.92  50.07
969.5  396716.93  198610.08  50.06
970.6  396708.15  198719.79  50.09
971.8  397037.55  198818.20  50.08
972.9  396837.98  198741.62  50.08
974.0  397272.10  198842.45  50.05
975.2  397069.50  198625.72  50.02
976.3  396887.18  198527.24  50.02
977.5  396705.58  198567.09  50.05
978.6  396499.10  198449.60  50.05
979.7  396693.15  198658.04  50.08
980.9  396363.08  198587.37  50.10
982.0  396438.70  198507.32  50.07
983.2  396477.80  198579.52  50.09
984.3  396430.20  198305.73  50.02
985.4  396323.88  198335.51  50.04
986.6  396110.63  198157.67  50.03
987.7  396552.80  198711.22  50.11
988.9  397094.40  198639.12  50.02
990.0  398051.90  199292.77  50.07
993.1  344748.19  170783.40  49.54
996.9  345169.18  171391.21  49.65
1000.7  346064.13  172176.28  49.75
1004.5  346536.50  172684.19  49.83
1008.4  346302.29  172850.53  49.91
1012.2  346256.00  173100.88  49.99
1016.0  346195.20  173329.11  50.07
1019.8  346280.55  173596.50  50.13
1023.7  346141.83  173734.89  50.19
1027.5  345807.68  173752.23  50.25
1031.3  345996.00  173978.72  50.28
1035.1  345906.69  174032.82  50.31
1038.9  345887.67  174092.42  50.33
1042.7  345756.17  174082.13  50.35
1046.5  345630.83  174044.64  50.36
1050.3  345646.42  174070.04  50.36
1054.2  345401.00  173963.67  50.37
1058.0  344915.03  173692.72  50.36
1061.8  344784.20  173630.33  50.36
1065.6  344542.40  173463.95  50.35
1069.4  344506.33  173419.74  50.34
1073.2  344125.64  173162.30  50.32
1077.0  343636.13  172853.92  50.30
1080.8  343166.67  172480.95  50.26
1084.6  342173.53  171863.77  50.23
1088.4  341512.29  171450.06  50.20
1092.2  340762.50  170928.64  50.16
1096.0  340228.27  170502.11  50.11
1099.8  339805.27  170117.54  50.06
1103.6  339169.77  169620.90  50.01
1107.4  338290.81  168988.77  49.95
1111.2  338050.80  168677.17  49.90
1114.9  337444.33  168138.58  49.83
1118.7  336882.15  167558.21  49.74
1122.5  336236.33  166880.38  49.63
1126.3  335175.23  165967.17  49.52
1130.1  334751.90  165230.69  49.36
1133.9  333281.20  163784.20  49.14
1137.7  331941.20  162258.79  48.88
1141.4  330287.21  160399.97  48.56
1145.2  329567.20  158887.73  48.21
1149.0  328539.17  157264.17  47.87
1152.8  327006.00  155555.82  47.57
1156.6  325493.12  154092.22  47.34
1160.3  323925.33  152830.72  47.18
1164.1  321697.50  151482.56  47.09
1167.9  320035.42  150547.32  47.04
1171.7  318819.38  149900.63  47.02
1175.4  317732.57  149347.33  47.00
1179.2  316729.43  148842.45  46.99
1183.0  316447.00  148623.29  46.97
1186.7  315958.30  148308.40  46.94
1190.5  314960.87  147766.60  46.92
1194.3  313852.20  147169.84  46.89
1198.0  312748.15  146614.76  46.88
1201.8  311340.55  145958.78  46.88
1205.6  310165.33  145460.19  46.90
1209.3  309290.13  145152.74  46.93
1213.1  308435.25  144835.45  46.96
1216.8  307569.90  144560.61  47.00
1220.6  306562.67  144226.13  47.05
1224.3  305447.42  143828.22  47.09
1228.1  304308.40  143465.77  47.14
1231.9  303144.35  143035.39  47.18
1235.6  301783.58  142502.56  47.22
1239.4  300551.63  142039.57  47.26
1243.1  299416.33  141555.40  47.28
1246.9  298270.57  141055.58  47.29
1250.6  297352.60  140633.20  47.30
1254.3  296370.80  140166.02  47.29
1258.1  295449.12  139707.72  47.29
1261.8  294226.00  139112.02  47.28
1265.6  292889.92  138414.21  47.26
1269.3  291533.13  137680.04  47.23
1273.1  291492.86  137517.00  47.18
1276.8  291723.20  137478.86  47.13
1280.6  291539.43  137248.53  47.08
1284.3  290214.40  136464.40  47.02
1288.0  288874.28  135606.32  46.94
1291.8  287656.16  134736.23  46.84
1295.5  286382.80  133812.17  46.72
1299.2  285220.51  132914.13  46.60
1302.9  283868.76  131861.43  46.45
1306.7  282418.85  130730.13  46.29
1310.4  281063.41  129513.65  46.08
1314.1  279788.85  128298.24  45.86
1317.9  278647.08  127048.24  45.59
1321.6  277339.07  125641.59  45.30
1325.3  275800.88  124031.55  44.97
1329.0  274565.08  122504.65  44.62
1332.8  272610.80  120566.60  44.23
1336.5  270907.00  118722.33  43.82
1340.2  270543.00  117457.17  43.42
1343.9  270130.42  116154.73  43.00
1347.6  269494.35  114749.36  42.58
1351.4  269622.50  113723.50  42.18
1355.1  269941.10  112774.46  41.78
1358.8  270048.00  111693.72  41.36
1362.5  269637.25  110271.91  40.90
1366.2  268073.85  108186.54  40.36
1369.9  266350.75  105791.00  39.72
1373.6  264489.23  102986.78  38.94
1377.3  262763.40  99697.54  37.94
1381.0  261673.67  95914.52  36.65
1384.8  259805.00  91044.11  35.04
1388.4  257635.35  85551.93  33.21
1392.2  255918.00  79775.63  31.17
1395.9  254444.95  73866.09  29.03
1399.6  252946.43  68130.13  26.93
1403.3  251833.93  62986.06  25.01
1407.0  250791.80  58520.63  23.33
1410.7  249702.75  54851.30  21.97
1414.3  248581.03  51992.91  20.92
1418.1  247526.21  49903.26  20.16
1421.7  246694.00  48442.41  19.64
1425.4  245820.58  47450.70  19.30
1429.1  245000.63  46841.04  19.12
1432.8  243636.57  46403.29  19.05
1436.5  242896.88  46265.33  19.05
1440.2  242092.80  46257.46  19.11
1443.9  240941.89  46258.12  19.20
1447.6  239470.00  46266.00  19.32
1451.2  238490.82  46384.75  19.45
1454.9  237309.60  46506.17  19.60
1458.6  236305.32  46756.14  19.79
1462.3  235256.63  47116.61  20.03
1466.0  234001.20  47604.44  20.34
1469.7  232450.18  48218.45  20.74
1473.3  231503.83  49089.86  21.20
1477.0  229754.57  49900.79  21.72
1480.7  228304.19  50820.84  22.26
1484.4  226520.45  51667.44  22.81
1488.0  225118.67  52611.43  23.37
1491.7  223646.48  53499.30  23.92
1495.4  222072.82  54352.50  24.48
1499.0  220588.50  55174.57  25.01
1502.7  219407.25  56054.06  25.55
1506.4  218117.44  56848.74  26.06
1510.0  216821.73  57608.28  26.57
1513.7  215475.46  58293.67  27.05
1517.4  214240.33  58967.33  27.52
1521.0  213129.73  59640.78  27.98
1524.7  212010.50  60242.46  28.41
1528.3  210815.63  60785.93  28.83
1532.0  209674.85  61298.60  29.24
1535.7  208394.19  61699.77  29.61
1539.3  207235.53  62112.61  29.97
1543.0  206342.75  62565.22  30.32
1546.6  205687.08  63063.16  30.66
1550.3  204792.80  63435.75  30.98
1553.9  203792.07  63745.42  31.28
1557.6  202632.47  63959.97  31.56
1561.2  201465.90  64124.16  31.83
1564.9  200266.78  64255.15  32.08
1568.5  199045.35  64347.27  32.33
1572.2  198006.65  64459.39  32.55
1575.8  197008.00  64574.00  32.78
1579.5  196074.45  64683.46  32.99
1583.1  195147.83  64785.02  33.20
1586.8  194026.00  64784.00  33.39
1590.4  193056.57  64807.94  33.57
1594.0  191814.57  64738.33  33.75
1597.7  190764.82  64715.06  33.92
1601.3  189576.45  64629.90  34.09
1604.9  188391.49  64509.64  34.24
1608.6  187208.87  64365.29  34.38
1612.2  186280.05  64282.58  34.51
1615.8  185210.68  64137.27  34.63
1619.5  184173.17  63978.89  34.74
1623.1  182963.33  63735.88  34.84
1626.7  181814.75  63490.42  34.92
1630.3  180694.00  63233.36  34.99
1634.0  179578.00  62926.00  35.04
1637.6  178506.00  62594.66  35.07
1641.2  177437.45  62183.29  35.05
1644.8  176184.87  61651.40  34.99
1648.5  175131.23  61165.89  34.93
1652.1  174205.50  60700.50  34.84
1655.7  173353.60  60293.20  34.78
1659.3  172575.93  59998.97  34.77
1662.9  171275.00  59595.12  34.79
1666.6  169981.60  59232.72  34.85
1670.2  168714.06  58862.24  34.89
1673.8  167452.27  58435.20  34.90
1677.4  166450.35  58054.60  34.88
1681.0  165733.13  57715.55  34.82
1684.6  165352.42  57431.83  34.73
1688.2  164706.00  56957.79  34.58
1691.8  164085.76  56526.26  34.45
1695.4  163697.60  56140.71  34.30
1699.0  163398.67  55786.53  34.14
1702.6  163127.67  55418.81  33.97
1706.2  162598.04  54924.57  33.78
1709.8  161804.43  54317.17  33.57
1713.4  161159.13  53783.71  33.37
1717.0  160376.75  53258.03  33.21
1720.6  159629.10  52784.74  33.07
1724.2  158981.10  52348.37  32.93
1727.8  158295.90  51935.40  32.81
1731.4  157844.50  51597.86  32.69
1735.0  157629.45  51354.08  32.58
1738.6  157389.15  51075.49  32.45
1742.2  156866.79  50654.65  32.29
1745.8  156290.87  50171.76  32.10
1749.4  155433.30  49571.07  31.89
1753.0  154044.07  48790.20  31.67
1756.6  152511.92  47978.25  31.46
1760.1  151299.30  47280.48  31.25
1763.7  149714.67  46484.09  31.05
1767.3  148396.33  45806.82  30.87
1770.9  147260.93  45191.18  30.69
1774.5  145929.28  44533.02  30.52
1778.0  144867.73  43999.41  30.37
1781.6  143849.25  43519.46  30.25
1785.2  142797.60  43059.51  30.15
1788.8  141728.60  42648.87  30.09
1792.3  140588.43  42231.15  30.04
1795.9  140122.13  42031.10  30.00
1799.5  139637.00  41838.95  29.96
1803.1  139029.33  41604.62  29.93
1806.6  139482.47  41668.27  29.87
1810.2  140554.17  41925.30  29.83
1813.8  141475.55  42144.37  29.79
1817.3  141504.00  42116.20  29.76
1820.9  140794.30  41864.65  29.73
1824.5  139680.23  41475.77  29.69
1828.0  138871.33  41143.41  29.63
1831.6  138117.50  40819.87  29.55
1835.2  137473.33  40460.00  29.43
1838.7  137122.00  40103.70  29.25
1842.3  136785.00  39694.29  29.02
1845.8  136080.54  39065.84  28.71
1849.4  135638.38  38386.84  28.30
1852.9  135018.98  37506.40  27.78
1856.5  134203.48  36382.22  27.11
1860.0  133473.65  35054.03  26.26
1863.6  133183.26  33618.54  25.24
1867.1  133015.40  31938.20  24.01
1870.7  132979.05  29892.43  22.48
1874.2  132323.40  27324.45  20.65
1877.8  131187.20  24489.44  18.67
1881.3  129816.25  21530.50  16.59
1884.9  128873.53  18719.97  14.53
1888.4  127903.55  16033.15  12.54
1891.9  126884.53  13676.28  10.78
1895.5  125801.77  11743.48  9.33
1899.0  125171.00  10316.02  8.24
1901.3  155654.00  8715.58  5.60
1904.1  155525.63  7860.94  5.05
1906.8  154775.70  7176.90  4.64
1909.6  153125.70  6647.38  4.34
1912.4  151565.66  6283.90  4.15
1915.1  150366.15  6049.04  4.02
1917.9  149032.88  5861.88  3.93
1920.6  147921.63  5752.88  3.89
1923.3  146813.80  5682.37  3.87
1926.1  145470.50  5654.59  3.89
1928.8  144210.00  5665.00  3.93
1931.6  143157.94  5713.19  3.99
1934.3  142177.24  5780.83  4.07
1937.0  141203.25  5878.12  4.16
1939.8  140155.44  5991.48  4.27
1942.5  138913.50  6110.50  4.40
1945.2  137352.19  6228.20  4.53
1947.9  136074.58  6371.17  4.68
1950.7  135065.68  6531.46  4.84
1953.4  133501.84  6677.84  5.00
1956.1  132280.63  6852.98  5.18
1958.8  131197.30  7045.73  5.37
1961.5  129892.50  7235.80  5.57
1964.2  128548.88  7439.25  5.79
1966.9  127136.66  7633.68  6.00
1969.6  126036.00  7863.75  6.24
1972.3  124769.10  8078.98  6.48
1975.0  123815.93  8323.42  6.72
1977.7  122807.35  8572.00  6.98
1980.4  121782.15  8819.27  7.24
1983.1  120793.39  9076.23  7.51
1985.8  119955.60  9345.98  7.79
1988.4  119028.00  9604.83  8.07
1991.1  118162.28  9865.74  8.35
1993.8  117359.00  10135.35  8.64
1996.5  116790.30  10424.01  8.93
1999.1  116176.36  10697.59  9.21
2001.8  115539.90  10972.97  9.50
2004.5  114919.58  11236.35  9.78
2007.1  114264.34  11485.04  10.05
2009.8  113584.45  11732.70  10.33
2012.4  113067.90  11987.94  10.60
2015.1  112587.30  12231.28  10.86
2017.8  111862.10  12447.11  11.13
2020.4  111394.11  12670.81  11.37
2023.1  111091.58  12904.68  11.62
2025.7  110864.00  13125.67  11.84
2028.3  110558.50  13333.67  12.06
2031.0  110217.55  13522.12  12.27
2033.6  109965.83  13711.20  12.47
2036.2  109724.40  13880.85  12.65
2038.9  109189.35  13991.78  12.81
2041.5  108895.14  14136.25  12.98
2044.1  108386.78  14252.78  13.15
2046.8  108060.53  14370.23  13.30
2049.4  107473.28  14439.83  13.44
2052.0  107190.75  14551.92  13.58
2054.6  106817.81  14638.75  13.70
2057.2  106319.60  14720.03  13.85
2059.8  106037.95  14842.30  14.00
2062.4  105247.21  14877.17  14.14
2065.0  104773.80  14958.02  14.28
2067.6  103965.86  14986.13  14.41
2070.2  103429.79  15040.61  14.54
2072.8  102847.95  15097.27  14.68
2075.4  102447.19  15170.32  14.81
2078.0  101862.51  15206.15  14.93
2080.6  101356.20  15254.80  15.05
2083.2  100735.58  15286.88  15.18
2085.8  100288.10  15335.70  15.29
2088.4  99686.38  15352.34  15.40
2090.9  98956.06  15336.59  15.50
2093.5  98158.18  15317.56  15.60
2096.1  97462.06  15307.15  15.71
2098.7  96750.61  15285.20  15.80
2101.2  95892.00  15237.48  15.89
2103.8  95289.40  15224.38  15.98
2106.4  94680.25  15204.73  16.06
2108.9  94077.65  15176.35  16.13
2111.5  93304.75  15110.85  16.20
2114.0  92734.90  15078.10  16.26
2116.6  92275.31  15058.75  16.32
2119.1  91787.00  15023.88  16.37
2121.7  91343.44  14990.94  16.41
2124.2  90965.13  14966.90  16.45
2126.8  90242.16  14889.95  16.50
2129.3  89872.20  14869.80  16.55
2131.9  89324.40  14830.20  16.60
2134.4  88935.86  14821.54  16.67
2136.9  88584.60  14806.30  16.71
2139.4  88112.50  14785.17  16.78
2142.0  87693.55  14780.73  16.85
2144.5  87455.85  14794.03  16.92
2147.0  87254.10  14815.93  16.98
2149.5  86811.90  14807.00  17.06
2152.1  86650.99  14831.48  17.12
2154.6  86564.00  14853.47  17.16
2157.1  86069.13  14814.92  17.21
2159.6  85708.06  14792.21  17.26
2162.1  85558.20  14801.15  17.30
2164.6  85323.60  14791.43  17.34
2167.1  85039.96  14778.28  17.38
2169.6  84747.25  14760.49  17.42
2172.1  84318.80  14715.63  17.45
2174.6  84018.55  14706.20  17.50
2177.1  83626.59  14679.27  17.55
2179.5  83263.05  14655.12  17.60
2182.0  82824.64  14625.74  17.66
2184.5  82338.75  14584.05  17.71
2187.0  81772.85  14522.62  17.76
2189.5  81146.51  14459.71  17.82
2191.9  80448.38  14378.25  17.87
2194.4  79890.53  14315.45  17.92
2196.9  79214.40  14239.20  17.98
2199.3  78604.50  14161.67  18.02
2201.8  77803.40  14042.77  18.05
2204.3  77372.51  13998.57  18.09
2206.7  76800.45  13940.21  18.15
2209.2  76393.23  13905.85  18.20
2211.6  75824.10  13835.25  18.25
2214.1  75565.28  13803.14  18.27
2216.5  75051.30  13732.83  18.30
2219.0  74738.40  13695.58  18.32
2221.4  74382.44  13642.86  18.34
2223.9  73951.06  13553.61  18.33
2226.3  73489.94  13456.92  18.31
2228.7  72983.48  13340.03  18.28
2231.1  72430.88  13201.65  18.23
2233.6  71907.40  13052.40  18.15
2236.0  71422.31  12894.15  18.05
2238.4  70961.19  12737.96  17.95
2240.9  70551.50  12585.53  17.84
2243.3  70067.25  12406.73  17.71
2245.7  69550.50  12206.16  17.55
2248.1  69106.38  12032.26  17.41
2250.5  68645.40  11857.71  17.27
2252.9  68067.35  11653.53  17.12
2255.3  67565.48  11459.91  16.96
2257.7  67147.50  11297.50  16.82
2260.1  66701.60  11137.00  16.70
2262.5  66150.00  10955.00  16.56
2264.9  65672.86  10791.99  16.43
2267.3  65115.00  10612.50  16.30
2269.7  64677.38  10452.23  16.16
2272.1  64164.26  10297.13  16.05
2274.5  63666.21  10145.56  15.94
2276.8  63240.23  10004.15  15.82
2279.2  62704.46  9849.00  15.71
2281.6  62302.60  9721.88  15.60
2284.0  61872.60  9582.38  15.49
2286.3  61461.20  9426.53  15.34
2288.7  61092.36  9289.75  15.21
2291.1  60601.80  9130.69  15.07
2293.4  60183.20  8985.90  14.93
2295.8  59629.28  8814.23  14.78
2298.2  59072.63  8639.66  14.63
2300.5  58467.15  8471.48  14.49
2302.9  57791.75  8287.33  14.34
2305.2  57141.83  8111.25  14.19
2307.6  56537.91  7943.84  14.05
2309.9  55838.75  7783.58  13.94
2312.2  55265.25  7662.17  13.86
2314.6  54717.86  7542.56  13.78
2316.9  54073.58  7405.43  13.70
2319.2  53538.65  7285.18  13.61
2321.6  52955.00  7156.71  13.51
2323.9  52445.31  7036.46  13.42
2326.2  51958.00  6914.70  13.31
2328.6  51476.70  6797.73  13.21
2330.9  51006.38  6683.25  13.10
2333.2  50569.81  6574.90  13.00
2335.5  50164.28  6476.18  12.91
2337.8  49738.13  6370.26  12.81
2340.1  49212.44  6259.73  12.72
2342.4  48815.00  6158.75  12.62
2344.8  48437.25  6061.48  12.51
2347.1  47910.63  5949.42  12.42
2349.4  47418.49  5852.60  12.34
2351.6  46897.95  5747.95  12.26
2353.9  46455.85  5660.10  12.18
2356.2  45981.31  5561.11  12.09
2358.5  45427.20  5454.40  12.01
2360.8  44898.00  5350.80  11.92
2363.1  44493.71  5263.42  11.83
2365.4  44061.53  5169.75  11.73
2367.7  43613.55  5073.00  11.63
2369.9  43126.43  4977.89  11.54
2372.2  42561.40  4870.47  11.44
2374.5  42013.13  4755.71  11.32
2376.7  41427.94  4646.67  11.22
2379.0  40867.90  4534.10  11.09
2381.3  40302.50  4412.92  10.95
2383.5  39837.60  4314.93  10.83
2385.8  39288.90  4203.64  10.70
2388.0  38798.40  4112.30  10.60
2390.3  38314.50  4007.97  10.46
2392.5  37863.00  3906.00  10.32
2394.8  37425.30  3814.53  10.19
2397.0  36982.40  3721.90  10.06
2399.3  36568.28  3630.63  9.93
2401.5  36171.19  3546.38  9.80
2403.8  35665.99  3442.51  9.65
2406.0  35191.94  3352.50  9.53
2408.2  34828.75  3278.73  9.41
2410.4  34435.28  3198.85  9.29
2412.7  34052.53  3110.25  9.13
2414.9  33718.58  3036.00  9.00
2417.1  33347.03  2959.10  8.87
2419.3  32947.20  2876.80  8.73
2421.6  32579.06  2799.69  8.59
2423.8  32238.38  2739.21  8.50
2426.0  31919.53  2664.83  8.35
2428.2  31565.80  2583.93  8.19
2430.4  31273.68  2520.95  8.06
2432.6  31030.00  2460.00  7.93
2434.8  30736.65  2402.66  7.82
2437.0  30396.28  2323.97  7.65
2439.2  30067.83  2250.53  7.48
2441.4  29775.20  2194.97  7.37
2443.6  29553.85  2141.58  7.25
2445.7  29300.78  2089.44  7.13
2447.9  29047.56  2035.31  7.01
2450.1  28777.91  1970.51  6.85
2452.3  28438.03  1912.81  6.73
2454.5  28104.28  1854.47  6.60
2456.6  27745.10  1797.60  6.48
2458.8  27413.10  1744.60  6.36
2461.0  27128.56  1697.56  6.26
2463.1  26855.66  1651.42  6.15
2465.3  26603.40  1598.69  6.01
2467.5  26361.94  1559.81  5.92
2469.6  26122.81  1525.23  5.84
2471.8  25847.44  1486.65  5.75
2473.9  25554.94  1451.77  5.68
2476.1  25207.00  1414.29  5.61
2478.2  24883.65  1374.81  5.52
2480.4  24602.21  1339.29  5.44
2482.5  24293.35  1296.73  5.34
2484.6  23982.75  1258.36  5.25
2486.8  23726.63  1236.38  5.21
2488.9  23438.25  1207.43  5.15
2491.1  23097.90  1174.13  5.08
2493.2  22740.53  1153.59  5.07
2495.3  22354.48  1118.33  5.00
2497.4  22061.03  1090.78  4.94
2499.5  21762.54  1064.06  4.89
2501.7  21630.38  1068.17  4.94
2503.8  21539.43  1044.79  4.85
2505.9  21486.56  1016.46  4.73
2508.0  21440.40  1024.73  4.78
2510.1  21446.59  1014.88  4.73
2512.2  21524.55  1018.43  4.73
2514.3  21669.48  1020.35  4.71
2516.4  21881.78  1009.63  4.61
