/*** Spectra Vista SIG Data ***/
name= 17_20220824_QUPA_34_avg.sig
comm= Averaged Ref/Tar of files: HR.082422.0047_moc.sig,HR.082422.0048_moc.sig,HR.082422.0049_moc.sig
data=
337.3  3473.75  276.95  7.97
338.8  3559.40  277.61  7.80
340.3  3748.00  272.17  7.26
341.8  3932.35  278.70  7.09
343.2  4173.60  270.63  6.48
344.7  4307.65  255.90  5.94
346.2  4493.50  248.99  5.54
347.7  4679.68  252.43  5.39
349.2  4876.20  242.64  4.98
350.6  5141.50  240.64  4.68
352.1  5465.93  239.53  4.38
353.6  5760.20  240.59  4.18
355.1  6061.50  236.69  3.90
356.6  6358.35  247.22  3.89
358.0  6635.20  241.83  3.64
359.5  6921.60  241.31  3.49
361.0  7271.78  242.25  3.33
362.5  7640.78  242.56  3.17
364.0  8000.33  258.89  3.24
365.4  8373.80  262.80  3.14
366.9  8757.13  269.94  3.08
368.4  9137.13  275.35  3.01
369.9  9539.83  284.15  2.98
371.3  9959.10  291.92  2.93
372.8  10381.05  302.42  2.91
374.3  10803.75  311.24  2.88
375.8  11265.10  312.11  2.77
377.2  11701.50  310.50  2.65
378.7  12131.90  320.24  2.64
380.2  12562.30  322.80  2.57
381.7  13107.13  326.87  2.49
383.1  13609.75  340.85  2.50
384.6  14134.90  343.74  2.43
386.1  14620.53  352.10  2.41
387.6  15145.90  357.28  2.36
389.0  15651.20  363.97  2.33
390.5  16168.95  371.70  2.30
392.0  16769.30  381.38  2.27
393.4  17367.78  387.37  2.23
394.9  17904.60  398.21  2.22
396.4  18474.75  405.62  2.20
397.9  19065.00  412.44  2.16
399.3  19652.20  425.46  2.16
400.8  20239.10  437.26  2.16
402.2  20892.05  451.25  2.16
403.7  21523.05  463.62  2.15
405.2  22136.13  472.60  2.13
406.6  22736.00  483.44  2.13
408.1  23368.40  495.05  2.12
409.6  23991.35  503.39  2.10
411.0  24701.95  520.53  2.11
412.5  25385.68  531.93  2.10
414.0  26039.25  550.71  2.11
415.4  26791.50  562.18  2.10
416.9  27466.88  577.52  2.10
418.4  28199.25  593.33  2.10
419.8  28938.00  607.01  2.10
421.3  29696.45  623.36  2.10
422.7  30502.20  646.62  2.12
424.2  31336.88  657.64  2.10
425.7  32127.30  674.66  2.10
427.1  32900.18  696.30  2.12
428.6  33712.50  713.59  2.12
430.0  34477.60  730.42  2.12
431.5  35402.10  752.22  2.12
432.9  36317.35  772.40  2.13
434.4  37230.68  789.92  2.12
435.9  38108.00  807.20  2.12
437.3  38967.50  827.36  2.12
438.8  39842.63  847.08  2.13
440.2  40734.93  868.30  2.13
441.7  41741.00  892.57  2.14
443.1  42678.25  915.89  2.15
444.6  43688.50  940.21  2.15
446.0  44646.98  964.60  2.16
447.5  45638.18  991.41  2.17
448.9  46607.70  1015.29  2.18
450.4  47656.00  1047.84  2.20
451.8  48555.00  1070.70  2.21
453.3  49515.03  1095.56  2.21
454.7  50578.83  1123.01  2.22
456.2  51471.70  1143.90  2.22
457.6  52489.35  1172.25  2.23
459.1  53499.88  1195.95  2.24
460.5  54476.38  1220.82  2.24
462.0  55574.23  1245.85  2.24
463.4  56635.80  1272.14  2.25
464.8  57664.50  1297.38  2.25
466.3  58708.65  1320.49  2.25
467.7  59734.30  1343.43  2.25
469.2  60860.30  1370.24  2.25
470.6  61848.10  1397.77  2.26
472.0  62915.25  1422.51  2.26
473.5  63958.00  1448.01  2.26
474.9  65037.00  1473.31  2.27
476.4  66225.60  1505.56  2.27
477.8  67352.50  1533.41  2.28
479.2  68411.00  1564.34  2.29
480.7  69552.38  1595.28  2.29
482.1  70732.75  1630.24  2.30
483.6  71961.00  1663.81  2.31
485.0  73113.23  1699.50  2.32
486.4  74365.05  1734.64  2.33
487.9  75494.25  1775.34  2.35
489.3  76717.25  1815.52  2.37
490.7  77836.35  1858.72  2.39
492.2  79115.40  1909.88  2.41
493.6  80267.35  1961.99  2.44
495.0  81417.38  2021.59  2.48
496.5  82634.93  2083.01  2.52
497.9  83779.58  2153.73  2.57
499.3  85012.28  2235.91  2.63
500.7  86317.80  2327.26  2.70
502.2  87497.80  2432.22  2.78
503.6  88797.20  2549.86  2.87
505.0  89907.05  2688.90  2.99
506.5  91265.18  2852.28  3.13
507.9  92522.83  3043.79  3.29
509.3  93965.20  3274.61  3.48
510.7  95267.25  3535.35  3.71
512.2  96736.43  3830.50  3.96
513.6  98240.10  4173.25  4.25
515.0  99703.03  4559.04  4.57
516.4  101124.45  4986.63  4.93
517.8  102787.63  5480.50  5.33
519.3  104169.08  5995.68  5.76
520.7  105782.45  6562.29  6.20
522.1  107132.35  7128.32  6.65
523.5  108531.20  7713.04  7.11
524.9  109995.75  8297.99  7.54
526.3  111413.40  8864.75  7.96
527.8  112963.95  9420.28  8.34
529.2  114223.40  9937.02  8.70
530.6  115860.10  10462.08  9.03
532.0  117614.00  10956.53  9.32
533.4  118984.88  11371.45  9.56
534.8  119963.98  11710.04  9.76
536.3  121724.40  12088.90  9.93
537.7  123807.60  12478.08  10.08
539.1  125295.95  12781.38  10.20
540.5  126525.00  13051.18  10.32
541.9  128323.95  13369.90  10.42
543.3  129651.58  13644.39  10.52
544.7  130986.00  13917.12  10.62
546.1  132842.05  14241.94  10.72
547.5  134131.20  14497.92  10.81
549.0  135993.00  14800.97  10.88
550.4  137540.63  15054.11  10.95
551.8  139108.93  15269.87  10.98
553.2  140700.20  15444.74  10.98
554.6  142105.60  15541.56  10.94
556.0  143689.05  15606.42  10.86
557.4  145355.35  15623.59  10.75
558.8  147032.10  15597.35  10.61
560.2  148538.88  15506.18  10.44
561.6  150255.53  15391.47  10.24
563.0  151897.98  15226.66  10.02
564.4  153534.15  15021.39  9.78
565.8  155103.75  14769.36  9.52
567.2  156896.25  14497.76  9.24
568.6  158448.75  14172.92  8.94
570.0  159949.65  13818.05  8.64
571.4  161749.90  13477.42  8.33
572.8  163548.63  13142.76  8.04
574.2  165222.40  12813.87  7.76
575.6  166803.75  12505.93  7.50
577.0  168370.00  12228.97  7.26
578.4  170158.63  11998.13  7.05
579.8  171723.38  11778.81  6.86
581.2  173509.25  11603.22  6.69
582.5  174973.50  11426.78  6.53
583.9  176539.80  11286.19  6.39
585.3  178386.08  11179.52  6.27
586.7  179894.00  11068.04  6.15
588.1  181438.50  10982.25  6.05
589.5  183137.50  10927.23  5.97
590.9  184834.40  10894.28  5.89
592.3  186681.25  10888.62  5.83
593.7  188173.05  10880.70  5.78
595.0  189861.30  10892.94  5.74
596.4  191349.20  10894.03  5.69
597.8  192869.33  10894.34  5.65
599.2  194462.40  10878.06  5.59
600.6  196263.93  10861.27  5.53
602.0  197616.00  10791.65  5.46
603.3  199456.00  10725.15  5.38
604.7  201172.93  10623.26  5.28
606.1  202708.20  10482.48  5.17
607.5  204405.08  10325.19  5.05
608.9  206141.60  10157.48  4.93
610.2  207550.35  9964.89  4.80
611.6  209187.98  9782.20  4.68
613.0  210782.15  9604.99  4.56
614.4  212197.20  9428.68  4.44
615.8  213700.50  9268.63  4.34
617.1  215281.50  9134.44  4.24
618.5  216968.00  9028.00  4.16
619.9  218516.93  8941.07  4.09
621.3  220200.53  8883.63  4.03
622.6  221841.75  8843.26  3.99
624.0  223329.75  8822.39  3.95
625.4  224842.20  8821.59  3.92
626.8  226485.35  8845.81  3.91
628.1  227847.68  8873.99  3.89
629.5  229796.65  8927.59  3.88
630.9  231461.45  8978.62  3.88
632.2  232897.00  9011.62  3.87
633.6  234578.25  9042.00  3.85
635.0  236173.20  9040.32  3.83
636.3  237736.60  9002.26  3.79
637.7  239166.88  8923.80  3.73
639.1  240887.50  8813.00  3.66
640.4  242394.95  8665.46  3.57
641.8  243667.75  8480.29  3.48
643.2  245302.23  8302.83  3.38
644.5  246703.50  8111.69  3.29
645.9  248484.60  7943.69  3.20
647.2  250531.05  7809.12  3.12
648.6  252517.50  7686.90  3.04
650.0  254037.60  7578.93  2.98
651.3  254407.45  7451.38  2.93
652.7  255324.85  7332.97  2.87
654.0  257464.70  7266.50  2.82
655.4  259042.85  7179.11  2.77
656.8  259370.20  7059.05  2.72
658.1  260596.00  6952.25  2.67
659.5  263043.90  6866.67  2.61
660.8  264982.50  6787.29  2.56
662.2  265865.60  6682.88  2.51
663.5  267505.55  6618.00  2.47
664.9  268934.90  6570.65  2.44
666.2  269707.80  6527.65  2.42
667.6  271494.33  6532.51  2.41
668.9  272665.13  6559.71  2.41
670.3  273713.38  6588.91  2.41
671.6  275456.25  6658.15  2.42
673.0  276673.13  6750.44  2.44
674.3  277951.70  6842.58  2.46
675.7  279314.98  6957.62  2.49
677.0  280488.38  7092.05  2.53
678.4  281942.03  7248.11  2.57
679.7  283087.33  7422.64  2.62
681.1  284436.38  7622.39  2.68
682.4  285620.40  7846.13  2.75
683.8  286968.50  8107.12  2.83
685.1  288023.25  8417.19  2.92
686.4  289377.00  8815.30  3.05
687.8  290740.75  9329.74  3.21
689.1  291853.25  10012.92  3.43
690.5  293254.35  10956.61  3.74
691.8  294130.33  12236.25  4.16
693.1  295469.25  13965.34  4.73
694.5  296728.25  16175.03  5.45
695.8  298002.25  18885.10  6.34
697.1  299230.75  22098.27  7.39
698.5  300366.40  25788.07  8.59
699.8  301532.15  29916.32  9.92
701.1  302733.93  34413.74  11.37
702.5  303568.10  39136.49  12.89
703.8  304560.00  44048.14  14.46
705.1  305764.88  49094.52  16.06
706.5  306895.50  54153.89  17.65
707.8  307938.30  59196.42  19.22
709.1  308866.38  64150.99  20.77
710.5  310094.25  69085.88  22.28
711.8  311018.10  73871.62  23.75
713.1  312066.20  78580.53  25.18
714.4  313047.40  83142.05  26.56
715.8  313939.40  87561.27  27.89
717.1  315336.15  91981.53  29.17
718.4  316355.20  96154.88  30.39
719.7  317526.80  100231.22  31.57
721.0  318082.50  103963.71  32.68
722.4  318902.10  107605.59  33.74
723.7  319931.25  111153.26  34.74
725.0  321058.80  114569.93  35.69
726.3  322060.75  117770.91  36.57
727.6  322677.03  120658.17  37.39
729.0  323655.15  123515.53  38.16
730.3  324491.33  126158.14  38.88
731.6  325465.85  128694.60  39.54
732.9  326315.50  131044.90  40.16
734.2  327179.88  133261.54  40.73
735.5  328291.38  135423.79  41.25
736.8  329121.90  137368.36  41.74
738.1  330011.20  139191.32  42.18
739.5  331028.28  140959.13  42.58
740.8  331758.63  142506.50  42.95
742.1  332604.38  143987.58  43.29
743.4  333375.00  145371.90  43.61
744.7  334475.05  146785.11  43.89
746.0  335431.20  148052.21  44.14
747.3  336062.15  149089.82  44.36
748.6  336861.50  150129.86  44.57
749.9  337662.00  151112.00  44.75
751.2  338459.45  152026.14  44.92
752.5  339427.00  152959.57  45.06
753.8  340096.23  153707.41  45.20
755.1  340886.00  154444.46  45.31
756.4  341545.28  155078.67  45.41
757.7  342573.35  155857.48  45.50
759.0  344491.60  156981.85  45.57
760.3  345734.40  157791.04  45.64
761.6  347422.60  158755.89  45.70
762.9  348044.25  159196.64  45.74
764.2  348489.50  159549.28  45.78
765.5  348838.70  159836.14  45.82
766.8  349356.80  160174.84  45.85
768.1  349898.00  160542.60  45.88
769.3  350574.35  160927.74  45.90
770.6  351303.55  161330.06  45.92
771.9  352131.15  161770.65  45.94
773.2  352614.40  162020.65  45.95
774.5  353267.20  162392.98  45.97
775.8  354076.05  162788.74  45.98
777.1  354726.35  163127.29  45.99
778.4  355100.90  163348.54  46.00
779.6  355986.60  163773.99  46.01
780.9  356520.00  164048.57  46.01
782.2  357071.00  164322.61  46.02
783.5  357429.50  164525.71  46.03
784.8  358032.38  164842.12  46.04
786.0  358505.35  165064.74  46.04
787.3  358972.38  165298.31  46.05
788.6  359527.03  165556.68  46.05
789.9  360092.60  165825.71  46.05
791.2  360800.70  166174.69  46.06
792.4  361570.88  166545.10  46.06
793.7  362122.80  166825.68  46.07
795.0  362806.95  167164.44  46.08
796.2  363572.18  167510.84  46.07
797.5  364404.15  167900.33  46.08
798.8  365212.80  168254.73  46.07
800.0  365954.15  168625.19  46.08
801.3  366523.30  168887.49  46.08
802.6  367190.10  169219.85  46.09
803.8  367920.98  169574.65  46.09
805.1  368461.63  169834.95  46.09
806.4  368998.50  170082.75  46.09
807.7  369629.33  170373.16  46.09
808.9  370297.65  170681.13  46.09
810.2  370899.90  170969.75  46.10
811.4  371526.50  171245.33  46.09
812.7  372165.63  171582.20  46.10
814.0  373107.05  172007.78  46.10
815.2  373829.50  172342.41  46.10
816.5  374260.58  172564.94  46.11
817.7  374808.95  172825.07  46.11
819.0  375408.00  173106.45  46.11
820.2  375672.00  173209.98  46.11
821.5  376444.15  173589.85  46.11
822.7  376823.83  173780.97  46.12
824.0  377160.30  173963.62  46.12
825.2  377769.83  174232.20  46.12
826.5  378105.45  174414.13  46.13
827.7  378725.15  174708.55  46.13
829.0  379177.95  174929.25  46.13
830.2  379578.20  175096.33  46.13
831.5  380086.85  175347.33  46.13
832.7  380409.75  175517.62  46.14
834.0  380747.73  175693.57  46.14
835.2  381226.45  175891.72  46.14
836.4  381505.85  176073.29  46.15
837.7  382001.60  176297.63  46.15
838.9  382495.88  176553.67  46.16
840.1  382874.85  176766.88  46.17
841.4  383335.30  177013.19  46.18
842.6  383734.20  177215.90  46.18
843.8  384123.00  177417.36  46.19
845.1  384706.70  177689.38  46.19
846.3  385120.80  177910.88  46.20
847.5  385557.90  178140.04  46.20
848.8  386002.80  178372.46  46.21
850.0  386362.55  178570.40  46.22
851.2  386981.55  178838.36  46.21
852.5  387407.50  179077.34  46.22
853.7  387911.25  179319.43  46.23
854.9  388337.50  179561.59  46.24
856.1  388845.60  179806.02  46.24
857.4  389044.20  179913.24  46.24
858.6  389588.75  180170.29  46.25
859.8  390026.25  180388.21  46.25
861.0  390522.60  180652.01  46.26
862.2  391054.65  180890.61  46.26
863.5  391446.25  181064.67  46.26
864.7  391967.40  181334.06  46.26
865.9  392396.40  181539.87  46.26
867.1  392772.55  181725.41  46.27
868.3  393261.90  181961.06  46.27
869.5  393833.90  182209.87  46.27
870.8  394434.00  182495.48  46.27
872.0  394898.78  182744.75  46.28
873.2  395517.15  182993.06  46.27
874.4  395980.65  183202.45  46.27
875.6  396401.98  183421.72  46.27
876.8  396959.30  183651.57  46.26
878.0  397472.20  183916.24  46.27
879.2  397959.75  184180.41  46.28
880.4  398640.38  184443.30  46.27
881.6  399109.43  184669.92  46.27
882.8  399666.40  184889.48  46.26
884.0  400322.80  185183.10  46.26
885.2  400876.70  185436.22  46.26
886.5  401602.00  185781.12  46.26
887.7  402141.68  186072.25  46.27
888.8  402887.85  186371.38  46.26
890.0  403544.25  186638.06  46.25
891.2  404221.80  186934.18  46.25
892.4  404901.53  187226.40  46.24
893.6  405537.15  187524.63  46.24
894.8  406640.00  187985.35  46.23
896.0  407520.50  188427.54  46.24
897.2  408440.50  188861.15  46.24
898.4  409302.30  189212.13  46.23
899.6  409890.75  189487.79  46.23
900.8  410524.95  189720.82  46.21
902.0  410794.95  189867.83  46.22
903.2  411201.23  190048.98  46.22
904.3  411553.80  190231.83  46.22
905.5  412226.20  190573.18  46.23
906.7  413026.50  190885.38  46.22
907.9  413733.95  191159.97  46.20
909.1  414084.15  191319.71  46.20
910.2  414369.08  191433.45  46.20
911.4  414700.65  191564.77  46.19
912.6  414971.70  191701.71  46.20
913.8  415391.48  191822.60  46.18
915.0  415833.60  192044.58  46.18
916.2  416247.00  192157.83  46.16
917.3  416259.00  192196.15  46.17
918.5  416710.30  192327.45  46.15
919.7  417013.50  192463.91  46.15
920.8  417166.40  192518.85  46.15
922.0  417320.75  192633.47  46.16
923.2  417690.00  192753.60  46.15
924.4  418169.25  192865.76  46.12
925.5  418514.90  192945.91  46.10
926.7  419152.00  193242.20  46.10
927.9  420207.60  193673.11  46.09
929.0  421731.90  194336.10  46.08
930.2  424032.50  195418.77  46.09
931.4  426731.63  196501.58  46.05
932.5  429573.20  197795.71  46.04
933.7  431292.78  198455.22  46.01
934.9  432044.38  198785.58  46.01
936.0  431812.88  198594.38  45.99
937.2  429839.10  197588.27  45.97
938.3  428071.15  196788.08  45.97
939.5  426722.40  196014.17  45.93
940.7  426827.70  196080.60  45.94
941.8  428563.28  196773.39  45.91
943.0  430379.25  197427.66  45.87
944.2  431236.65  197825.61  45.87
945.3  430891.50  197540.01  45.84
946.5  430281.45  197121.86  45.81
947.6  430600.60  197140.21  45.78
948.8  430541.48  196996.35  45.76
949.9  430726.80  196990.16  45.73
951.1  430727.70  196694.02  45.67
952.2  430848.00  196469.49  45.60
953.4  430458.25  196291.41  45.60
954.5  430677.00  196134.79  45.54
955.7  430542.00  195921.60  45.51
956.8  430352.50  195736.46  45.48
958.0  430374.50  195447.38  45.41
959.1  430231.85  195271.47  45.39
960.3  429823.28  195010.04  45.37
961.4  429930.15  194886.48  45.33
962.6  430351.25  194969.27  45.30
963.7  430054.73  194881.51  45.32
964.9  430256.85  194809.74  45.28
966.0  429996.60  194737.81  45.29
967.2  430300.35  194796.79  45.27
968.3  430089.75  194679.41  45.26
969.5  429986.35  194573.55  45.25
970.6  430200.25  194617.15  45.24
971.8  430573.15  194711.80  45.22
972.9  430558.28  194757.03  45.23
974.0  431165.70  194919.24  45.21
975.2  431523.13  194870.09  45.16
976.3  431305.58  194839.56  45.17
977.5  431119.50  194756.52  45.17
978.6  431307.80  194844.89  45.18
979.7  431520.60  195041.81  45.20
980.9  431986.15  195031.51  45.15
982.0  431955.00  195216.23  45.19
983.2  431731.63  195056.57  45.18
984.3  431777.20  195011.86  45.16
985.4  432195.53  195183.65  45.16
986.6  432344.00  195209.87  45.15
987.7  433729.63  195642.65  45.11
988.9  432943.20  195763.34  45.22
990.0  433709.20  196104.75  45.22
993.1  364971.95  163914.74  44.91
996.9  366174.65  164825.14  45.01
1000.7  367567.03  165762.34  45.10
1004.5  368303.00  166391.15  45.18
1008.4  368228.71  166637.80  45.25
1012.2  368419.04  166985.53  45.32
1016.0  368708.40  167372.31  45.39
1019.8  369161.10  167821.50  45.46
1023.7  369513.89  168173.73  45.51
1027.5  369634.22  168415.86  45.56
1031.3  370195.13  168800.54  45.60
1035.1  370308.98  168974.45  45.63
1038.9  370401.72  169108.97  45.66
1042.7  370295.58  169159.43  45.68
1046.5  370141.83  169150.71  45.70
1050.3  370191.41  169231.26  45.71
1054.2  369948.83  169162.75  45.73
1058.0  369471.49  168960.30  45.73
1061.8  369317.38  168938.77  45.74
1065.6  369079.63  168821.66  45.74
1069.4  369314.33  168918.01  45.74
1073.2  369186.93  168840.66  45.73
1077.0  368827.10  168641.85  45.72
1080.8  368300.00  168303.57  45.70
1084.6  367011.63  167629.12  45.67
1088.4  366113.13  167171.28  45.66
1092.2  365186.25  166658.14  45.64
1096.0  364612.83  166288.05  45.61
1099.8  364186.55  165965.46  45.57
1103.6  363600.30  165574.50  45.54
1107.4  362745.90  165043.12  45.50
1111.2  362509.90  164787.30  45.46
1114.9  361817.75  164304.17  45.41
1118.7  361139.63  163766.15  45.35
1122.5  360389.47  163142.08  45.27
1126.3  359221.04  162288.32  45.18
1130.1  358715.53  161581.10  45.04
1133.9  357135.10  160198.90  44.86
1137.7  355790.80  158774.60  44.63
1141.4  354064.86  157035.62  44.35
1145.2  353372.62  155619.41  44.04
1149.0  352314.38  154097.92  43.74
1152.8  350770.40  152476.54  43.47
1156.6  349144.95  151054.75  43.26
1160.3  347431.33  149830.76  43.13
1164.1  344985.73  148463.79  43.03
1167.9  343179.17  147497.77  42.98
1171.7  341901.00  146826.00  42.94
1175.4  340814.40  146284.26  42.92
1179.2  339896.75  145787.16  42.89
1183.0  339664.00  145577.05  42.86
1186.7  339077.20  145200.97  42.82
1190.5  337832.00  144569.10  42.79
1194.3  336540.03  143951.75  42.77
1198.0  335436.20  143458.39  42.77
1201.8  334045.75  142872.86  42.77
1205.6  332766.67  142384.57  42.79
1209.3  331747.13  142051.53  42.82
1213.1  330652.13  141695.67  42.85
1216.8  329569.17  141411.86  42.91
1220.6  328430.67  141110.93  42.97
1224.3  327157.50  140744.00  43.02
1228.1  325997.60  140453.23  43.08
1231.9  324851.88  140130.00  43.14
1235.6  323469.98  139681.50  43.18
1239.4  322212.50  139291.05  43.23
1243.1  321008.15  138875.48  43.26
1246.9  319845.88  138443.78  43.28
1250.6  318908.47  138081.55  43.30
1254.3  317866.18  137668.97  43.31
1258.1  316959.07  137279.13  43.31
1261.8  315744.93  136756.51  43.31
1265.6  314317.53  136111.64  43.30
1269.3  312723.23  135368.57  43.29
1273.1  312585.44  135215.56  43.26
1276.8  312912.00  135246.12  43.22
1280.6  312996.13  135169.96  43.19
1284.3  311796.80  134524.52  43.14
1288.0  310378.25  133719.96  43.08
1291.8  308948.98  132854.51  43.00
1295.5  307404.53  131924.57  42.92
1299.2  306076.33  131046.03  42.81
1302.9  304659.06  130057.55  42.69
1306.7  303133.60  128983.40  42.55
1310.4  301695.17  127836.34  42.37
1314.1  300377.00  126700.49  42.18
1317.9  299208.75  125518.72  41.95
1321.6  297847.82  124176.68  41.69
1325.3  296232.83  122630.85  41.40
1329.0  294922.48  121161.90  41.08
1332.8  292800.20  119268.60  40.73
1336.5  290952.13  117459.55  40.37
1340.2  290517.50  116215.67  40.00
1343.9  289962.08  114901.13  39.63
1347.6  289146.75  113486.87  39.25
1351.4  289075.00  112401.57  38.88
1355.1  289097.60  111380.24  38.53
1358.8  288896.00  110224.00  38.15
1362.5  288270.85  108811.54  37.75
1366.2  286581.75  106832.25  37.28
1369.9  284924.50  104652.54  36.73
1373.6  283127.25  102090.22  36.06
1377.3  281239.20  99002.49  35.20
1381.0  279893.50  95417.98  34.09
1384.8  277810.00  90802.68  32.69
1388.4  275616.60  85656.97  31.08
1392.2  273931.33  80209.88  29.28
1395.9  272344.88  74571.19  27.38
1399.6  270721.38  69057.02  25.51
1403.3  269593.57  64068.88  23.76
1407.0  268579.90  59707.10  22.23
1410.7  267493.88  56044.84  20.95
1414.3  266438.73  53130.39  19.94
1418.1  265402.17  50921.25  19.19
1421.7  264643.75  49312.50  18.63
1425.4  263845.08  48164.26  18.25
1429.1  263081.63  47403.32  18.02
1432.8  261679.73  46836.93  17.90
1436.5  260893.29  46590.88  17.86
1440.2  260041.17  46495.41  17.88
1443.9  258726.33  46435.17  17.95
1447.6  257118.40  46400.20  18.05
1451.2  256081.28  46499.96  18.16
1454.9  254883.60  46603.57  18.28
1458.6  253856.93  46833.75  18.45
1462.3  252725.37  47161.71  18.66
1466.0  251384.32  47598.05  18.93
1469.7  249725.88  48148.49  19.28
1473.3  248725.33  48952.12  19.68
1477.0  246869.13  49694.05  20.13
1480.7  245330.82  50549.17  20.60
1484.4  243458.63  51334.70  21.09
1488.0  241941.33  52221.71  21.58
1491.7  240368.53  53059.47  22.07
1495.4  238669.32  53855.44  22.56
1499.0  237060.50  54636.00  23.05
1502.7  235770.17  55469.16  23.53
1506.4  234371.08  56229.29  23.99
1510.0  232984.23  56955.62  24.45
1513.7  231567.88  57615.84  24.88
1517.4  230265.00  58271.14  25.31
1521.0  229094.13  58907.07  25.71
1524.7  227882.42  59477.94  26.10
1528.3  226593.25  59996.95  26.48
1532.0  225386.70  60481.85  26.83
1535.7  224012.12  60861.34  27.17
1539.3  222781.38  61242.88  27.49
1543.0  221835.97  61682.69  27.81
1546.6  221150.58  62157.80  28.11
1550.3  220177.55  62514.47  28.39
1553.9  219116.47  62815.21  28.67
1557.6  217861.60  63024.45  28.93
1561.2  216629.55  63193.50  29.17
1564.9  215330.78  63328.62  29.41
1568.5  214053.23  63436.92  29.64
1572.2  212927.75  63570.23  29.86
1575.8  211862.00  63716.00  30.07
1579.5  210880.10  63858.39  30.28
1583.1  209890.66  63992.24  30.49
1586.8  208698.00  64044.00  30.69
1590.4  207693.33  64132.33  30.88
1594.0  206417.79  64124.03  31.07
1597.7  205266.73  64138.67  31.25
1601.3  203879.03  64079.10  31.43
1604.9  202525.43  64000.32  31.60
1608.6  201220.17  63901.84  31.76
1612.2  200234.93  63891.89  31.91
1615.8  199143.75  63823.82  32.05
1619.5  198048.08  63738.33  32.18
1623.1  196748.43  63568.29  32.31
1626.7  195524.23  63384.61  32.42
1630.3  194304.50  63197.57  32.53
1634.0  193116.00  62996.00  32.62
1637.6  191967.80  62781.54  32.70
1641.2  190813.05  62514.47  32.76
1644.8  189489.03  62147.21  32.80
1648.5  188363.31  61824.17  32.82
1652.1  187360.80  61492.12  32.82
1655.7  186417.60  61147.23  32.80
1659.3  185544.96  60814.09  32.78
1662.9  184152.50  60297.38  32.74
1666.6  182740.07  59787.35  32.72
1670.2  181394.68  59281.99  32.68
1673.8  180030.78  58753.01  32.63
1677.4  178940.80  58291.44  32.58
1681.0  178175.43  57888.47  32.49
1684.6  177759.83  57554.56  32.38
1688.2  177087.25  57068.97  32.23
1691.8  176431.43  56627.27  32.10
1695.4  176009.00  56240.11  31.95
1699.0  175710.50  55884.13  31.80
1702.6  175425.67  55525.29  31.65
1706.2  174873.94  55064.54  31.49
1709.8  174022.08  54506.98  31.32
1713.4  173342.48  54004.92  31.16
1717.0  172501.25  53462.43  30.99
1720.6  171729.83  52953.60  30.84
1724.2  171040.50  52465.64  30.67
1727.8  170305.80  51993.45  30.53
1731.4  169808.38  51615.14  30.40
1735.0  169589.75  51351.90  30.28
1738.6  169332.00  51051.22  30.15
1742.2  168746.18  50625.85  30.00
1745.8  168093.76  50156.17  29.84
1749.4  167126.85  49568.83  29.66
1753.0  165647.47  48807.95  29.46
1756.6  163997.46  48015.79  29.28
1760.1  162666.91  47322.57  29.09
1763.7  160969.33  46547.62  28.92
1767.3  159549.95  45891.37  28.76
1770.9  158335.33  45322.85  28.62
1774.5  156919.07  44721.41  28.50
1778.0  155775.35  44214.26  28.38
1781.6  154696.65  43755.36  28.28
1785.2  153540.48  43302.05  28.20
1788.8  152374.10  42888.31  28.15
1792.3  151175.60  42481.41  28.10
1795.9  150702.93  42303.32  28.07
1799.5  150165.00  42125.43  28.05
1803.1  149146.20  41819.63  28.04
1806.6  149077.13  41773.21  28.02
1810.2  149919.70  41988.33  28.01
1813.8  150865.70  42235.35  28.00
1817.3  151018.00  42265.51  27.99
1820.9  150435.05  42078.27  27.97
1824.5  149316.50  41733.53  27.95
1828.0  148587.54  41458.61  27.90
1831.6  147785.73  41151.98  27.85
1835.2  147050.00  40804.05  27.75
1838.7  146655.87  40473.26  27.60
1842.3  146295.00  40095.00  27.41
1845.8  145591.96  39522.41  27.15
1849.4  145155.50  38886.46  26.79
1852.9  144535.59  38057.44  26.33
1856.5  143712.32  36978.54  25.73
1860.0  143009.78  35702.97  24.97
1863.6  142735.58  34312.74  24.04
1867.1  142465.05  32658.50  22.92
1870.7  142254.15  30613.99  21.52
1874.2  141548.40  28070.36  19.83
1877.8  140568.27  25307.25  18.00
1881.3  139408.13  22397.89  16.07
1884.9  138621.73  19590.35  14.13
1888.4  137748.47  16848.30  12.23
1891.9  136859.47  14418.97  10.54
1895.5  135850.48  12394.82  9.12
1899.0  135394.63  10859.72  8.02
1901.3  162567.00  9019.11  5.55
1904.1  162475.50  8051.75  4.96
1906.8  161811.60  7341.40  4.54
1909.6  160232.80  6759.20  4.22
1912.4  158768.75  6328.47  3.99
1915.1  157732.85  6037.17  3.83
1917.9  156542.67  5832.06  3.73
1920.6  155578.90  5689.69  3.66
1923.3  154699.53  5610.58  3.63
1926.1  153534.03  5567.68  3.63
1928.8  152474.67  5568.44  3.65
1931.6  151651.73  5609.57  3.70
1934.3  150853.35  5673.72  3.76
1937.0  150090.77  5765.98  3.84
1939.8  149228.08  5892.06  3.95
1942.5  148104.00  6020.67  4.07
1945.2  146592.60  6144.60  4.19
1947.9  145342.87  6290.90  4.33
1950.7  144361.10  6462.28  4.48
1953.4  142734.30  6630.88  4.65
1956.1  141457.17  6820.80  4.82
1958.8  140327.63  7021.66  5.00
1961.5  138938.40  7228.13  5.20
1964.2  137519.20  7440.77  5.41
1966.9  136003.40  7653.28  5.63
1969.6  134811.00  7881.00  5.85
1972.3  133464.40  8107.90  6.07
1975.0  132457.95  8369.15  6.32
1977.7  131377.15  8619.76  6.56
1980.4  130281.43  8871.87  6.81
1983.1  129207.15  9135.07  7.07
1985.8  128316.30  9410.50  7.33
1988.4  127313.33  9677.78  7.60
1991.1  126400.63  9942.72  7.87
1993.8  125562.07  10219.37  8.14
1996.5  124950.28  10497.97  8.40
1999.1  124286.80  10770.83  8.67
2001.8  123620.70  11044.91  8.93
2004.5  122951.10  11302.67  9.19
2007.1  122250.45  11550.63  9.45
2009.8  121514.17  11781.62  9.70
2012.4  120934.92  12014.50  9.93
2015.1  120383.20  12242.07  10.17
2017.8  119597.57  12429.12  10.39
2020.4  119108.18  12637.78  10.61
2023.1  118760.13  12832.01  10.80
2025.7  118525.33  13043.33  11.00
2028.3  118196.00  13222.44  11.19
2031.0  117780.73  13372.34  11.35
2033.6  117519.60  13528.50  11.51
2036.2  117267.30  13670.60  11.66
2038.9  116693.10  13769.20  11.80
2041.5  116350.07  13874.03  11.92
2044.1  115805.70  13949.00  12.05
2046.8  115440.30  14036.00  12.16
2049.4  114840.00  14088.20  12.27
2052.0  114563.87  14174.20  12.37
2054.6  114170.00  14236.25  12.47
2057.2  113611.93  14299.38  12.59
2059.8  113288.80  14386.71  12.70
2062.4  112445.00  14411.56  12.82
2065.0  111926.40  14476.96  12.93
2067.6  111041.62  14501.63  13.06
2070.2  110448.88  14548.12  13.17
2072.8  109838.72  14591.70  13.28
2075.4  109410.00  14653.33  13.39
2078.0  108790.37  14688.66  13.50
2080.6  108222.40  14737.07  13.62
2083.2  107540.70  14763.07  13.73
2085.8  107060.05  14811.63  13.83
2088.4  106415.17  14828.22  13.93
2090.9  105632.48  14826.70  14.04
2093.5  104770.43  14815.67  14.14
2096.1  104012.23  14814.55  14.24
2098.7  103256.87  14817.48  14.35
2101.2  102311.00  14785.53  14.45
2103.8  101656.00  14788.44  14.55
2106.4  100992.27  14803.00  14.66
2108.9  100354.73  14808.82  14.76
2111.5  99525.07  14788.44  14.86
2114.0  98905.00  14791.36  14.96
2116.6  98393.75  14813.75  15.06
2119.1  97836.00  14818.59  15.15
2121.7  97370.00  14840.00  15.24
2124.2  96976.87  14862.42  15.33
2126.8  96203.85  14823.34  15.41
2129.3  95805.60  14839.73  15.49
2131.9  95233.60  14819.20  15.56
2134.4  94810.05  14823.75  15.64
2136.9  94429.83  14829.25  15.70
2139.4  93915.73  14813.25  15.77
2142.0  93481.27  14807.33  15.84
2144.5  93209.70  14827.40  15.91
2147.0  92969.20  14853.15  15.98
2149.5  92477.87  14829.33  16.04
2152.1  92312.73  14858.43  16.10
2154.6  92244.27  14899.56  16.15
2157.1  91732.58  14863.36  16.20
2159.6  91314.75  14839.14  16.25
2162.1  91145.60  14854.23  16.30
2164.6  90904.07  14850.80  16.34
2167.1  90593.58  14843.33  16.38
2169.6  90268.03  14832.69  16.43
2172.1  89812.63  14797.95  16.48
2174.6  89478.93  14789.60  16.53
2177.1  89045.73  14766.69  16.58
2179.5  88648.08  14748.28  16.64
2182.0  88170.50  14720.02  16.69
2184.5  87649.72  14688.04  16.76
2187.0  87031.93  14631.10  16.81
2189.5  86374.20  14566.40  16.86
2191.9  85623.50  14493.83  16.93
2194.4  85014.10  14442.78  16.99
2196.9  84288.00  14368.00  17.05
2199.3  83655.33  14303.45  17.10
2201.8  82801.47  14191.20  17.14
2204.3  82361.83  14152.36  17.18
2206.7  81725.45  14082.22  17.23
2209.2  81260.77  14037.63  17.27
2211.6  80645.40  13959.00  17.31
2214.1  80356.20  13926.68  17.33
2216.5  79814.33  13837.13  17.34
2219.0  79476.60  13790.78  17.35
2221.4  79095.33  13718.05  17.34
2223.9  78639.17  13618.89  17.32
2226.3  78133.42  13499.89  17.28
2228.7  77584.17  13375.45  17.24
2231.1  77012.10  13226.40  17.17
2233.6  76446.93  13052.40  17.07
2236.0  75902.17  12881.75  16.97
2238.4  75426.17  12703.25  16.84
2240.9  74986.73  12532.56  16.71
2243.3  74460.27  12333.89  16.56
2245.7  73898.65  12119.10  16.40
2248.1  73434.40  11923.46  16.24
2250.5  72948.22  11713.78  16.06
2252.9  72348.03  11484.92  15.87
2255.3  71819.10  11273.35  15.70
2257.7  71340.00  11076.67  15.53
2260.1  70855.40  10876.13  15.35
2262.5  70270.00  10666.67  15.18
2264.9  69773.52  10472.52  15.01
2267.3  69180.00  10263.33  14.84
2269.7  68688.20  10086.84  14.68
2272.1  68153.40  9916.50  14.55
2274.5  67597.15  9743.73  14.41
2276.8  67141.72  9585.95  14.28
2279.2  66581.25  9430.25  14.16
2281.6  66158.13  9294.89  14.05
2284.0  65700.50  9164.07  13.95
2286.3  65248.53  9025.42  13.83
2288.7  64857.65  8907.02  13.73
2291.1  64316.50  8766.55  13.63
2293.4  63879.20  8627.42  13.51
2295.8  63293.50  8473.47  13.39
2298.2  62700.30  8311.05  13.26
2300.5  62037.90  8148.90  13.14
2302.9  61328.33  7977.33  13.01
2305.2  60636.10  7810.83  12.88
2307.6  59981.10  7665.28  12.78
2309.9  59241.00  7508.89  12.68
2312.2  58641.67  7391.78  12.60
2314.6  58042.80  7286.40  12.55
2316.9  57349.35  7169.10  12.50
2319.2  56788.60  7063.16  12.44
2321.6  56173.83  6949.91  12.37
2323.9  55635.42  6850.69  12.31
2326.2  55108.87  6732.98  12.22
2328.6  54580.35  6621.82  12.13
2330.9  54085.50  6520.50  12.06
2333.2  53636.33  6413.50  11.96
2335.5  53200.40  6313.00  11.87
2337.8  52752.07  6207.61  11.77
2340.1  52191.33  6092.58  11.67
2342.4  51772.50  5983.61  11.56
2344.8  51352.00  5884.09  11.46
2347.1  50797.60  5768.47  11.36
2349.4  50269.05  5677.25  11.29
2351.6  49696.18  5578.11  11.22
2353.9  49208.67  5483.57  11.14
2356.2  48702.12  5387.88  11.06
2358.5  48126.40  5286.40  10.98
2360.8  47555.20  5185.60  10.90
2363.1  47132.43  5099.84  10.82
2365.4  46669.00  5009.67  10.73
2367.7  46215.60  4921.00  10.65
2369.9  45685.50  4820.45  10.55
2372.2  45064.00  4708.98  10.45
2374.5  44490.60  4612.30  10.37
2376.7  43864.53  4499.52  10.26
2379.0  43276.00  4389.64  10.14
2381.3  42676.67  4277.78  10.02
2383.5  42169.60  4180.98  9.91
2385.8  41571.63  4079.11  9.81
2388.0  41064.00  3988.40  9.71
2390.3  40572.13  3896.22  9.60
2392.5  40104.00  3804.00  9.49
2394.8  39639.60  3702.60  9.34
2397.0  39166.40  3615.73  9.23
2399.3  38706.45  3533.17  9.13
2401.5  38269.00  3450.42  9.02
2403.8  37738.27  3350.13  8.88
2406.0  37262.42  3257.31  8.74
2408.2  36851.47  3174.85  8.62
2410.4  36426.37  3100.03  8.51
2412.7  36016.07  3020.19  8.39
2414.9  35647.70  2934.80  8.23
2417.1  35255.20  2853.27  8.09
2419.3  34841.60  2777.60  7.97
2421.6  34474.58  2708.19  7.86
2423.8  34102.33  2632.23  7.72
2426.0  33756.67  2553.39  7.56
2428.2  33411.47  2482.67  7.43
2430.4  33083.33  2421.70  7.32
2432.6  32800.00  2368.89  7.22
2434.8  32494.37  2303.52  7.09
2437.0  32132.53  2229.93  6.94
2439.2  31804.72  2162.67  6.80
2441.4  31493.00  2108.62  6.70
2443.6  31239.48  2049.47  6.56
2445.7  30973.72  1999.20  6.45
2447.9  30700.17  1939.05  6.32
2450.1  30404.20  1887.38  6.21
2452.3  30054.38  1821.05  6.06
2454.5  29699.90  1768.19  5.95
2456.6  29318.00  1712.00  5.84
2458.8  28943.20  1663.57  5.75
2461.0  28660.33  1619.47  5.65
2463.1  28372.50  1576.25  5.56
2465.3  28081.37  1531.62  5.45
2467.5  27833.25  1489.75  5.35
2469.6  27610.75  1461.83  5.29
2471.8  27315.32  1411.57  5.17
2473.9  26969.00  1357.50  5.03
2476.1  26617.50  1309.39  4.92
2478.2  26292.73  1299.91  4.94
2480.4  26002.90  1268.93  4.88
2482.5  25640.40  1238.67  4.83
2484.6  25276.17  1189.53  4.71
2486.8  25010.10  1172.27  4.69
2488.9  24716.70  1152.18  4.66
2491.1  24387.07  1126.53  4.62
2493.2  23981.93  1080.41  4.51
2495.3  23585.03  1058.20  4.49
2497.4  23248.40  1035.77  4.46
2499.5  22931.78  1019.55  4.45
2501.7  22793.03  1007.91  4.42
2503.8  22701.23  997.43  4.39
2505.9  22635.42  968.06  4.28
2508.0  22614.02  963.42  4.26
2510.1  22604.53  965.70  4.27
2512.2  22680.60  960.32  4.23
2514.3  22817.97  968.15  4.24
2516.4  23009.60  978.43  4.25
