/*** Spectra Vista SIG Data ***/
name= 43_20221021_ACRU_39_avg.sig
comm= Averaged Ref/Tar of files: HR.102122.0045_moc.sig,HR.102122.0046_moc.sig,HR.102122.0047_moc.sig
data=
337.3  6217.05  443.12  7.13
338.8  6445.40  456.26  7.08
340.3  6805.80  460.92  6.77
341.8  7076.55  454.49  6.42
343.2  7461.30  433.13  5.81
344.7  7900.50  426.92  5.40
346.2  8307.25  424.57  5.11
347.7  8627.35  426.66  4.95
349.2  8920.80  421.92  4.73
350.6  9277.35  431.34  4.65
352.1  9834.25  427.20  4.34
353.6  10320.00  437.70  4.24
355.1  10843.58  442.23  4.08
356.6  11518.28  444.99  3.86
358.0  12031.75  465.59  3.87
359.5  12499.88  450.64  3.61
361.0  13164.60  482.31  3.66
362.5  13842.00  493.26  3.56
364.0  14539.78  507.56  3.49
365.4  15214.38  526.91  3.46
366.9  15819.10  541.75  3.42
368.4  16462.60  556.90  3.38
369.9  17172.00  586.53  3.42
371.3  18016.08  615.29  3.42
372.8  18805.90  644.18  3.43
374.3  19619.80  650.24  3.31
375.8  20443.28  653.02  3.19
377.2  21217.95  670.91  3.16
378.7  21965.48  678.25  3.09
380.2  22777.20  700.99  3.08
381.7  23684.75  718.41  3.03
383.1  24569.85  725.10  2.95
384.6  25446.30  733.05  2.88
386.1  26362.50  760.24  2.88
387.6  27233.85  782.11  2.87
389.0  28204.65  806.84  2.86
390.5  29186.03  817.54  2.80
392.0  30222.00  841.80  2.79
393.4  31236.00  850.38  2.72
394.9  32219.70  880.33  2.73
396.4  33345.40  914.66  2.74
397.9  34418.70  929.47  2.70
399.3  35316.70  956.44  2.71
400.8  36457.58  968.86  2.66
402.2  37562.25  994.37  2.65
403.7  38733.75  1021.27  2.64
405.2  39876.50  1045.81  2.62
406.6  41087.10  1071.67  2.61
408.1  42131.93  1095.17  2.60
409.6  43288.30  1117.85  2.58
411.0  44514.80  1146.88  2.58
412.5  45821.50  1178.65  2.57
414.0  47113.85  1215.21  2.58
415.4  48375.00  1239.88  2.56
416.9  49645.58  1280.85  2.58
418.4  50927.65  1317.39  2.59
419.8  52247.30  1352.73  2.59
421.3  53638.20  1396.56  2.60
422.7  55060.20  1437.63  2.61
424.2  56536.88  1476.44  2.61
425.7  57937.00  1514.39  2.61
427.1  59404.50  1567.16  2.64
428.6  60860.68  1605.34  2.64
430.0  62322.15  1653.97  2.65
431.5  63982.10  1694.18  2.65
432.9  65574.63  1742.49  2.66
434.4  67233.13  1793.94  2.67
435.9  68834.00  1836.60  2.67
437.3  70503.00  1886.07  2.68
438.8  72098.60  1930.84  2.68
440.2  73714.03  1979.22  2.68
441.7  75545.45  2031.53  2.69
443.1  77334.75  2082.78  2.69
444.6  79064.65  2130.68  2.69
446.0  80841.80  2176.03  2.69
447.5  82775.00  2235.71  2.70
448.9  84470.83  2285.51  2.71
450.4  86325.00  2337.62  2.71
451.8  88088.25  2389.03  2.71
453.3  89852.63  2442.29  2.72
454.7  91631.70  2494.56  2.72
456.2  93385.25  2542.35  2.72
457.6  95264.10  2598.71  2.73
459.1  97034.70  2646.98  2.73
460.5  98883.93  2701.54  2.73
462.0  100850.40  2763.12  2.74
463.4  102819.68  2819.67  2.74
464.8  104717.03  2870.79  2.74
466.3  106594.28  2925.65  2.74
467.7  108582.40  2978.01  2.74
469.2  110391.90  3030.46  2.75
470.6  112433.13  3087.08  2.75
472.0  114433.93  3147.12  2.75
473.5  116409.70  3192.99  2.74
474.9  118520.10  3251.95  2.74
476.4  120540.80  3311.11  2.75
477.8  122584.00  3376.53  2.75
479.2  124599.15  3436.67  2.76
480.7  126698.78  3490.75  2.76
482.1  128873.88  3551.53  2.76
483.6  131018.40  3612.12  2.76
485.0  133216.95  3675.11  2.76
486.4  135265.35  3748.15  2.77
487.9  137464.50  3816.17  2.78
489.3  139566.75  3896.66  2.79
490.7  141681.00  3970.00  2.80
492.2  143889.63  4047.63  2.81
493.6  146084.60  4135.57  2.83
495.0  148358.93  4240.71  2.86
496.5  150510.15  4343.76  2.89
497.9  152742.63  4454.06  2.92
499.3  154984.25  4577.83  2.95
500.7  157234.80  4707.50  2.99
502.2  159584.15  4852.01  3.04
503.6  161839.80  5018.53  3.10
505.0  164058.40  5210.18  3.18
506.5  166475.05  5424.50  3.26
507.9  168838.40  5671.64  3.36
509.3  171078.53  5932.71  3.47
510.7  173665.05  6236.12  3.59
512.2  176298.45  6578.65  3.73
513.6  179103.50  6979.83  3.90
515.0  181802.08  7422.44  4.08
516.4  184566.40  7914.16  4.29
517.8  187316.50  8437.12  4.50
519.3  190209.60  9001.91  4.73
520.7  192843.60  9588.24  4.97
522.1  195460.85  10191.41  5.21
523.5  197995.33  10804.09  5.46
524.9  200833.58  11446.46  5.70
526.3  203411.25  12064.72  5.93
527.8  206128.63  12680.60  6.15
529.2  208713.60  13295.18  6.37
530.6  211398.30  13886.76  6.57
532.0  214235.45  14468.88  6.75
533.4  216731.20  14994.66  6.92
534.8  219228.90  15501.37  7.07
536.3  222131.60  15997.58  7.20
537.7  225040.00  16483.07  7.32
539.1  227878.63  16949.14  7.44
540.5  230686.50  17416.24  7.55
541.9  233643.20  17887.33  7.66
543.3  236179.30  18322.10  7.76
544.7  239162.00  18800.57  7.86
546.1  241955.00  19278.28  7.97
547.5  244792.80  19758.45  8.07
549.0  247743.20  20238.93  8.17
550.4  250593.53  20701.20  8.26
551.8  253538.88  21150.11  8.34
553.2  256383.90  21571.88  8.41
554.6  259206.40  21951.50  8.47
556.0  262063.20  22294.98  8.51
557.4  265147.60  22636.34  8.54
558.8  267991.25  22925.89  8.55
560.2  271160.00  23214.86  8.56
561.6  274063.90  23432.69  8.55
563.0  276820.70  23597.38  8.52
564.4  279997.90  23768.79  8.49
565.8  282987.10  23900.40  8.45
567.2  286142.00  24011.75  8.39
568.6  289141.65  24080.09  8.33
570.0  291968.63  24074.85  8.25
571.4  295339.55  24074.39  8.15
572.8  298465.80  24035.66  8.05
574.2  301328.48  23982.13  7.96
575.6  304371.88  23965.03  7.87
577.0  307343.58  23966.19  7.80
578.4  310712.50  24020.00  7.73
579.8  313751.98  24064.69  7.67
581.2  316773.25  24128.75  7.62
582.5  319680.00  24207.43  7.57
583.9  322703.20  24322.29  7.54
585.3  325546.40  24435.39  7.51
586.7  328528.20  24580.16  7.48
588.1  331465.80  24747.71  7.47
589.5  334763.25  24952.23  7.45
590.9  337695.55  25171.00  7.45
592.3  340613.10  25412.20  7.46
593.7  343566.30  25678.86  7.47
595.0  346466.40  25956.98  7.49
596.4  349742.50  26268.47  7.51
597.8  352353.80  26526.64  7.53
599.2  355457.70  26797.61  7.54
600.6  358587.08  27044.71  7.54
602.0  361561.20  27239.39  7.53
603.3  364416.00  27375.77  7.51
604.7  367386.03  27463.32  7.48
606.1  370358.78  27494.16  7.42
607.5  373642.23  27482.46  7.36
608.9  376707.10  27426.37  7.28
610.2  379843.20  27333.90  7.20
611.6  382745.00  27195.67  7.11
613.0  385516.13  27039.01  7.01
614.4  388241.28  26883.00  6.92
615.8  391489.20  26780.10  6.84
617.1  394190.35  26649.24  6.76
618.5  397438.35  26606.88  6.69
619.9  400125.90  26575.20  6.64
621.3  403012.03  26608.24  6.60
622.6  405902.25  26687.70  6.57
624.0  408588.00  26821.06  6.56
625.4  411696.68  27026.25  6.56
626.8  414624.60  27271.55  6.58
628.1  417378.85  27527.70  6.60
629.5  420073.85  27807.63  6.62
630.9  422836.80  28092.98  6.64
632.2  425820.40  28355.14  6.66
633.6  428169.30  28514.61  6.66
635.0  431049.20  28592.78  6.63
636.3  434028.53  28534.92  6.57
637.7  436690.80  28310.38  6.48
639.1  439639.20  27955.14  6.36
640.4  442339.75  27465.85  6.21
641.8  445147.20  26876.64  6.04
643.2  447664.35  26206.67  5.85
644.5  450520.00  25505.33  5.66
645.9  453116.30  24797.52  5.47
647.2  455395.33  24114.42  5.30
648.6  458034.00  23543.84  5.14
650.0  460823.40  23072.02  5.01
651.3  463669.90  22686.74  4.89
652.7  467545.50  22382.91  4.79
654.0  470291.25  22046.11  4.69
655.4  472483.73  21701.18  4.59
656.8  474226.73  21285.35  4.49
658.1  476841.23  20854.58  4.37
659.5  479952.00  20364.89  4.24
660.8  482762.70  19854.66  4.11
662.2  485395.90  19330.97  3.98
663.5  488226.90  18842.36  3.86
664.9  490123.50  18379.53  3.75
666.2  492379.88  17990.17  3.65
667.6  494959.50  17721.30  3.58
668.9  497534.40  17563.06  3.53
670.3  500522.75  17447.27  3.49
671.6  502652.00  17414.69  3.46
673.0  504941.60  17459.11  3.46
674.3  507353.00  17567.59  3.46
675.7  509841.90  17734.58  3.48
677.0  512147.03  17946.03  3.50
678.4  514333.60  18239.24  3.55
679.7  516707.33  18620.82  3.60
681.1  519200.78  19104.30  3.68
682.4  521339.63  19734.64  3.79
683.8  523627.88  20571.65  3.93
685.1  525870.60  21711.76  4.13
686.4  528100.30  23270.28  4.41
687.8  530492.93  25411.54  4.79
689.1  532896.00  28317.83  5.31
690.5  534896.55  32132.60  6.01
691.8  537528.75  37137.90  6.91
693.1  540009.00  43365.77  8.03
694.5  542360.70  50732.79  9.35
695.8  544720.50  59123.19  10.85
697.1  546949.20  68308.51  12.49
698.5  549282.38  78138.61  14.23
699.8  551627.20  88413.32  16.03
701.1  553620.38  98809.01  17.85
702.5  555677.13  109210.82  19.65
703.8  558112.65  119477.15  21.41
705.1  559957.55  129310.27  23.09
706.5  562214.90  138860.67  24.70
707.8  564057.75  147898.64  26.22
709.1  566295.05  156637.22  27.66
710.5  568532.35  164969.32  29.02
711.8  570438.00  172878.84  30.31
713.1  572330.00  180461.58  31.53
714.4  574426.78  187777.49  32.69
715.8  576688.10  194852.43  33.79
717.1  578943.55  201634.61  34.83
718.4  581183.25  208132.97  35.81
719.7  583371.45  214330.91  36.74
721.0  585063.05  220106.34  37.62
722.4  586917.90  225658.03  38.45
723.7  588861.65  231001.80  39.23
725.0  590584.25  235984.93  39.96
726.3  592854.60  240920.31  40.64
727.6  594543.00  245401.23  41.28
729.0  596341.20  249672.69  41.87
730.3  598287.60  253776.13  42.42
731.6  599774.20  257442.92  42.92
732.9  601731.00  261078.80  43.39
734.2  603351.38  264380.68  43.82
735.5  605136.40  267556.83  44.21
736.8  607115.78  270636.64  44.58
738.1  608910.30  273455.63  44.91
739.5  610678.65  276081.20  45.21
740.8  612575.70  278626.39  45.48
742.1  614134.90  280886.86  45.74
743.4  615860.35  283107.79  45.97
744.7  617694.00  285292.00  46.19
746.0  619176.73  287175.79  46.38
747.3  620653.60  288978.52  46.56
748.6  622160.90  290678.95  46.72
749.9  623910.60  292377.38  46.86
751.2  625157.40  293749.99  46.99
752.5  626686.65  295170.49  47.10
753.8  627997.50  296416.76  47.20
755.1  629497.25  297717.10  47.29
756.4  630599.70  298754.70  47.38
757.7  632630.63  300153.78  47.45
759.0  636156.43  302251.25  47.51
760.3  638859.15  303874.00  47.57
761.6  641689.15  305506.92  47.61
762.9  643093.00  306453.72  47.65
764.2  643842.60  307069.17  47.69
765.5  644676.30  307680.97  47.73
766.8  645187.85  308156.61  47.76
768.1  646241.40  308831.52  47.79
769.3  647519.00  309595.31  47.81
770.6  648859.45  310403.67  47.84
771.9  649995.15  311085.63  47.86
773.2  651339.00  311873.14  47.88
774.5  652265.10  312420.54  47.90
775.8  653345.08  313007.21  47.91
777.1  654532.95  313672.26  47.92
778.4  655772.50  314359.19  47.94
779.6  657019.80  315053.78  47.95
780.9  657720.00  315472.94  47.96
782.2  658641.23  316021.21  47.98
783.5  659520.50  316513.39  47.99
784.8  660261.00  316940.00  48.00
786.0  661083.83  317379.98  48.01
787.3  661896.10  317814.21  48.02
788.6  662796.75  318313.29  48.03
789.9  663496.50  318717.50  48.04
791.2  664806.20  319414.18  48.05
792.4  665896.00  319972.53  48.05
793.7  667437.65  320734.26  48.05
795.0  668409.90  321262.91  48.06
796.2  669686.95  321950.35  48.07
797.5  670895.00  322584.20  48.08
798.8  672240.63  323271.95  48.09
800.0  673330.00  323834.67  48.09
801.3  674517.38  324414.45  48.10
802.6  675576.00  324935.31  48.10
803.8  676624.20  325485.18  48.10
805.1  677655.38  326015.30  48.11
806.4  678662.75  326497.82  48.11
807.7  679645.98  327054.05  48.12
808.9  680766.40  327615.91  48.12
810.2  681662.10  328059.76  48.13
811.4  682723.20  328583.99  48.13
812.7  684074.95  329274.02  48.13
814.0  685284.60  329892.64  48.14
815.2  686758.50  330591.17  48.14
816.5  687859.38  331149.42  48.14
817.7  688659.50  331551.83  48.14
819.0  689348.80  331918.08  48.15
820.2  690063.15  332317.38  48.16
821.5  691161.60  332877.39  48.16
822.7  692201.83  333406.88  48.17
824.0  693165.20  333888.85  48.17
825.2  693882.15  334234.46  48.17
826.5  694618.25  334613.12  48.17
827.7  695609.48  335111.83  48.18
829.0  696511.43  335532.86  48.17
830.2  697578.80  336035.57  48.17
831.5  698438.03  336497.26  48.18
832.7  699339.15  336984.86  48.19
834.0  700020.90  337299.92  48.18
835.2  701137.05  337797.85  48.18
836.4  701789.20  338188.94  48.19
837.7  702489.38  338592.22  48.20
838.9  703726.05  339217.72  48.20
840.1  704645.70  339664.35  48.20
841.4  705693.20  340140.66  48.20
842.6  706507.20  340598.28  48.21
843.8  707389.80  341015.28  48.21
845.1  708171.75  341442.04  48.21
846.3  709052.40  341933.48  48.22
847.5  709956.00  342394.12  48.23
848.8  710941.25  342837.29  48.22
850.0  712221.40  343399.98  48.22
851.2  713116.15  343850.57  48.22
852.5  714302.00  344441.00  48.22
853.7  715018.05  344799.48  48.22
854.9  716092.65  345358.97  48.23
856.1  717072.30  345839.37  48.23
857.4  717970.43  346296.73  48.23
858.6  719196.80  346763.36  48.22
859.8  720275.80  347324.54  48.22
861.0  721289.45  347819.64  48.22
862.2  722353.80  348287.44  48.22
863.5  723214.13  348700.48  48.22
864.7  724212.50  349183.81  48.22
865.9  725275.88  349642.11  48.21
867.1  726150.00  349984.94  48.20
868.3  727237.48  350535.76  48.20
869.5  728307.15  351091.50  48.21
870.8  729436.50  351605.58  48.20
872.0  730508.65  352059.54  48.19
873.2  731555.85  352476.51  48.18
874.4  732340.90  352869.66  48.18
875.6  733531.10  353390.26  48.18
876.8  734949.60  354012.31  48.17
878.0  735869.05  354441.93  48.17
879.2  737076.65  354938.58  48.15
880.4  738036.00  355451.85  48.16
881.6  739095.80  355880.84  48.15
882.8  740397.70  356473.39  48.15
884.0  741340.60  356814.78  48.13
885.2  742653.50  357418.28  48.13
886.5  744087.05  357973.02  48.11
887.7  745043.70  358391.89  48.10
888.8  746303.85  359035.98  48.11
890.0  747311.25  359422.00  48.10
891.2  748438.28  359882.47  48.08
892.4  749654.40  360425.72  48.08
893.6  751562.00  361271.98  48.07
894.8  753007.20  361949.46  48.07
896.0  754558.35  362682.89  48.07
897.2  756392.18  363482.18  48.05
898.4  758171.40  364277.68  48.05
899.6  759529.90  364774.55  48.03
900.8  760019.00  365005.07  48.03
902.0  760588.50  365212.34  48.02
903.2  760888.10  365295.44  48.01
904.3  761889.38  365750.36  48.01
905.5  763141.50  366247.67  47.99
906.7  764188.05  366730.12  47.99
907.9  765236.35  367091.36  47.97
909.1  766323.25  367555.65  47.96
910.2  766867.50  367672.50  47.94
911.4  767034.23  367709.92  47.94
912.6  767755.00  367893.28  47.92
913.8  768414.15  368264.21  47.93
915.0  768900.20  368309.17  47.90
916.2  769044.00  368374.97  47.90
917.3  769511.65  368546.19  47.89
918.5  769971.90  368653.66  47.88
919.7  770120.25  368615.73  47.86
920.8  770481.73  368607.14  47.84
922.0  770521.95  368607.49  47.84
923.2  770589.38  368708.67  47.85
924.4  771230.50  368907.10  47.83
925.5  772211.20  369093.22  47.80
926.7  773177.30  369356.32  47.77
927.9  774431.93  369938.91  47.77
929.0  777834.90  371311.30  47.74
930.2  781720.80  373185.77  47.74
931.4  786671.45  375604.01  47.75
932.5  791137.60  377578.65  47.73
933.7  794082.83  378704.99  47.69
934.9  795777.50  379176.00  47.65
936.0  794753.78  378472.94  47.62
937.2  791562.30  376839.72  47.61
938.3  787666.75  374677.71  47.57
939.5  785140.20  373430.35  47.56
940.7  785286.43  373335.53  47.54
941.8  788399.30  374443.62  47.49
943.0  790573.05  375225.58  47.46
944.2  792390.00  375808.80  47.43
945.3  791453.40  375255.49  47.41
946.5  789748.75  374171.67  47.38
947.6  790761.50  374329.50  47.34
948.8  789433.18  373437.89  47.30
949.9  790069.88  373289.39  47.25
951.1  789841.78  372869.92  47.21
952.2  789636.43  372239.61  47.14
953.4  788945.70  371848.24  47.13
954.5  787773.00  370605.90  47.04
955.7  787055.35  369998.51  47.01
956.8  787209.35  369732.79  46.97
958.0  786848.40  368815.05  46.87
959.1  786088.80  368159.04  46.83
960.3  785787.50  367788.81  46.81
961.4  786379.50  367674.31  46.76
962.6  785829.60  367230.44  46.73
963.7  785778.00  367082.35  46.72
964.9  785934.48  366793.52  46.67
966.0  786879.80  366854.65  46.62
967.2  786765.00  366897.92  46.63
968.3  787767.90  367468.06  46.65
969.5  788036.28  367280.85  46.61
970.6  788466.45  367365.66  46.59
971.8  788742.50  367120.63  46.55
972.9  789341.00  367381.73  46.54
974.0  789860.85  367719.70  46.55
975.2  788045.63  367207.71  46.60
976.3  788667.68  367594.11  46.61
977.5  787737.15  367449.80  46.65
978.6  788391.75  367622.00  46.63
979.7  788233.60  367398.83  46.61
980.9  788340.50  367577.94  46.63
982.0  787591.65  367105.92  46.61
983.2  788471.60  367319.39  46.59
984.3  785508.50  366802.44  46.70
985.4  784858.90  366637.31  46.71
986.6  785643.70  367038.82  46.72
987.7  784178.00  366757.12  46.77
988.9  784682.28  367241.20  46.80
990.0  784214.50  366727.73  46.76
993.1  864408.60  398538.60  46.11
996.9  863623.30  399320.67  46.24
1000.7  863002.78  399968.94  46.35
1004.5  861740.93  400268.71  46.45
1008.4  862469.34  401542.23  46.56
1012.2  863520.21  402894.92  46.66
1016.0  863187.25  403598.75  46.76
1019.8  861518.72  403657.62  46.85
1023.7  859894.08  403548.82  46.93
1027.5  857348.40  402912.39  47.00
1031.3  855719.66  402436.67  47.03
1035.1  854566.80  402135.68  47.06
1038.9  854098.54  402069.47  47.08
1042.7  853803.50  402130.78  47.10
1046.5  853053.25  401927.50  47.12
1050.3  851531.93  401268.09  47.12
1054.2  849510.75  400453.82  47.14
1058.0  848570.40  400012.97  47.14
1061.8  847427.50  399501.54  47.14
1065.6  845657.67  398534.20  47.13
1069.4  843322.85  397387.52  47.12
1073.2  841340.50  396333.09  47.11
1077.0  839825.07  395528.15  47.10
1080.8  839301.83  395080.71  47.07
1084.6  839030.50  394664.02  47.04
1088.4  838445.52  394163.31  47.01
1092.2  837220.77  393259.50  46.97
1096.0  835813.83  392245.44  46.93
1099.8  834378.25  391111.96  46.87
1103.6  832572.10  389822.29  46.82
1107.4  831068.55  388608.17  46.76
1111.2  829692.32  387457.14  46.70
1114.9  828897.00  386466.00  46.62
1118.7  828656.50  385549.27  46.53
1122.5  828732.45  384652.26  46.41
1126.3  826408.80  382492.80  46.28
1130.1  825937.85  380833.41  46.11
1133.9  822481.02  377323.08  45.88
1137.7  819835.20  373743.06  45.59
1141.4  815950.18  369200.14  45.25
1145.2  814948.78  365606.00  44.86
1149.0  812953.50  361676.78  44.49
1152.8  809514.55  357399.02  44.15
1156.6  805904.27  353638.05  43.88
1160.3  802629.00  350597.72  43.68
1164.1  797980.80  347415.73  43.54
1167.9  794884.29  345326.02  43.44
1171.7  792358.13  343714.34  43.38
1175.4  789949.44  342288.38  43.33
1179.2  787940.25  340982.57  43.28
1183.0  788137.38  340643.93  43.22
1186.7  788309.67  340239.00  43.16
1190.5  787066.75  339251.08  43.10
1194.3  784335.65  337633.03  43.05
1198.0  781211.63  336006.67  43.01
1201.8  778726.67  334847.33  43.00
1205.6  777165.54  334352.18  43.02
1209.3  776111.25  334291.72  43.07
1213.1  774962.63  334182.89  43.12
1216.8  773142.40  333965.74  43.20
1220.6  770970.33  333580.45  43.27
1224.3  768670.83  333142.86  43.34
1228.1  766490.05  332790.54  43.42
1231.9  764041.20  332193.18  43.48
1235.6  761477.48  331479.15  43.53
1239.4  759104.68  330880.19  43.59
1243.1  756873.90  330199.84  43.63
1246.9  754887.83  329525.84  43.65
1250.6  752789.67  328762.62  43.67
1254.3  750760.80  327991.20  43.69
1258.1  748632.67  327093.62  43.69
1261.8  746097.10  325989.67  43.69
1265.6  743805.03  324944.90  43.69
1269.3  741654.93  323817.15  43.66
1273.1  742302.88  323800.80  43.62
1276.8  742355.33  323468.37  43.57
1280.6  741531.93  322764.34  43.53
1284.3  738777.23  321165.59  43.47
1288.0  736846.61  319799.09  43.40
1291.8  735399.00  318421.80  43.30
1295.5  733814.72  316895.76  43.18
1299.2  731552.25  314925.00  43.05
1302.9  728670.34  312505.64  42.89
1306.7  725550.53  309853.13  42.71
1310.4  722494.33  306970.05  42.49
1314.1  720016.88  304145.89  42.24
1317.9  717466.75  301054.98  41.96
1321.6  714615.42  297607.92  41.65
1325.3  711779.40  293896.74  41.29
1329.0  709108.40  290120.60  40.91
1332.8  705388.75  285650.00  40.50
1336.5  701978.58  281230.13  40.06
1340.2  700415.55  277560.71  39.63
1343.9  700281.45  274439.45  39.19
1347.6  701159.48  271704.93  38.75
1351.4  703177.50  269492.86  38.33
1355.1  707377.37  268131.04  37.90
1358.8  708843.38  265610.85  37.47
1362.5  709882.72  262654.79  37.00
1366.2  706459.08  257557.29  36.46
1369.9  700040.00  250717.28  35.81
1373.6  695057.46  243382.25  35.02
1377.3  693359.13  235766.79  34.00
1381.0  691704.65  226354.36  32.72
1384.8  687411.30  214091.04  31.14
1388.4  681532.50  200018.12  29.35
1392.2  676840.55  185331.69  27.38
1395.9  674923.68  171066.74  25.35
1399.6  670447.38  156703.55  23.37
1403.3  667293.60  143937.43  21.57
1407.0  663943.50  132753.70  19.99
1410.7  661416.60  123672.92  18.70
1414.3  658314.00  116315.07  17.67
1418.1  655338.54  110755.21  16.90
1421.7  652769.37  106592.53  16.33
1425.4  650848.01  103637.65  15.92
1429.1  646910.25  101241.00  15.65
1432.8  645250.73  99880.04  15.48
1436.5  641878.25  98718.06  15.38
1440.2  638374.67  97955.40  15.34
1443.9  636131.42  97655.25  15.35
1447.6  632297.60  97346.51  15.40
1451.2  629000.40  97236.25  15.46
1454.9  627084.85  97467.40  15.54
1458.6  623230.90  97658.89  15.67
1462.3  622438.53  98642.33  15.85
1466.0  622474.71  100159.37  16.09
1469.7  620640.53  101794.00  16.40
1473.3  618340.80  103688.20  16.77
1477.0  613933.88  105491.35  17.18
1480.7  610605.83  107610.20  17.62
1484.4  606723.00  109685.52  18.08
1488.0  603504.52  111941.14  18.55
1491.7  600046.88  114106.69  19.02
1495.4  596608.97  116286.64  19.49
1499.0  593652.15  118476.38  19.96
1502.7  590791.30  120667.47  20.42
1506.4  588025.51  122754.86  20.88
1510.0  585232.92  124768.27  21.32
1513.7  582488.58  126685.92  21.75
1517.4  579905.43  128546.30  22.17
1521.0  577461.87  130357.24  22.57
1524.7  574944.99  131986.92  22.96
1528.3  572518.27  133568.02  23.33
1532.0  569936.90  134988.99  23.68
1535.7  567241.88  136236.70  24.02
1539.3  564597.20  137445.78  24.34
1543.0  562899.75  138813.50  24.66
1546.6  561494.92  140160.49  24.96
1550.3  559941.47  141346.14  25.24
1553.9  557518.00  142265.96  25.52
1557.6  555320.13  143163.17  25.78
1561.2  552761.78  143874.67  26.03
1564.9  550024.80  144493.60  26.27
1568.5  547282.67  145035.43  26.50
1572.2  544940.43  145633.83  26.72
1575.8  543064.70  146338.76  26.95
1579.5  541163.40  146955.65  27.16
1583.1  538807.97  147456.83  27.37
1586.8  536545.83  147910.73  27.57
1590.4  534235.22  148299.73  27.76
1594.0  531847.68  148643.97  27.95
1597.7  529813.62  149078.15  28.14
1601.3  527717.03  149447.51  28.32
1604.9  525212.97  149634.05  28.49
1608.6  522350.78  149626.61  28.64
1612.2  519464.58  149563.25  28.79
1615.8  516910.80  149549.83  28.93
1619.5  514618.96  149545.92  29.06
1623.1  511762.35  149329.48  29.18
1626.7  509024.87  149043.16  29.28
1630.3  506432.40  148760.92  29.37
1634.0  504008.81  148416.99  29.45
1637.6  501774.17  147991.67  29.49
1641.2  499463.42  147365.12  29.50
1644.8  496951.01  146481.90  29.48
1648.5  494260.53  145477.76  29.43
1652.1  492059.70  144586.34  29.38
1655.7  490198.81  143853.62  29.35
1659.3  488385.45  143311.28  29.34
1662.9  485178.13  142488.20  29.37
1666.6  481546.18  141614.28  29.41
1670.2  478159.83  140698.21  29.42
1673.8  474846.75  139644.22  29.41
1677.4  472293.90  138615.61  29.35
1681.0  470600.58  137614.87  29.24
1684.6  469694.50  136572.66  29.08
1688.2  468176.80  135070.00  28.85
1691.8  466470.72  133552.82  28.63
1695.4  465643.49  132283.72  28.41
1699.0  464758.65  131039.46  28.20
1702.6  464141.20  129815.39  27.97
1706.2  462644.20  128178.96  27.71
1709.8  460418.73  126430.14  27.46
1713.4  458809.00  125072.44  27.26
1717.0  457056.95  123998.96  27.13
1720.6  455313.37  123101.34  27.04
1724.2  453846.38  122383.68  26.97
1727.8  452457.66  121756.16  26.91
1731.4  451632.34  121267.96  26.85
1735.0  451635.98  120949.23  26.78
1738.6  451125.38  120306.22  26.67
1742.2  450268.95  119373.52  26.51
1745.8  448582.40  118073.60  26.32
1749.4  446222.23  116545.54  26.12
1753.0  442501.20  114666.74  25.91
1756.6  438604.25  112872.50  25.73
1760.1  435350.40  111313.54  25.57
1763.7  431489.88  109662.84  25.41
1767.3  428389.32  108261.59  25.27
1770.9  425705.58  106977.15  25.13
1774.5  422573.14  105650.38  25.00
1778.0  420434.29  104708.06  24.90
1781.6  418153.78  103944.84  24.86
1785.2  415489.57  103246.39  24.85
1788.8  412679.38  102628.39  24.87
1792.3  410465.00  102173.59  24.89
1795.9  410084.63  102184.24  24.92
1799.5  410799.08  102505.10  24.95
1803.1  413566.83  103309.29  24.98
1806.6  416624.22  104081.25  24.98
1810.2  419231.93  104705.48  24.98
1813.8  419426.47  104736.96  24.97
1817.3  419065.08  104650.27  24.97
1820.9  418446.88  104495.09  24.97
1824.5  417625.10  104253.52  24.96
1828.0  418430.52  104337.39  24.94
1831.6  420263.67  104595.24  24.89
1835.2  420719.72  104357.68  24.80
1838.7  421474.67  103972.83  24.67
1842.3  419847.75  102810.00  24.49
1845.8  417510.13  101167.18  24.23
1849.4  416873.10  99577.70  23.89
1852.9  414697.92  97155.36  23.43
1856.5  412702.23  94264.58  22.84
1860.0  411932.85  91032.84  22.10
1863.6  411943.37  87231.49  21.18
1867.1  413547.63  83039.66  20.08
1870.7  415762.31  77929.75  18.74
1874.2  413579.33  71107.25  17.19
1877.8  407366.77  63222.78  15.52
1881.3  401515.48  55225.70  13.75
1884.9  397991.98  47842.90  12.02
1888.4  395030.13  40944.16  10.36
1891.9  392952.20  35059.68  8.92
1895.5  391451.43  30340.27  7.75
1899.0  391083.03  26856.05  6.87
1901.3  415227.73  19639.91  4.73
1904.1  415611.75  17693.42  4.26
1906.8  413749.12  16186.36  3.91
1909.6  409724.33  14899.07  3.64
1912.4  405559.63  13920.77  3.43
1915.1  401326.47  13197.23  3.29
1917.9  397282.05  12686.10  3.19
1920.6  394063.27  12372.60  3.14
1923.3  391058.87  12155.96  3.11
1926.1  387072.45  11938.05  3.08
1928.8  382717.40  11807.47  3.09
1931.6  381062.37  11846.17  3.11
1934.3  376859.25  11876.59  3.15
1937.0  372606.60  11900.40  3.19
1939.8  368950.45  12016.39  3.26
1942.5  364105.28  12144.43  3.34
1945.2  360118.08  12306.58  3.42
1947.9  357023.33  12542.18  3.51
1950.7  352538.67  12740.56  3.61
1953.4  348853.77  12977.63  3.72
1956.1  346068.23  13284.92  3.84
1958.8  343800.92  13626.28  3.96
1961.5  340746.00  13977.13  4.10
1964.2  337288.00  14300.22  4.24
1966.9  334201.60  14690.49  4.40
1969.6  331420.10  15096.00  4.55
1972.3  328833.90  15525.15  4.72
1975.0  326244.00  15961.56  4.89
1977.7  323949.68  16431.48  5.07
1980.4  321695.73  16926.31  5.26
1983.1  319291.27  17422.82  5.46
1985.8  317118.00  17924.80  5.65
1988.4  315038.35  18437.10  5.85
1991.1  313208.70  18973.73  6.06
1993.8  311747.10  19521.83  6.26
1996.5  310163.70  20069.93  6.47
1999.1  308772.70  20641.73  6.69
2001.8  307543.73  21198.67  6.89
2004.5  306320.55  21731.53  7.09
2007.1  304810.07  22240.45  7.30
2009.8  302820.00  22703.33  7.50
2012.4  301469.50  23196.23  7.69
2015.1  300288.27  23682.23  7.89
2017.8  299118.12  24136.19  8.07
2020.4  297936.05  24580.90  8.25
2023.1  297491.67  25037.17  8.42
2025.7  297251.10  25502.81  8.58
2028.3  296426.43  25880.79  8.73
2031.0  295833.72  26281.62  8.88
2033.6  295521.50  26663.75  9.02
2036.2  295094.33  26996.67  9.15
2038.9  294132.80  27254.93  9.27
2041.5  293166.67  27500.00  9.38
2044.1  292375.00  27743.06  9.49
2046.8  291225.17  27915.15  9.59
2049.4  290359.67  28100.45  9.68
2052.0  290157.53  28341.49  9.77
2054.6  289772.00  28545.33  9.85
2057.2  288700.75  28698.17  9.94
2059.8  287175.00  28819.00  10.04
2062.4  285763.62  28932.94  10.12
2065.0  284364.45  29027.95  10.21
2067.6  282498.70  29096.11  10.30
2070.2  280984.30  29180.24  10.39
2072.8  280071.00  29312.86  10.47
2075.4  279040.17  29421.67  10.54
2078.0  278374.35  29587.53  10.63
2080.6  277082.93  29685.42  10.71
2083.2  275752.40  29765.17  10.79
2085.8  274454.25  29825.95  10.87
2088.4  273369.25  29929.68  10.95
2090.9  271674.00  29949.50  11.02
2093.5  269704.20  29931.47  11.10
2096.1  267910.50  29937.05  11.17
2098.7  266414.82  29969.25  11.25
2101.2  264461.20  29945.73  11.32
2103.8  262953.83  29961.92  11.39
2106.4  261486.67  29970.95  11.46
2108.9  260442.45  30048.02  11.54
2111.5  259496.42  30094.36  11.60
2114.0  258873.33  30174.45  11.66
2116.6  256679.50  30070.33  11.72
2119.1  255539.20  30090.67  11.78
2121.7  254997.10  30178.93  11.84
2124.2  254838.67  30282.83  11.88
2126.8  253632.25  30283.68  11.94
2129.3  252522.55  30300.36  12.00
2131.9  252696.27  30499.74  12.07
2134.4  251868.52  30557.88  12.13
2136.9  251612.27  30696.28  12.20
2139.4  250483.83  30718.31  12.26
2142.0  250059.63  30839.64  12.33
2144.5  249500.67  30939.17  12.40
2147.0  249040.32  31083.73  12.48
2149.5  248657.53  31205.51  12.55
2152.1  248981.63  31418.40  12.62
2154.6  249028.80  31575.20  12.68
2157.1  248948.47  31724.15  12.74
2159.6  247873.60  31716.36  12.80
2162.1  247666.90  31838.09  12.86
2164.6  246995.55  31896.44  12.91
2167.1  246023.00  31897.12  12.97
2169.6  246169.07  32049.29  13.02
2172.1  245357.40  32073.80  13.07
2174.6  244971.77  32156.60  13.13
2177.1  243843.75  32135.19  13.18
2179.5  243399.60  32222.25  13.24
2182.0  243092.33  32327.67  13.30
2184.5  242112.10  32340.53  13.36
2187.0  241276.87  32386.54  13.42
2189.5  240289.70  32403.38  13.49
2191.9  239035.32  32400.50  13.55
2194.4  237274.25  32303.17  13.61
2196.9  236154.05  32295.88  13.68
2199.3  234743.80  32210.67  13.72
2201.8  233551.62  32165.27  13.77
2204.3  232781.30  32164.90  13.82
2206.7  231516.85  32110.30  13.87
2209.2  230294.70  32063.55  13.92
2211.6  228287.37  31880.00  13.96
2214.1  227626.00  31846.27  13.99
2216.5  227298.07  31876.08  14.02
2219.0  225910.67  31745.27  14.05
2221.4  225969.60  31763.55  14.06
2223.9  224820.27  31586.25  14.05
2226.3  223534.92  31372.85  14.03
2228.7  222590.33  31174.29  14.01
2231.1  221970.70  30998.22  13.97
2233.6  220945.60  30699.73  13.89
2236.0  219910.67  30364.73  13.81
2238.4  219003.32  29975.29  13.69
2240.9  218268.40  29610.27  13.57
2243.3  217393.17  29187.30  13.43
2245.7  216534.80  28729.46  13.27
2248.1  215571.20  28251.02  13.11
2250.5  214768.40  27783.07  12.94
2252.9  214056.87  27314.11  12.76
2255.3  213305.63  26846.59  12.59
2257.7  212399.37  26360.52  12.41
2260.1  211551.60  25872.40  12.23
2262.5  210444.00  25389.60  12.06
2264.9  209525.23  24926.56  11.90
2267.3  208608.40  24500.67  11.74
2269.7  207637.80  24058.52  11.59
2272.1  206821.50  23681.78  11.45
2274.5  206050.27  23324.27  11.32
2276.8  205385.07  23040.18  11.22
2279.2  204631.20  22697.73  11.09
2281.6  204029.60  22431.08  10.99
2284.0  203652.90  22176.00  10.89
2286.3  203217.40  21881.27  10.77
2288.7  202711.27  21581.08  10.65
2291.1  202123.50  21299.17  10.54
2293.4  201392.00  20968.10  10.41
2295.8  200710.03  20696.87  10.31
2298.2  199913.10  20334.57  10.17
2300.5  198764.00  19939.30  10.03
2302.9  197376.80  19550.48  9.91
2305.2  195943.00  19181.61  9.79
2307.6  194430.13  18881.33  9.71
2309.9  193348.65  18633.70  9.64
2312.2  192356.67  18388.61  9.56
2314.6  191319.37  18200.86  9.51
2316.9  190254.47  17976.80  9.45
2319.2  189549.07  17797.57  9.39
2321.6  188930.58  17607.03  9.32
2323.9  188108.80  17434.80  9.27
2326.2  187244.83  17211.73  9.19
2328.6  186547.35  17015.27  9.12
2330.9  186273.60  16870.62  9.06
2333.2  185843.00  16703.17  8.99
2335.5  185306.55  16539.97  8.93
2337.8  184835.40  16432.20  8.89
2340.1  184156.40  16266.07  8.83
2342.4  183744.45  16110.90  8.77
2344.8  183015.10  15933.60  8.71
2347.1  182247.80  15728.17  8.63
2349.4  181648.27  15583.87  8.58
2351.6  180880.00  15402.67  8.52
2353.9  179807.40  15241.80  8.48
2356.2  178987.15  15086.59  8.43
2358.5  178110.63  14914.57  8.37
2360.8  177452.08  14764.58  8.32
2363.1  177030.42  14649.42  8.28
2365.4  176539.50  14485.50  8.21
2367.7  175927.27  14382.95  8.18
2369.9  175206.17  14191.28  8.10
2372.2  174050.55  14011.30  8.05
2374.5  172890.00  13798.33  7.98
2376.7  171969.00  13576.50  7.89
2379.0  170715.05  13339.15  7.81
2381.3  169176.15  13086.58  7.74
2383.5  168245.00  12886.22  7.66
2385.8  167584.08  12681.47  7.57
2388.0  166677.13  12475.83  7.49
2390.3  165907.87  12246.89  7.38
2392.5  165475.08  12073.22  7.30
2394.8  164495.58  11864.11  7.21
2397.0  164038.40  11664.31  7.11
2399.3  163493.13  11464.65  7.01
2401.5  162739.30  11256.83  6.92
2403.8  162057.97  11074.04  6.83
2406.0  161564.33  10889.88  6.74
2408.2  160729.80  10650.15  6.63
2410.4  159854.42  10466.97  6.55
2412.7  159378.00  10274.53  6.45
2414.9  158841.20  10102.91  6.36
2417.1  158793.80  9930.24  6.25
2419.3  158304.00  9802.39  6.19
2421.6  157429.30  9554.69  6.07
2423.8  156812.07  9394.44  5.99
2426.0  156418.10  9198.83  5.88
2428.2  156098.25  9009.00  5.77
2430.4  156099.08  8832.83  5.66
2432.6  156039.50  8685.50  5.57
2434.8  155401.25  8509.35  5.48
2437.0  154888.50  8370.70  5.40
2439.2  154420.93  8200.26  5.31
2441.4  153608.80  7954.67  5.18
2443.6  153439.67  7816.13  5.09
2445.7  153581.20  7666.07  4.99
2447.9  153621.00  7549.75  4.91
2450.1  152808.75  7390.75  4.84
2452.3  151858.48  7221.74  4.76
2454.5  151187.87  7040.44  4.66
2456.6  150394.42  6885.31  4.58
2458.8  149218.53  6698.38  4.49
2461.0  148895.07  6568.90  4.41
2463.1  148551.33  6488.95  4.37
2465.3  147949.33  6394.67  4.32
2467.5  147480.67  6188.00  4.20
2469.6  147136.33  6068.25  4.12
2471.8  146896.40  5981.29  4.07
2473.9  146218.58  5871.31  4.02
2476.1  145314.58  5765.83  3.97
2478.2  144488.63  5751.18  3.98
2480.4  143670.00  5587.17  3.89
2482.5  142751.37  5428.12  3.80
2484.6  141860.00  5357.33  3.78
2486.8  141073.63  5286.46  3.75
2488.9  140529.80  5248.47  3.73
2491.1  139175.40  5069.68  3.64
2493.2  137911.43  4961.26  3.60
2495.3  136302.17  4861.74  3.57
2497.4  135125.73  4784.25  3.54
2499.5  134279.50  4756.65  3.54
2501.7  134302.00  4645.67  3.46
2503.8  134688.87  4662.54  3.46
2505.9  135301.65  4703.93  3.48
2508.0  136307.08  4691.20  3.44
2510.1  137293.80  4684.30  3.41
2512.2  138209.17  4676.25  3.38
2514.3  139557.60  4773.96  3.42
2516.4  141322.97  4927.27  3.49
