/*** Spectra Vista SIG Data ***/
name= 49_20220926_CECA_33_avg.sig
comm= Averaged Ref/Tar of files: HR.092722.0060_moc.sig,HR.092722.0061_moc.sig,HR.092722.0062_moc.sig
data=
337.3  3176.00  185.27  5.83
338.8  3318.90  190.57  5.74
340.3  3466.90  190.08  5.48
341.8  3658.00  188.13  5.14
343.2  3818.40  188.59  4.94
344.7  3966.45  186.85  4.71
346.2  4166.70  189.86  4.56
347.7  4404.40  191.76  4.35
349.2  4573.80  189.36  4.14
350.6  4847.70  192.37  3.97
352.1  5108.68  200.06  3.92
353.6  5343.80  200.93  3.76
355.1  5657.40  198.20  3.50
356.6  5965.05  204.77  3.43
358.0  6220.50  210.84  3.39
359.5  6519.90  223.66  3.43
361.0  6822.90  234.27  3.43
362.5  7201.65  238.66  3.31
364.0  7541.53  244.15  3.24
365.4  7924.20  248.35  3.13
366.9  8287.50  254.15  3.07
368.4  8673.45  268.07  3.09
369.9  9053.38  285.18  3.15
371.3  9451.80  302.60  3.20
372.8  9903.15  314.05  3.17
374.3  10346.88  319.43  3.09
375.8  10753.05  321.35  2.99
377.2  11163.50  326.90  2.93
378.7  11593.90  333.05  2.87
380.2  12024.30  342.78  2.85
381.7  12512.58  350.55  2.80
383.1  12989.90  365.49  2.81
384.6  13514.48  373.03  2.76
386.1  13998.95  382.47  2.73
387.6  14445.20  383.97  2.66
389.0  14927.60  400.21  2.68
390.5  15399.00  406.09  2.64
392.0  16002.25  417.66  2.61
393.4  16553.25  433.91  2.62
394.9  17121.60  446.43  2.61
396.4  17646.75  455.89  2.58
397.9  18193.75  460.76  2.53
399.3  18765.83  473.70  2.52
400.8  19316.88  486.63  2.52
402.2  19983.70  499.42  2.50
403.7  20584.13  518.19  2.52
405.2  21212.80  531.22  2.50
406.6  21761.60  534.26  2.46
408.1  22374.00  547.14  2.45
409.6  22981.65  567.36  2.47
411.0  23655.80  581.94  2.46
412.5  24323.60  596.98  2.45
414.0  24979.75  617.46  2.47
415.4  25698.38  636.76  2.48
416.9  26368.20  659.39  2.50
418.4  27060.08  676.21  2.50
419.8  27809.60  701.31  2.52
421.3  28537.83  724.20  2.54
422.7  29301.60  747.37  2.55
424.2  30071.25  772.39  2.57
425.7  30839.60  800.10  2.59
427.1  31618.35  825.01  2.61
428.6  32441.50  855.30  2.64
430.0  33187.73  884.20  2.66
431.5  34073.78  917.11  2.69
432.9  34940.25  944.86  2.70
434.4  35855.48  972.19  2.71
435.9  36708.00  1001.07  2.73
437.3  37565.00  1028.76  2.74
438.8  38430.83  1057.04  2.75
440.2  39320.05  1085.96  2.76
441.7  40293.80  1119.47  2.78
443.1  41207.50  1153.89  2.80
444.6  42195.10  1180.25  2.80
446.0  43141.88  1210.26  2.81
447.5  44125.95  1240.31  2.81
448.9  45072.60  1274.27  2.83
450.4  46102.00  1306.84  2.83
451.8  46982.00  1337.89  2.85
453.3  47932.95  1369.26  2.86
454.7  48945.13  1396.55  2.85
456.2  49818.58  1424.77  2.86
457.6  50803.43  1451.40  2.86
459.1  51807.60  1484.79  2.87
460.5  52751.00  1511.50  2.87
462.0  53843.03  1541.33  2.86
463.4  54895.90  1568.58  2.86
464.8  55902.38  1596.29  2.86
466.3  56871.38  1619.42  2.85
467.7  57862.33  1649.59  2.85
469.2  58946.10  1677.20  2.85
470.6  59951.35  1704.73  2.84
472.0  61015.13  1734.58  2.84
473.5  62051.13  1764.41  2.84
474.9  63099.00  1796.31  2.85
476.4  64267.20  1826.47  2.84
477.8  65351.50  1859.59  2.85
479.2  66366.50  1891.35  2.85
480.7  67467.98  1920.90  2.85
482.1  68623.05  1953.64  2.85
483.6  69822.40  1989.15  2.85
485.0  70913.03  2018.23  2.85
486.4  72138.90  2059.17  2.85
487.9  73227.38  2091.79  2.86
489.3  74390.70  2134.14  2.87
490.7  75450.90  2168.92  2.87
492.2  76675.20  2212.56  2.89
493.6  77791.50  2253.59  2.90
495.0  78916.50  2301.00  2.92
496.5  80125.50  2352.19  2.94
497.9  81240.80  2403.63  2.96
499.3  82429.48  2463.44  2.99
500.7  83710.10  2529.01  3.02
502.2  84869.80  2589.90  3.05
503.6  86154.60  2666.10  3.09
505.0  87255.40  2744.99  3.15
506.5  88576.13  2837.36  3.20
507.9  89780.20  2938.46  3.27
509.3  91108.80  3062.33  3.36
510.7  92342.25  3191.87  3.46
512.2  93740.10  3338.35  3.56
513.6  95240.95  3511.79  3.69
515.0  96715.78  3704.46  3.83
516.4  98119.35  3925.26  4.00
517.8  99779.00  4180.19  4.19
519.3  101114.80  4451.72  4.40
520.7  102719.55  4754.52  4.63
522.1  104015.93  5068.53  4.87
523.5  105375.90  5401.14  5.13
524.9  106898.85  5750.59  5.38
526.3  108371.20  6103.26  5.63
527.8  109875.15  6463.85  5.88
529.2  110870.90  6795.82  6.13
530.6  112392.10  7147.66  6.36
532.0  114086.00  7492.27  6.57
533.4  115455.38  7791.53  6.75
534.8  116340.33  8036.52  6.91
536.3  117970.50  8308.09  7.04
537.7  119952.00  8587.44  7.16
539.1  121413.58  8813.67  7.26
540.5  122620.80  9010.42  7.35
541.9  124391.10  9239.45  7.43
543.3  125681.35  9431.53  7.50
544.7  127018.80  9623.34  7.58
546.1  128816.88  9848.12  7.65
547.5  130065.60  10028.80  7.71
549.0  131714.00  10230.42  7.77
550.4  133226.88  10411.89  7.82
551.8  134814.73  10575.92  7.84
553.2  136342.60  10705.65  7.85
554.6  137696.00  10783.51  7.83
556.0  139228.20  10835.76  7.78
557.4  140853.65  10858.56  7.71
558.8  142509.15  10852.32  7.62
560.2  143984.25  10798.89  7.50
561.6  145658.10  10734.37  7.37
563.0  147257.55  10637.01  7.22
564.4  148871.05  10518.65  7.07
565.8  150396.88  10371.62  6.90
567.2  152155.50  10220.90  6.72
568.6  153652.88  10030.69  6.53
570.0  155087.73  9822.94  6.33
571.4  156810.55  9623.18  6.14
572.8  158575.75  9433.36  5.95
574.2  160204.80  9245.65  5.77
575.6  161775.00  9071.79  5.61
577.0  163318.90  8917.10  5.46
578.4  165039.88  8791.25  5.33
579.8  166582.58  8675.10  5.21
581.2  168300.50  8583.80  5.10
582.5  169731.90  8497.10  5.01
583.9  171253.40  8423.63  4.92
585.3  173067.53  8372.94  4.84
586.7  174566.93  8316.72  4.76
588.1  176055.00  8278.26  4.70
589.5  177710.75  8255.80  4.65
590.9  179353.60  8242.10  4.60
592.3  181171.80  8247.86  4.55
593.7  182646.75  8251.30  4.52
595.0  184269.60  8269.80  4.49
596.4  185728.90  8280.60  4.46
597.8  187220.93  8293.53  4.43
599.2  188773.20  8309.97  4.40
600.6  190547.50  8323.43  4.37
602.0  191843.25  8307.90  4.33
603.3  193656.60  8304.73  4.29
604.7  195333.70  8288.09  4.24
606.1  196815.60  8244.25  4.19
607.5  198473.03  8196.39  4.13
608.9  200184.40  8141.77  4.07
610.2  201568.50  8068.14  4.00
611.6  203185.80  7998.26  3.94
613.0  204756.50  7930.99  3.87
614.4  206144.40  7857.83  3.81
615.8  207616.50  7796.10  3.76
617.1  209151.60  7743.40  3.70
618.5  210796.40  7706.15  3.66
619.9  212323.05  7674.29  3.61
621.3  213944.40  7660.40  3.58
622.6  215543.50  7656.66  3.55
624.0  217010.70  7658.20  3.53
625.4  218493.83  7671.49  3.51
626.8  220083.50  7700.42  3.50
628.1  221357.68  7721.55  3.49
629.5  223137.08  7767.38  3.48
630.9  224634.03  7797.98  3.47
632.2  225903.30  7822.40  3.46
633.6  227420.00  7841.95  3.45
635.0  228880.40  7845.17  3.43
636.3  230384.10  7828.17  3.40
637.7  231747.75  7788.96  3.36
639.1  233397.50  7743.33  3.32
640.4  234883.08  7683.74  3.27
641.8  236092.13  7611.44  3.22
643.2  237677.65  7544.75  3.17
644.5  239038.50  7470.68  3.13
645.9  240624.90  7408.47  3.08
647.2  241699.33  7342.97  3.04
648.6  243263.25  7306.20  3.00
650.0  244641.60  7279.41  2.98
651.3  245551.35  7260.52  2.96
652.7  247672.25  7267.12  2.93
654.0  249747.40  7274.78  2.91
655.4  251094.38  7254.60  2.89
656.8  251243.60  7206.93  2.87
658.1  252696.40  7183.14  2.84
659.5  255074.93  7177.56  2.81
660.8  256545.00  7143.43  2.78
662.2  257577.60  7094.19  2.75
663.5  259155.00  7068.17  2.73
664.9  260205.40  7037.90  2.70
666.2  260983.20  7020.27  2.69
667.6  262720.60  7032.16  2.68
668.9  263655.13  7044.53  2.67
670.3  265479.38  7075.61  2.67
671.6  266539.88  7116.66  2.67
673.0  267734.63  7175.66  2.68
674.3  268979.10  7253.43  2.70
675.7  270308.38  7340.25  2.72
677.0  271370.03  7428.93  2.74
678.4  272669.50  7543.46  2.77
679.7  273748.73  7666.80  2.80
681.1  274988.28  7812.03  2.84
682.4  276095.30  7967.79  2.89
683.8  277288.70  8155.11  2.94
685.1  278266.13  8348.92  3.00
686.4  279586.80  8592.46  3.07
687.8  280817.25  8873.30  3.16
689.1  281885.25  9231.84  3.28
690.5  283219.20  9701.18  3.43
691.8  284016.58  10310.25  3.63
693.1  285344.70  11155.88  3.91
694.5  286513.50  12260.73  4.28
695.8  287764.75  13677.30  4.75
697.1  288925.00  15447.90  5.35
698.5  289969.80  17597.47  6.07
699.8  291010.95  20150.95  6.92
701.1  292167.38  23087.04  7.90
702.5  292969.60  26328.95  8.99
703.8  293917.50  29872.71  10.16
705.1  295045.73  33672.95  11.41
706.5  296088.38  37678.22  12.73
707.8  297031.50  41848.14  14.09
709.1  297860.15  46134.93  15.49
710.5  298976.40  50585.47  16.92
711.8  299801.20  55110.31  18.38
713.1  300782.40  59755.08  19.87
714.4  301696.70  64463.14  21.37
715.8  302499.50  69211.13  22.88
717.1  303803.55  74111.32  24.39
718.4  304774.40  78946.56  25.90
719.7  305862.28  83809.06  27.40
721.0  306360.00  88484.57  28.88
722.4  307085.90  93178.75  30.34
723.7  308040.00  97842.39  31.76
725.0  309060.00  102435.21  33.14
726.3  310009.15  106869.26  34.47
727.6  310556.95  111021.67  35.75
729.0  311459.05  115142.01  36.97
730.3  312242.03  119048.02  38.13
731.6  313126.90  122801.27  39.22
732.9  313909.93  126319.41  40.24
734.2  314697.63  129659.12  41.20
735.5  315705.50  132899.22  42.10
736.8  316489.80  135857.43  42.93
738.1  317344.20  138657.78  43.69
739.5  318312.23  141323.37  44.40
740.8  319007.15  143690.16  45.04
742.1  319647.05  145893.13  45.64
743.4  320275.00  147925.71  46.19
744.7  321132.30  149932.23  46.69
746.0  322021.05  151794.35  47.14
747.3  322636.00  153381.43  47.54
748.6  323394.25  154911.02  47.90
749.9  324038.00  156280.30  48.23
751.2  324626.10  157513.16  48.52
752.5  325358.30  158713.56  48.78
753.8  325859.28  159714.59  49.01
755.1  326508.00  160706.74  49.22
756.4  327077.20  161579.34  49.40
757.7  328049.58  162581.85  49.56
759.0  329831.83  163922.23  49.70
760.3  331029.60  164881.83  49.81
761.6  332553.20  165992.11  49.91
762.9  333037.50  166534.29  50.00
764.2  333371.70  166965.99  50.08
765.5  333596.60  167311.00  50.15
766.8  333961.60  167689.81  50.21
768.1  334444.40  168089.87  50.26
769.3  335007.40  168509.11  50.30
770.6  335623.60  168940.45  50.34
771.9  336296.80  169382.73  50.37
773.2  336625.20  169635.63  50.39
774.5  337194.00  169990.23  50.41
775.8  337775.80  170373.26  50.44
777.1  338314.90  170696.85  50.46
778.4  338593.48  170886.95  50.47
779.6  339310.88  171295.83  50.48
780.9  339750.00  171546.86  50.49
782.2  340161.25  171798.10  50.50
783.5  340380.00  171957.26  50.52
784.8  340832.03  172217.22  50.53
786.0  341185.95  172409.02  50.53
787.3  341503.75  172598.11  50.54
788.6  341895.98  172797.63  50.54
789.9  342286.00  173020.11  50.55
791.2  342884.45  173334.99  50.55
792.4  343467.60  173657.03  50.56
793.7  343886.40  173884.85  50.56
795.0  344439.98  174182.64  50.57
796.2  345022.23  174487.52  50.57
797.5  345652.65  174803.00  50.57
798.8  346296.98  175126.62  50.57
800.0  346868.03  175430.62  50.58
801.3  347282.00  175629.59  50.57
802.6  347825.70  175907.97  50.57
803.8  348366.93  176203.84  50.58
805.1  348783.75  176427.57  50.58
806.4  349186.50  176633.78  50.58
807.7  349660.80  176888.26  50.59
808.9  350160.50  177131.25  50.59
810.2  350571.20  177364.05  50.59
811.4  351035.40  177591.82  50.59
812.7  351609.38  177883.33  50.59
814.0  352408.60  178294.72  50.59
815.2  352996.25  178603.32  50.60
816.5  353376.73  178806.34  50.60
817.7  353769.60  179028.93  50.61
819.0  354247.85  179269.73  50.61
820.2  354376.00  179342.32  50.61
821.5  355012.15  179683.51  50.61
822.7  355363.48  179862.48  50.61
824.0  355633.20  180012.81  50.62
825.2  356065.88  180250.57  50.62
826.5  356311.68  180399.60  50.63
827.7  356825.75  180671.88  50.63
829.0  357251.70  180855.13  50.62
830.2  357523.50  181023.73  50.63
831.5  358020.85  181281.26  50.63
832.7  358257.38  181436.56  50.64
834.0  358609.43  181619.78  50.65
835.2  358955.85  181801.53  50.65
836.4  359205.55  181947.89  50.65
837.7  359617.00  182170.85  50.66
838.9  360025.28  182419.94  50.67
840.1  360408.83  182624.43  50.67
841.4  360746.00  182843.00  50.68
842.6  361134.40  183038.84  50.68
843.8  361444.80  183227.13  50.69
845.1  361916.30  183520.37  50.71
846.3  362282.80  183732.00  50.72
847.5  362659.50  183948.16  50.72
848.8  363075.00  184182.83  50.73
850.0  363432.65  184373.58  50.73
851.2  363949.20  184661.25  50.74
852.5  364323.80  184861.89  50.74
853.7  364812.75  185121.09  50.74
854.9  365268.60  185377.14  50.75
856.1  365680.90  185595.60  50.75
857.4  365848.05  185689.35  50.76
858.6  366316.40  185957.81  50.76
859.8  366716.25  186166.82  50.77
861.0  367146.00  186403.06  50.77
862.2  367599.90  186602.34  50.76
863.5  367959.48  186809.30  50.77
864.7  368445.00  187057.70  50.77
865.9  368761.60  187274.86  50.78
867.1  369044.55  187403.18  50.78
868.3  369459.60  187605.47  50.78
869.5  369928.50  187843.99  50.78
870.8  370413.00  188122.97  50.79
872.0  370928.03  188363.70  50.78
873.2  371368.80  188545.43  50.77
874.4  371735.33  188763.79  50.78
875.6  372070.60  188961.90  50.79
876.8  372522.35  189180.32  50.78
878.0  373058.85  189386.01  50.77
879.2  373495.35  189606.97  50.77
880.4  373971.00  189852.64  50.77
881.6  374413.53  190045.66  50.76
882.8  374756.80  190245.59  50.77
884.0  375389.20  190521.07  50.75
885.2  375882.20  190694.88  50.73
886.5  376368.60  190966.57  50.74
887.7  376754.63  191144.51  50.73
888.8  377239.58  191430.62  50.75
890.0  377750.70  191672.62  50.74
891.2  378360.60  191936.86  50.73
892.4  378959.70  192207.52  50.72
893.6  379522.65  192441.23  50.71
894.8  380345.25  192817.00  50.70
896.0  381020.75  193155.62  50.69
897.2  381741.75  193516.76  50.69
898.4  382499.70  193849.73  50.68
899.6  383091.00  194091.92  50.66
900.8  383325.30  194204.90  50.66
902.0  383522.70  194259.91  50.65
903.2  383635.88  194330.03  50.65
904.3  383918.70  194474.35  50.66
905.5  384394.23  194680.11  50.65
906.7  384992.00  194941.11  50.64
907.9  385522.20  195092.61  50.60
909.1  385707.83  195167.73  50.60
910.2  385828.65  195175.68  50.59
911.4  385918.65  195224.19  50.59
912.6  385921.25  195278.76  50.60
913.8  386063.93  195298.72  50.59
915.0  386470.35  195398.00  50.56
916.2  386587.50  195397.80  50.54
917.3  386452.80  195367.65  50.55
918.5  386657.20  195392.85  50.53
919.7  386757.00  195430.68  50.53
920.8  386703.68  195354.18  50.52
922.0  386732.50  195284.83  50.50
923.2  386841.00  195247.00  50.47
924.4  387034.88  195264.26  50.45
925.5  387228.00  195310.96  50.44
926.7  387829.50  195522.91  50.41
927.9  388395.60  195824.21  50.42
929.0  389800.35  196429.83  50.39
930.2  391761.00  197394.37  50.39
931.4  394094.70  198448.26  50.36
932.5  396697.70  199674.31  50.33
933.7  398153.18  200224.49  50.29
934.9  398698.13  200413.58  50.27
936.0  398167.25  200044.93  50.24
937.2  395921.85  198804.72  50.21
938.3  393972.55  197727.31  50.19
939.5  392374.80  196845.67  50.17
940.7  392447.70  196768.20  50.14
941.8  394004.55  197328.06  50.08
943.0  395067.00  197803.23  50.07
944.2  395985.20  198020.43  50.01
945.3  395323.50  197607.06  49.99
946.5  394440.30  197021.78  49.95
947.6  394558.30  196809.66  49.88
948.8  394258.80  196512.22  49.84
949.9  394207.80  196324.64  49.80
951.1  393831.10  195823.17  49.72
952.2  393516.00  195455.31  49.67
953.4  393153.25  194953.17  49.59
954.5  392979.60  194546.26  49.51
955.7  392628.60  194240.64  49.47
956.8  392437.90  193843.84  49.39
958.0  391833.50  193312.54  49.34
959.1  391632.88  192958.33  49.27
960.3  391417.45  192517.55  49.18
961.4  390994.85  192201.44  49.16
962.6  391032.25  192105.97  49.13
963.7  390557.40  191769.38  49.10
964.9  390343.88  191591.84  49.08
966.0  390134.48  191333.30  49.04
967.2  390149.55  191194.29  49.01
968.3  389658.60  190921.86  49.00
969.5  389727.55  190739.38  48.94
970.6  389490.03  190712.49  48.96
971.8  389551.93  190702.36  48.95
972.9  389656.80  190570.25  48.91
974.0  389776.40  190685.64  48.92
975.2  389564.75  190588.16  48.92
976.3  389358.15  190407.51  48.90
977.5  389520.25  190362.49  48.87
978.6  389697.40  190325.66  48.84
979.7  389897.55  190309.16  48.81
980.9  389599.20  190127.16  48.80
982.0  389239.45  190133.34  48.85
983.2  389324.85  189986.24  48.80
984.3  388817.00  189781.02  48.81
985.4  388802.40  189585.25  48.76
986.6  388127.00  189571.61  48.84
987.7  388726.10  189778.84  48.82
988.9  388821.60  189604.70  48.76
990.0  388591.80  189756.44  48.83
993.1  387477.77  188586.45  48.67
996.9  386348.23  188521.09  48.80
1000.7  386358.41  188974.81  48.91
1004.5  386499.33  189455.56  49.02
1008.4  386102.38  189703.17  49.13
1012.2  385978.63  190015.63  49.23
1016.0  385659.00  190237.30  49.33
1019.8  385088.55  190295.88  49.42
1023.7  384007.61  190061.85  49.49
1027.5  382408.68  189545.45  49.57
1031.3  381419.40  189263.15  49.62
1035.1  380372.83  188925.83  49.67
1038.9  379885.73  188823.45  49.71
1042.7  379599.17  188807.02  49.74
1046.5  379438.00  188843.86  49.77
1050.3  379360.33  188901.96  49.79
1054.2  378976.50  188792.38  49.82
1058.0  378588.99  188614.55  49.82
1061.8  378494.83  188629.97  49.84
1065.6  377939.47  188336.17  49.83
1069.4  377140.67  187921.07  49.83
1073.2  375860.06  187238.71  49.82
1077.0  375162.38  186785.53  49.79
1080.8  375278.13  186705.24  49.75
1084.6  375260.78  186571.13  49.72
1088.4  375469.23  186563.86  49.69
1092.2  374985.00  186160.93  49.64
1096.0  374291.54  185639.51  49.60
1099.8  373581.43  185078.26  49.54
1103.6  372649.68  184403.48  49.48
1107.4  371462.02  183588.77  49.42
1111.2  371180.00  183197.25  49.36
1114.9  370618.50  182616.32  49.27
1118.7  370314.45  182101.98  49.17
1122.5  369927.13  181436.99  49.05
1126.3  368951.33  180364.36  48.89
1130.1  368506.84  179347.71  48.67
1133.9  366847.60  177405.54  48.36
1137.7  365299.80  175270.33  47.98
1141.4  363252.83  172658.21  47.53
1145.2  362318.44  170443.20  47.04
1149.0  361016.25  168176.83  46.58
1152.8  359191.05  165885.13  46.18
1156.6  357313.37  163912.89  45.87
1160.3  355485.67  162283.25  45.65
1164.1  353128.13  160667.77  45.50
1167.9  351468.75  159559.46  45.40
1171.7  350169.75  158707.13  45.32
1175.4  348688.00  157852.14  45.27
1179.2  347299.05  156993.61  45.20
1183.0  346929.67  156595.95  45.14
1186.7  346901.33  156337.15  45.07
1190.5  346510.47  155957.94  45.01
1194.3  345546.07  155377.02  44.97
1198.0  344064.05  154650.24  44.95
1201.8  342357.48  153902.96  44.95
1205.6  341231.00  153529.97  44.99
1209.3  340641.87  153479.93  45.06
1213.1  340102.43  153505.45  45.14
1216.8  339435.25  153541.71  45.23
1220.6  338286.67  153355.97  45.33
1224.3  337018.42  153089.51  45.42
1228.1  335484.20  152733.12  45.53
1231.9  333888.75  152284.25  45.61
1235.6  332148.30  151710.67  45.68
1239.4  330575.13  151214.89  45.74
1243.1  329174.05  150748.61  45.80
1246.9  327904.79  150282.51  45.83
1250.6  326835.00  149880.82  45.86
1254.3  325668.20  149412.58  45.88
1258.1  324410.92  148886.00  45.89
1261.8  322958.67  148234.61  45.90
1265.6  321792.28  147646.84  45.88
1269.3  320982.63  147176.31  45.85
1273.1  321288.21  147200.71  45.82
1276.8  321046.40  146942.44  45.77
1280.6  319935.60  146256.69  45.71
1284.3  317963.20  145112.67  45.64
1288.0  316728.74  144221.87  45.53
1291.8  316209.01  143592.83  45.41
1295.5  315422.80  142797.93  45.27
1299.2  314253.22  141763.20  45.11
1302.9  312619.31  140417.03  44.92
1306.7  310829.87  138907.91  44.69
1310.4  309106.58  137296.56  44.42
1314.1  307513.62  135641.85  44.11
1317.9  306098.13  133933.76  43.76
1321.6  304562.53  132049.58  43.36
1325.3  302901.38  129981.87  42.91
1329.0  301586.02  127992.82  42.44
1332.8  299622.40  125627.58  41.93
1336.5  297944.27  123359.76  41.40
1340.2  297797.50  121724.78  40.88
1343.9  297763.96  120150.90  40.35
1347.6  297953.25  118689.84  39.84
1351.4  299460.00  117800.25  39.34
1355.1  301537.50  117147.58  38.85
1358.8  303264.00  116275.81  38.34
1362.5  303523.88  114673.82  37.78
1366.2  301552.80  111944.11  37.12
1369.9  298370.63  108418.19  36.34
1373.6  295520.98  104506.64  35.36
1377.3  293975.10  100333.80  34.13
1381.0  293457.33  95607.36  32.58
1384.8  291492.50  89459.86  30.69
1388.4  288243.43  82375.06  28.58
1392.2  285993.83  75252.89  26.31
1395.9  284507.85  68345.61  24.02
1399.6  282661.69  61805.84  21.87
1403.3  281191.70  56072.40  19.94
1407.0  279507.10  51148.36  18.30
1410.7  277682.63  47121.79  16.97
1414.3  275797.14  43933.67  15.93
1418.1  274087.83  41525.86  15.15
1421.7  272698.13  39727.86  14.57
1425.4  271360.38  38398.20  14.15
1429.1  270123.38  37446.67  13.86
1432.8  268443.98  36728.08  13.68
1436.5  267620.48  36335.71  13.58
1440.2  266999.47  36140.61  13.54
1443.9  265883.48  35993.04  13.54
1447.6  264310.20  35882.24  13.58
1451.2  263065.73  35874.38  13.64
1454.9  261610.20  35904.06  13.72
1458.6  260331.25  36071.00  13.86
1462.3  259144.60  36381.38  14.04
1466.0  257779.99  36833.76  14.29
1469.7  256063.28  37407.36  14.61
1473.3  254999.83  38218.67  14.99
1477.0  252938.23  38991.73  15.42
1480.7  251271.71  39892.35  15.88
1484.4  249252.10  40758.60  16.35
1488.0  247676.00  41733.65  16.85
1491.7  246044.68  42708.19  17.36
1495.4  244317.95  43665.99  17.87
1499.0  242744.50  44622.94  18.38
1502.7  241450.33  45622.34  18.90
1506.4  240028.26  46567.95  19.40
1510.0  238572.87  47484.34  19.90
1513.7  237027.29  48347.80  20.40
1517.4  235640.00  49202.69  20.88
1521.0  234387.07  50041.80  21.35
1524.7  233135.50  50824.29  21.80
1528.3  231833.63  51570.82  22.24
1532.0  230595.75  52283.43  22.67
1535.7  229161.66  52891.02  23.08
1539.3  227878.38  53501.87  23.48
1543.0  226892.98  54141.99  23.86
1546.6  226192.42  54825.52  24.24
1550.3  225207.45  55378.41  24.59
1553.9  224126.37  55882.74  24.93
1557.6  222863.67  56298.63  25.26
1561.2  221567.85  56665.12  25.57
1564.9  220250.49  56995.15  25.88
1568.5  218926.28  57290.13  26.17
1572.2  217760.95  57608.79  26.46
1575.8  216636.00  57919.78  26.74
1579.5  215630.65  58226.72  27.00
1583.1  214577.77  58507.28  27.27
1586.8  213234.00  58689.33  27.52
1590.4  212015.60  58886.09  27.77
1594.0  210689.48  59031.93  28.02
1597.7  209861.40  59304.47  28.26
1601.3  208911.15  59528.25  28.49
1604.9  207908.45  59708.85  28.72
1608.6  206519.85  59755.00  28.93
1612.2  205171.73  59767.87  29.13
1615.8  203755.50  59741.13  29.32
1619.5  202515.33  59732.76  29.50
1623.1  201189.83  59674.69  29.66
1626.7  199954.30  59615.57  29.81
1630.3  198743.92  59533.29  29.95
1634.0  197638.00  59444.44  30.08
1637.6  196637.93  59351.29  30.18
1641.2  195604.10  59189.97  30.26
1644.8  194370.51  58908.56  30.31
1648.5  193281.30  58625.58  30.33
1652.1  192309.90  58334.61  30.33
1655.7  191387.60  58024.58  30.32
1659.3  190542.85  57757.68  30.31
1662.9  189125.00  57320.81  30.31
1666.6  187677.47  56879.35  30.31
1670.2  186244.80  56406.94  30.29
1673.8  184759.96  55884.27  30.25
1677.4  183591.35  55399.37  30.18
1681.0  182763.88  54949.02  30.07
1684.6  182351.00  54548.77  29.91
1688.2  181629.40  53975.06  29.72
1691.8  180956.77  53424.75  29.52
1695.4  180510.40  52916.86  29.32
1699.0  180151.30  52441.93  29.11
1702.6  179811.67  51954.92  28.89
1706.2  179167.63  51364.80  28.67
1709.8  178210.17  50702.17  28.45
1713.4  177447.43  50146.70  28.26
1717.0  176542.75  49612.68  28.10
1720.6  175704.30  49125.94  27.96
1724.2  175010.55  48665.69  27.81
1727.8  174279.00  48226.17  27.67
1731.4  173816.50  47859.34  27.53
1735.0  173637.38  47563.92  27.39
1738.6  173426.25  47214.71  27.22
1742.2  172871.39  46709.87  27.02
1745.8  172241.14  46154.55  26.80
1749.4  171280.73  45502.04  26.57
1753.0  169779.33  44707.89  26.33
1756.6  168124.83  43911.73  26.12
1760.1  166776.62  43230.09  25.92
1763.7  165048.00  42464.08  25.73
1767.3  163586.50  41801.83  25.55
1770.9  162323.93  41197.55  25.38
1774.5  160845.08  40581.50  25.23
1778.0  159679.61  40099.01  25.11
1781.6  158590.20  39695.17  25.03
1785.2  157416.93  39330.68  24.99
1788.8  156254.80  39013.13  24.97
1792.3  155014.40  38701.37  24.97
1795.9  154482.90  38587.04  24.98
1799.5  154254.00  38563.38  25.00
1803.1  155197.70  38825.16  25.02
1806.6  157277.58  39365.98  25.03
1810.2  159043.27  39826.67  25.04
1813.8  159835.80  40049.71  25.06
1817.3  159339.40  39929.02  25.06
1820.9  158082.07  39606.71  25.05
1824.5  156690.80  39226.04  25.03
1828.0  155592.25  38877.28  24.99
1831.6  155129.20  38654.23  24.92
1835.2  154884.17  38413.48  24.80
1838.7  154678.27  38098.09  24.63
1842.3  154440.00  37680.95  24.40
1845.8  153237.79  36894.18  24.08
1849.4  152614.45  36094.83  23.65
1852.9  151760.00  35034.03  23.09
1856.5  150723.07  33708.14  22.36
1860.0  149678.63  32122.06  21.46
1863.6  149641.87  30494.40  20.38
1867.1  150285.45  28687.05  19.09
1870.7  151115.83  26533.95  17.56
1874.2  150127.65  23731.39  15.81
1877.8  147548.67  20631.96  13.98
1881.3  144623.13  17536.77  12.13
1884.9  142799.53  14805.90  10.37
1888.4  141284.60  12369.77  8.76
1891.9  139712.47  10350.97  7.41
1895.5  138345.65  8801.86  6.36
1899.0  137683.13  7727.83  5.61
1901.3  177545.17  6429.83  3.62
1904.1  177504.00  5697.50  3.21
1906.8  176447.40  5151.20  2.92
1909.6  174148.80  4704.93  2.70
1912.4  172027.33  4374.96  2.54
1915.1  170553.35  4171.75  2.45
1917.9  169029.17  4017.78  2.38
1920.6  167710.63  3879.33  2.31
1923.3  166362.47  3782.72  2.27
1926.1  164679.77  3715.24  2.26
1928.8  163093.33  3676.44  2.25
1931.6  161862.25  3661.42  2.26
1934.3  160785.60  3674.28  2.29
1937.0  159718.40  3694.47  2.31
1939.8  158517.92  3733.69  2.36
1942.5  156959.00  3769.33  2.40
1945.2  154963.05  3803.80  2.45
1947.9  153309.33  3859.49  2.52
1950.7  152008.40  3942.48  2.59
1953.4  150097.35  4017.37  2.68
1956.1  148613.83  4108.81  2.76
1958.8  147287.18  4214.24  2.86
1961.5  145728.00  4327.07  2.97
1964.2  144134.90  4440.80  3.08
1966.9  142483.20  4552.15  3.19
1969.6  141192.00  4689.00  3.32
1972.3  139765.60  4823.80  3.45
1975.0  138688.35  4991.40  3.60
1977.7  137548.82  5148.93  3.74
1980.4  136356.73  5318.44  3.90
1983.1  135239.08  5488.59  4.06
1985.8  134301.90  5669.50  4.22
1988.4  133241.33  5855.78  4.39
1991.1  132271.30  6049.09  4.57
1993.8  131378.32  6235.59  4.75
1996.5  130732.07  6451.01  4.93
1999.1  130016.88  6654.94  5.12
2001.8  129301.43  6866.38  5.31
2004.5  128599.55  7067.05  5.50
2007.1  127855.65  7271.77  5.69
2009.8  127091.30  7459.20  5.87
2012.4  126475.43  7651.60  6.05
2015.1  125908.53  7844.82  6.23
2017.8  125105.63  8023.25  6.41
2020.4  124588.38  8205.94  6.59
2023.1  124225.03  8391.60  6.76
2025.7  123976.67  8574.22  6.92
2028.3  123621.33  8741.78  7.07
2031.0  123207.82  8894.63  7.22
2033.6  122913.60  9045.10  7.36
2036.2  122652.60  9193.00  7.50
2038.9  122043.60  9306.10  7.63
2041.5  121684.67  9431.44  7.75
2044.1  121112.70  9529.40  7.87
2046.8  120721.20  9636.70  7.98
2049.4  120068.70  9715.00  8.09
2052.0  119768.93  9822.09  8.20
2054.6  119367.50  9913.75  8.31
2057.2  118782.07  9996.75  8.42
2059.8  118432.73  10095.73  8.52
2062.4  117535.53  10152.01  8.64
2065.0  116991.73  10232.56  8.75
2067.6  116079.85  10288.57  8.86
2070.2  115460.97  10352.50  8.97
2072.8  114807.22  10425.13  9.08
2075.4  114336.25  10514.58  9.20
2078.0  113691.47  10566.35  9.29
2080.6  113124.00  10633.33  9.40
2083.2  112414.97  10686.57  9.51
2085.8  111908.45  10756.65  9.61
2088.4  111229.33  10800.22  9.71
2090.9  110402.30  10826.87  9.81
2093.5  109495.67  10850.21  9.91
2096.1  108711.32  10873.77  10.00
2098.7  107929.60  10897.19  10.10
2101.2  106939.67  10907.94  10.20
2103.8  106249.73  10937.05  10.29
2106.4  105568.53  10971.98  10.39
2108.9  104896.07  11006.91  10.49
2111.5  104022.73  11006.91  10.58
2114.0  103393.93  11030.20  10.67
2116.6  102847.50  11065.83  10.76
2119.1  102280.70  11092.76  10.85
2121.7  101780.00  11118.33  10.92
2124.2  101368.97  11165.81  11.02
2126.8  100560.38  11154.83  11.09
2129.3  100144.00  11190.67  11.17
2131.9  99545.60  11196.53  11.25
2134.4  99093.45  11230.65  11.33
2136.9  98684.95  11267.03  11.42
2139.4  98154.00  11278.40  11.49
2142.0  97701.80  11302.04  11.57
2144.5  97401.60  11338.60  11.64
2147.0  97150.00  11381.07  11.71
2149.5  96631.87  11395.96  11.79
2152.1  96454.05  11447.76  11.87
2154.6  96378.67  11502.58  11.93
2157.1  95829.17  11496.47  12.00
2159.6  95411.33  11514.64  12.07
2162.1  95231.50  11557.00  12.14
2164.6  94977.53  11584.11  12.20
2167.1  94643.43  11607.73  12.26
2169.6  94314.15  11619.15  12.32
2172.1  93819.90  11624.76  12.39
2174.6  93491.40  11642.02  12.45
2177.1  93037.57  11650.58  12.52
2179.5  92616.98  11664.47  12.59
2182.0  92125.55  11665.68  12.66
2184.5  91581.33  11666.61  12.74
2187.0  90956.20  11647.02  12.81
2189.5  90262.37  11623.41  12.88
2191.9  89461.50  11580.50  12.94
2194.4  88824.55  11561.87  13.02
2196.9  88060.80  11529.60  13.09
2199.3  87367.33  11493.67  13.16
2201.8  86461.20  11420.44  13.21
2204.3  85984.18  11403.69  13.26
2206.7  85320.70  11357.05  13.31
2209.2  84848.42  11329.59  13.35
2211.6  84199.50  11279.40  13.40
2214.1  83888.45  11279.98  13.45
2216.5  83300.93  11231.29  13.48
2219.0  82963.20  11208.11  13.51
2221.4  82576.08  11159.56  13.51
2223.9  82100.08  11093.45  13.51
2226.3  81584.42  11007.50  13.49
2228.7  81003.80  10901.32  13.46
2231.1  80397.90  10777.80  13.41
2233.6  79794.47  10641.91  13.34
2236.0  79214.33  10491.83  13.24
2238.4  78718.50  10349.70  13.15
2240.9  78264.73  10184.98  13.01
2243.3  77708.47  10006.18  12.88
2245.7  77112.50  9823.97  12.74
2248.1  76623.73  9631.12  12.57
2250.5  76102.95  9437.58  12.40
2252.9  75457.63  9215.85  12.21
2255.3  74883.70  9014.70  12.04
2257.7  74390.00  8813.33  11.85
2260.1  73865.40  8618.63  11.67
2262.5  73240.00  8416.67  11.49
2264.9  72708.62  8232.92  11.32
2267.3  72090.00  8050.00  11.17
2269.7  71587.83  7886.20  11.02
2272.1  71028.18  7722.85  10.87
2274.5  70442.40  7560.71  10.73
2276.8  69956.40  7412.33  10.60
2279.2  69355.05  7266.15  10.48
2281.6  68896.27  7130.56  10.35
2284.0  68437.60  7009.40  10.24
2286.3  67974.40  6877.15  10.12
2288.7  67556.23  6758.34  10.00
2291.1  66987.40  6617.56  9.88
2293.4  66517.73  6498.80  9.77
2295.8  65889.10  6361.97  9.66
2298.2  65287.80  6213.45  9.52
2300.5  64604.70  6072.00  9.40
2302.9  63849.67  5924.44  9.28
2305.2  63108.10  5785.17  9.17
2307.6  62436.47  5667.29  9.08
2309.9  61638.33  5538.67  8.99
2312.2  61028.67  5442.22  8.92
2314.6  60412.95  5347.50  8.85
2316.9  59709.15  5257.80  8.81
2319.2  59121.10  5166.06  8.74
2321.6  58468.55  5073.99  8.68
2323.9  57895.83  4986.11  8.61
2326.2  57362.47  4893.23  8.53
2328.6  56827.10  4803.52  8.45
2330.9  56311.50  4714.50  8.37
2333.2  55827.08  4631.97  8.30
2335.5  55361.80  4554.63  8.23
2337.8  54887.17  4471.49  8.15
2340.1  54304.87  4378.03  8.06
2342.4  53852.50  4304.44  7.99
2344.8  53426.17  4224.75  7.91
2347.1  52848.37  4138.09  7.83
2349.4  52285.10  4054.13  7.75
2351.6  51701.22  3973.35  7.69
2353.9  51216.73  3898.45  7.61
2356.2  50680.88  3824.13  7.55
2358.5  50064.00  3744.53  7.48
2360.8  49470.40  3666.13  7.41
2363.1  49016.83  3596.81  7.34
2365.4  48544.80  3533.13  7.28
2367.7  48073.80  3458.00  7.19
2369.9  47528.95  3385.38  7.12
2372.2  46887.20  3302.40  7.04
2374.5  46315.50  3234.00  6.98
2376.7  45676.73  3144.25  6.88
2379.0  45032.63  3055.69  6.79
2381.3  44391.67  2982.78  6.72
2383.5  43870.93  2917.69  6.65
2385.8  43254.27  2839.69  6.57
2388.0  42704.20  2753.33  6.45
2390.3  42197.87  2681.87  6.36
2392.5  41700.00  2616.00  6.27
2394.8  41236.80  2553.10  6.19
2397.0  40743.73  2483.29  6.09
2399.3  40265.92  2404.18  5.97
2401.5  39800.25  2347.92  5.90
2403.8  39277.85  2278.58  5.80
2406.0  38740.00  2210.17  5.71
2408.2  38297.60  2148.42  5.61
2410.4  37874.43  2093.04  5.53
2412.7  37461.23  2023.23  5.40
2414.9  37102.45  1973.40  5.32
2417.1  36690.30  1917.70  5.23
2419.3  36262.40  1860.27  5.13
2421.6  35895.42  1795.42  5.00
2423.8  35502.73  1750.50  4.93
2426.0  35106.93  1700.82  4.84
2428.2  34744.27  1650.76  4.75
2430.4  34433.13  1610.05  4.68
2432.6  34160.00  1564.44  4.58
2434.8  33844.40  1514.89  4.48
2437.0  33489.30  1455.28  4.35
2439.2  33129.35  1414.74  4.27
2441.4  32788.17  1372.42  4.19
2443.6  32552.07  1340.22  4.12
2445.7  32264.87  1309.66  4.06
2447.9  31994.42  1271.06  3.97
2450.1  31696.80  1236.40  3.90
2452.3  31310.77  1195.21  3.82
2454.5  30948.03  1158.30  3.74
2456.6  30530.67  1103.29  3.61
2458.8  30158.70  1067.73  3.54
2461.0  29871.33  1047.61  3.51
2463.1  29551.05  1023.35  3.46
2465.3  29281.30  990.19  3.38
2467.5  29028.00  968.58  3.34
2469.6  28804.08  954.67  3.31
2471.8  28486.62  926.03  3.25
2473.9  28175.67  894.94  3.18
2476.1  27815.67  859.44  3.09
2478.2  27450.47  842.91  3.07
2480.4  27123.45  828.90  3.06
2482.5  26786.17  805.13  3.01
2484.6  26460.50  784.36  2.96
2486.8  26203.30  774.53  2.96
2488.9  25900.45  762.86  2.95
2491.1  25529.47  740.44  2.90
2493.2  25131.53  729.14  2.90
2495.3  24723.40  705.47  2.85
2497.4  24391.50  681.57  2.79
2499.5  24064.62  679.70  2.82
2501.7  23943.37  662.81  2.77
2503.8  23837.97  646.38  2.71
2505.9  23762.92  649.17  2.73
2508.0  23770.12  642.28  2.70
2510.1  23766.95  655.72  2.76
2512.2  23891.70  648.37  2.71
2514.3  24070.87  658.09  2.73
2516.4  24290.10  709.20  2.92
