/*** Spectra Vista SIG Data ***/
name= 39_20221021_LIST_62_avg.sig
comm= Averaged Ref/Tar of files: HR.102122.0034_moc.sig,HR.102122.0035_moc.sig,HR.102122.0036_moc.sig
data=
337.3  6350.75  508.06  8.00
338.8  6541.60  474.59  7.25
340.3  6868.82  478.93  6.97
341.8  7076.55  483.87  6.84
343.2  7520.52  473.73  6.30
344.7  8015.00  469.45  5.86
346.2  8389.50  449.63  5.36
347.7  8706.50  464.35  5.33
349.2  8971.20  463.68  5.17
350.6  9447.80  457.78  4.85
352.1  9905.00  443.37  4.48
353.6  10503.47  440.32  4.19
355.1  10998.80  461.24  4.19
356.6  11670.12  494.57  4.24
358.0  12200.62  489.71  4.01
359.5  12682.80  504.06  3.97
361.0  13322.73  498.12  3.74
362.5  13957.35  507.54  3.64
364.0  14671.78  520.49  3.55
365.4  15306.58  538.50  3.52
366.9  15999.68  563.42  3.52
368.4  16676.40  598.64  3.59
369.9  17384.00  628.93  3.62
371.3  18208.67  651.31  3.58
372.8  18944.43  671.89  3.55
374.3  19777.60  673.28  3.40
375.8  20601.75  690.25  3.35
377.2  21375.90  694.98  3.25
378.7  22193.73  723.40  3.26
380.2  22988.10  731.12  3.18
381.7  23843.00  745.53  3.13
383.1  24745.60  766.27  3.10
384.6  25656.60  771.10  3.01
386.1  26573.40  773.30  2.91
387.6  27444.15  813.16  2.96
389.0  28414.35  852.78  3.00
390.5  29342.10  853.21  2.91
392.0  30360.00  869.40  2.86
393.4  31441.50  890.50  2.83
394.9  32406.33  902.63  2.79
396.4  33530.93  924.29  2.76
397.9  34569.00  955.24  2.76
399.3  35481.12  973.35  2.74
400.8  36636.05  1005.95  2.75
402.2  37801.50  1020.80  2.70
403.7  38937.20  1045.42  2.68
405.2  40045.53  1069.52  2.67
406.6  41283.40  1111.36  2.69
408.1  42322.70  1138.78  2.69
409.6  43459.40  1157.78  2.66
411.0  44653.22  1190.38  2.67
412.5  46010.73  1221.91  2.66
414.0  47299.23  1265.90  2.68
415.4  48581.40  1300.32  2.68
416.9  49833.20  1345.90  2.70
418.4  51145.60  1385.19  2.71
419.8  52435.83  1423.43  2.71
421.3  53846.10  1455.30  2.70
422.7  55274.27  1505.23  2.72
424.2  56744.45  1546.98  2.73
425.7  58168.92  1581.25  2.72
427.1  59619.40  1645.52  2.76
428.6  61070.85  1701.42  2.79
430.0  62557.55  1741.96  2.78
431.5  64174.93  1789.49  2.79
432.9  65773.25  1834.92  2.79
434.4  67427.20  1885.30  2.80
435.9  69068.87  1947.59  2.82
437.3  70733.75  2005.75  2.84
438.8  72326.32  2066.97  2.86
440.2  73966.08  2120.77  2.87
441.7  75770.13  2167.33  2.86
443.1  77548.50  2229.84  2.88
444.6  79284.13  2296.13  2.90
446.0  81075.83  2357.05  2.91
447.5  82983.33  2423.33  2.92
448.9  84695.15  2482.53  2.93
450.4  86533.33  2546.67  2.94
451.8  88289.25  2606.30  2.95
453.3  90080.10  2675.78  2.97
454.7  91869.00  2745.90  2.99
456.2  93615.20  2803.69  2.99
457.6  95486.40  2865.96  3.00
459.1  97274.80  2922.36  3.00
460.5  99081.92  2985.37  3.01
462.0  101076.60  3051.96  3.02
463.4  103004.65  3111.10  3.02
464.8  104922.30  3173.73  3.02
466.3  106819.90  3234.56  3.03
467.7  108800.00  3303.89  3.04
469.2  110627.20  3366.60  3.04
470.6  112604.92  3435.83  3.05
472.0  114606.03  3496.52  3.05
473.5  116573.35  3571.21  3.06
474.9  118703.77  3647.62  3.07
476.4  120744.67  3717.79  3.08
477.8  122770.67  3793.07  3.09
479.2  124785.98  3852.50  3.09
480.7  126857.30  3927.69  3.10
482.1  129013.50  3998.86  3.10
483.6  131167.20  4080.84  3.11
485.0  133347.50  4162.68  3.12
486.4  135415.08  4248.68  3.14
487.9  137615.17  4327.90  3.14
489.3  139680.45  4415.35  3.16
490.7  141832.73  4521.65  3.19
492.2  143974.75  4627.02  3.21
493.6  146178.93  4750.63  3.25
495.0  148424.90  4878.38  3.29
496.5  150576.30  5008.50  3.33
497.9  152808.83  5160.47  3.38
499.3  155041.00  5326.93  3.44
500.7  157272.53  5520.39  3.51
502.2  159584.15  5739.08  3.60
503.6  161830.40  5993.44  3.70
505.0  164058.40  6269.27  3.82
506.5  166465.53  6604.57  3.97
507.9  168857.52  6985.23  4.14
509.3  171107.10  7414.26  4.33
510.7  173665.05  7920.77  4.56
512.2  176223.85  8496.94  4.82
513.6  179011.08  9156.64  5.12
515.0  181701.33  9901.99  5.45
516.4  184493.33  10744.45  5.82
517.8  187243.83  11663.00  6.23
519.3  190109.87  12671.57  6.67
520.7  192717.13  13741.51  7.13
522.1  195316.98  14865.02  7.61
523.5  197861.20  16041.35  8.11
524.9  200698.95  17260.72  8.60
526.3  203263.65  18472.14  9.09
527.8  205985.50  19709.27  9.57
529.2  208512.00  20970.24  10.06
530.6  211203.00  22223.28  10.52
532.0  213983.68  23457.46  10.96
533.4  216469.70  24612.38  11.37
534.8  219007.25  25738.68  11.75
536.3  221915.58  26875.80  12.11
537.7  224765.17  27968.33  12.44
539.1  227601.83  29033.07  12.76
540.5  230454.00  30066.90  13.05
541.9  233386.22  31104.05  13.33
543.3  235993.47  32073.35  13.59
544.7  239008.00  33088.00  13.84
546.1  241795.87  34066.11  14.09
547.5  244699.20  35020.80  14.31
549.0  247714.93  35943.89  14.51
550.4  250573.05  36803.13  14.69
551.8  253545.63  37600.66  14.83
553.2  256410.80  38294.84  14.93
554.6  259259.87  38878.29  15.00
556.0  262143.00  39352.04  15.01
557.4  265200.67  39738.97  14.98
558.8  268057.67  40004.09  14.92
560.2  271240.00  40213.33  14.83
561.6  274130.82  40281.16  14.69
563.0  276901.30  40230.15  14.53
564.4  280058.80  40161.52  14.34
565.8  283028.00  39994.75  14.13
567.2  286169.57  39753.89  13.89
568.6  289169.55  39408.75  13.63
570.0  292003.83  38931.97  13.33
571.4  295382.10  38448.18  13.02
572.8  298487.20  37912.24  12.70
574.2  301321.30  37353.05  12.40
575.6  304350.25  36860.53  12.11
577.0  307307.37  36399.51  11.84
578.4  310668.75  36035.42  11.60
579.8  313685.75  35676.14  11.37
581.2  316706.50  35356.73  11.16
582.5  319605.00  35061.00  10.97
583.9  322612.40  34809.69  10.79
585.3  325470.07  34588.16  10.63
586.7  328389.60  34419.00  10.48
588.1  331326.00  34278.96  10.35
589.5  334614.10  34207.16  10.22
590.9  337536.72  34133.28  10.11
592.3  340452.60  34112.67  10.02
593.7  343371.70  34129.60  9.94
595.0  346253.20  34171.04  9.87
596.4  349510.33  34257.85  9.80
597.8  352136.27  34276.56  9.73
599.2  355221.10  34323.90  9.66
600.6  358339.85  34345.52  9.58
602.0  361268.80  34303.68  9.50
603.3  364086.67  34188.27  9.39
604.7  367045.10  34022.57  9.27
606.1  370014.60  33771.51  9.13
607.5  373259.17  33495.33  8.97
608.9  376293.87  33130.53  8.80
610.2  379407.60  32738.97  8.63
611.6  382268.33  32303.33  8.45
613.0  385044.80  31835.69  8.27
614.4  387766.55  31376.53  8.09
615.8  390964.67  30969.95  7.92
617.1  393644.67  30558.27  7.76
618.5  396831.95  30247.99  7.62
619.9  399495.60  29967.90  7.50
621.3  402366.03  29773.47  7.40
622.6  405210.00  29655.60  7.32
624.0  407857.25  29585.50  7.25
625.4  410884.65  29613.85  7.21
626.8  413769.20  29686.45  7.17
628.1  416517.03  29791.86  7.15
629.5  419208.07  29926.54  7.14
630.9  421979.47  30058.11  7.12
632.2  424908.30  30138.39  7.09
633.6  427337.73  30107.09  7.05
635.0  430147.88  29980.87  6.97
636.3  433132.80  29729.22  6.86
637.7  435779.92  29299.34  6.72
639.1  438655.07  28723.27  6.55
640.4  441300.92  28021.40  6.35
641.8  444075.60  27236.88  6.13
643.2  446593.30  26396.20  5.91
644.5  449446.67  25573.33  5.69
645.9  451843.70  24759.14  5.48
647.2  453944.52  24032.21  5.29
648.6  456391.47  23435.20  5.13
650.0  459043.20  22979.76  5.01
651.3  461974.37  22614.91  4.90
652.7  465805.00  22337.40  4.80
654.0  468551.87  21995.16  4.69
655.4  470755.25  21619.01  4.59
656.8  472585.40  21206.50  4.49
658.1  475287.05  20759.13  4.37
659.5  478252.80  20257.92  4.24
660.8  480925.90  19722.64  4.10
662.2  483650.28  19201.78  3.97
663.5  486360.20  18678.31  3.84
664.9  488232.98  18199.75  3.73
666.2  490464.00  17796.35  3.63
667.6  492936.00  17481.90  3.55
668.9  495561.60  17274.24  3.49
670.3  498521.92  17132.85  3.44
671.6  500574.40  17061.76  3.41
673.0  502864.00  17056.11  3.39
674.3  505235.50  17120.69  3.39
675.7  507684.60  17235.84  3.39
677.0  509937.25  17396.70  3.41
678.4  512111.07  17617.09  3.44
679.7  514384.95  17920.29  3.48
681.1  516844.68  18329.55  3.55
682.4  518980.75  18865.35  3.64
683.8  521212.50  19605.50  3.76
685.1  523465.10  20642.02  3.94
686.4  525687.72  22082.23  4.20
687.8  528003.55  24108.53  4.57
689.1  530419.40  26929.47  5.08
690.5  532368.40  30714.88  5.77
691.8  534967.03  35731.63  6.68
693.1  537370.00  42038.40  7.82
694.5  539695.00  49584.93  9.19
695.8  542025.67  58231.71  10.74
697.1  544268.93  67769.96  12.45
698.5  546534.00  78048.03  14.28
699.8  548894.93  88845.17  16.19
701.1  550788.00  99856.47  18.13
702.5  552799.92  110924.33  20.07
703.8  555166.55  121939.66  21.96
705.1  556951.43  132505.02  23.79
706.5  559170.93  142796.50  25.54
707.8  560959.95  152578.12  27.20
709.1  563197.25  162009.20  28.77
710.5  565291.13  171004.30  30.25
711.8  567170.00  179499.20  31.65
713.1  569004.67  187594.67  32.97
714.4  571085.17  195344.97  34.21
715.8  573328.25  202820.07  35.38
717.1  575534.70  209904.61  36.47
718.4  577721.25  216646.19  37.50
719.7  579810.60  223013.43  38.46
721.0  581464.98  228889.27  39.36
722.4  583251.30  234505.26  40.21
723.7  585163.63  239841.96  40.99
725.0  586831.72  244782.44  41.71
726.3  589038.67  249653.39  42.38
727.6  590678.50  254018.60  43.00
729.0  592459.23  258159.67  43.57
730.3  594385.98  262081.42  44.09
731.6  595852.93  265550.57  44.57
732.9  597725.48  268971.95  45.00
734.2  599282.75  272050.35  45.40
735.5  600967.03  274989.51  45.76
736.8  602896.82  277868.27  46.09
738.1  604639.20  280481.28  46.39
739.5  606312.30  282895.66  46.66
740.8  608103.65  285234.33  46.91
742.1  609606.45  287290.01  47.13
743.4  611271.03  289357.23  47.34
744.7  613088.00  291347.47  47.52
746.0  614523.73  293076.00  47.69
747.3  616048.07  294727.63  47.84
748.6  617613.97  296306.26  47.98
749.9  619282.28  297860.89  48.10
751.2  620535.67  299128.10  48.20
752.5  621962.97  300446.65  48.31
753.8  623217.60  301621.86  48.40
755.1  624661.47  302862.07  48.48
756.4  625667.33  303813.52  48.56
757.7  627594.00  305148.25  48.62
759.0  631055.98  307200.11  48.68
760.3  633618.23  308798.25  48.74
761.6  636358.18  310400.73  48.78
762.9  637659.00  311305.50  48.82
764.2  638342.37  311859.73  48.85
765.5  639112.07  312442.27  48.89
766.8  639571.67  312869.25  48.92
768.1  640565.10  313545.96  48.95
769.3  641717.63  314282.73  48.98
770.6  643048.33  315075.47  49.00
771.9  644083.77  315719.27  49.02
773.2  645411.00  316481.10  49.04
774.5  646222.50  317012.70  49.06
775.8  647157.13  317605.04  49.08
777.1  648222.18  318260.33  49.10
778.4  649433.75  318942.85  49.11
779.6  650598.40  319618.88  49.13
780.9  651221.10  320004.27  49.14
782.2  652027.77  320525.70  49.16
783.5  652828.50  321032.77  49.18
784.8  653539.25  321460.65  49.19
786.0  654310.05  321878.40  49.19
787.3  654988.50  322297.10  49.21
788.6  655769.17  322778.15  49.22
789.9  656366.20  323147.72  49.23
791.2  657612.43  323847.20  49.25
792.4  658614.92  324417.50  49.26
793.7  660098.85  325213.68  49.27
795.0  661111.40  325725.42  49.27
796.2  662367.60  326402.72  49.28
797.5  663446.67  327000.00  49.29
798.8  664706.00  327707.80  49.30
800.0  665746.67  328281.33  49.31
801.3  666839.25  328878.90  49.32
802.6  667824.00  329414.40  49.33
803.8  668937.50  329973.49  49.33
805.1  669898.50  330497.05  49.34
806.4  670781.18  330965.94  49.34
807.7  671760.98  331522.33  49.35
808.9  672858.82  332087.89  49.35
810.2  673710.80  332556.00  49.36
811.4  674738.13  333134.88  49.37
812.7  676063.33  333783.65  49.37
814.0  677253.50  334406.38  49.38
815.2  678608.20  335070.32  49.38
816.5  679685.42  335647.67  49.38
817.7  680459.17  336067.63  49.39
819.0  681150.40  336453.23  49.39
820.2  682014.00  336864.14  49.39
821.5  683142.53  337397.84  49.39
822.7  684155.38  337903.04  49.39
824.0  685033.70  338378.82  49.40
825.2  685725.30  338726.18  49.40
826.5  686460.87  339099.01  49.40
827.7  687574.85  339622.02  49.39
829.0  688549.65  340086.10  49.39
830.2  689527.07  340536.37  49.39
831.5  690437.25  340984.47  49.39
832.7  691411.50  341457.60  49.39
834.0  692138.70  341774.91  49.38
835.2  693232.73  342281.07  49.37
836.4  694039.47  342643.41  49.37
837.7  694830.00  343040.25  49.37
838.9  696084.33  343710.65  49.38
840.1  696980.90  344149.52  49.38
841.4  697981.93  344656.19  49.38
842.6  698976.60  345114.47  49.37
843.8  699985.00  345572.76  49.37
845.1  700869.40  345998.62  49.37
846.3  701854.30  346458.00  49.36
847.5  702660.83  346977.37  49.38
848.8  703658.93  347468.21  49.38
850.0  704917.20  348059.57  49.38
851.2  705887.63  348539.85  49.38
852.5  707099.67  349101.33  49.37
853.7  707970.15  349507.08  49.37
854.9  709168.20  350072.32  49.36
856.1  710190.10  350603.97  49.37
857.4  711216.95  351109.14  49.37
858.6  712225.73  351613.36  49.37
859.8  713502.33  352183.65  49.36
861.0  714388.27  352655.10  49.36
862.2  715506.40  353175.76  49.36
863.5  716529.55  353666.17  49.36
864.7  717600.00  354180.83  49.36
865.9  718637.08  354637.47  49.35
867.1  719491.67  355006.67  49.34
868.3  720562.85  355604.24  49.35
869.5  721759.33  356181.23  49.35
870.8  723067.20  356741.46  49.34
872.0  724173.28  357253.37  49.33
873.2  725152.28  357670.18  49.32
874.4  725974.53  358082.03  49.32
875.6  727096.62  358664.43  49.33
876.8  728654.30  359365.60  49.32
878.0  729657.13  359815.82  49.31
879.2  730788.07  360385.04  49.31
880.4  731949.33  360861.87  49.30
881.6  733051.40  361298.41  49.29
882.8  734389.27  361911.75  49.28
884.0  735265.92  362372.05  49.28
885.2  736729.00  362997.60  49.27
886.5  737965.78  363579.70  49.27
887.7  739079.53  364052.73  49.26
888.8  740557.93  364738.69  49.25
890.0  741492.50  365099.00  49.24
891.2  742541.15  365572.09  49.23
892.4  743986.65  366237.41  49.23
893.6  745682.43  367063.90  49.23
894.8  747302.60  367817.05  49.22
896.0  748898.83  368526.67  49.21
897.2  750845.70  369301.68  49.18
898.4  752739.40  370190.80  49.18
899.6  754081.53  370792.39  49.17
900.8  754700.27  371023.64  49.16
902.0  755191.23  371275.13  49.16
903.2  755485.60  371317.43  49.15
904.3  756697.50  371767.50  49.13
905.5  757647.00  372289.50  49.14
906.7  758909.47  372848.96  49.13
907.9  759880.77  373268.86  49.12
909.1  760888.33  373766.98  49.12
910.2  761355.00  373873.50  49.11
911.4  761692.65  373814.58  49.08
912.6  762096.67  374032.00  49.08
913.8  763083.07  374422.49  49.07
915.0  763330.27  374598.80  49.07
916.2  763647.20  374639.11  49.06
917.3  764378.15  374882.39  49.04
918.5  764772.90  374882.56  49.02
919.7  764777.67  374821.63  49.01
920.8  764900.45  374884.50  49.01
922.0  765137.45  374797.10  48.98
923.2  765406.65  374938.33  48.99
924.4  766066.83  375066.62  48.96
925.5  766973.33  375255.73  48.93
926.7  767863.37  375543.26  48.91
927.9  769132.22  375990.22  48.88
929.0  772047.00  377331.84  48.87
930.2  776317.20  379292.69  48.86
931.4  781357.48  381583.68  48.84
932.5  786130.40  383676.70  48.81
933.7  789092.60  384693.26  48.75
934.9  790381.67  385176.17  48.73
936.0  789391.95  384475.68  48.71
937.2  786037.72  382743.13  48.69
938.3  782199.17  380543.80  48.65
939.5  779711.40  379111.20  48.62
940.7  779888.08  378802.78  48.57
941.8  782772.90  379922.66  48.54
943.0  784828.65  380614.37  48.50
944.2  786656.00  381225.60  48.46
945.3  785882.40  380561.20  48.42
946.5  784105.00  379360.33  48.38
947.6  785147.83  379381.80  48.32
948.8  783856.43  378336.53  48.27
949.9  784129.50  378124.67  48.22
951.1  784337.18  377588.14  48.14
952.2  783762.98  376774.45  48.07
953.4  783391.70  376116.88  48.01
954.5  781856.25  374671.15  47.92
955.7  781467.30  373912.19  47.85
956.8  781663.57  373552.29  47.79
958.0  781211.10  372595.86  47.69
959.1  780494.40  371831.04  47.64
960.3  780391.67  371233.33  47.57
961.4  780554.47  371164.83  47.55
962.6  779880.00  370483.20  47.51
963.7  780177.07  370452.32  47.48
964.9  780705.03  370244.47  47.42
966.0  780997.23  370324.87  47.42
967.2  781608.80  370108.48  47.35
968.3  782640.63  370554.89  47.35
969.5  782937.55  370582.89  47.33
970.6  783198.30  370721.67  47.33
971.8  782675.25  370587.63  47.35
972.9  783850.67  370724.20  47.30
974.0  785009.67  371159.63  47.28
975.2  784125.00  370476.00  47.25
976.3  785026.55  370909.27  47.25
977.5  784154.20  370579.40  47.26
978.6  784598.80  370733.77  47.25
979.7  784784.00  370602.03  47.22
980.9  785896.03  370825.59  47.19
982.0  785314.43  370730.87  47.21
983.2  785697.73  370727.28  47.18
984.3  784033.37  370258.47  47.22
985.4  783682.20  369954.48  47.21
986.6  783975.67  370637.01  47.28
987.7  783294.92  370011.92  47.24
988.9  785150.18  370583.40  47.20
990.0  785200.93  370307.07  47.16
993.1  864232.80  404817.17  46.84
996.9  864089.20  405909.83  46.98
1000.7  863849.83  406805.85  47.09
1004.5  862899.53  407404.22  47.21
1008.4  863982.65  408925.85  47.33
1012.2  865651.04  410596.36  47.43
1016.0  865844.73  411585.23  47.54
1019.8  864698.76  411899.77  47.64
1023.7  863395.14  412014.79  47.72
1027.5  860987.40  411599.78  47.81
1031.3  859357.07  411314.60  47.86
1035.1  857985.68  411176.70  47.92
1038.9  857359.31  411311.84  47.97
1042.7  856952.18  411545.42  48.02
1046.5  856248.75  411493.25  48.06
1050.3  854585.29  410975.95  48.09
1054.2  852641.63  410253.96  48.12
1058.0  851785.20  409979.83  48.13
1061.8  850528.67  409546.62  48.15
1065.6  848558.38  408604.76  48.15
1069.4  846371.88  407528.87  48.15
1073.2  844338.63  406488.64  48.14
1077.0  843063.47  405696.34  48.12
1080.8  842761.33  405246.02  48.09
1084.6  842557.83  404868.10  48.05
1088.4  841997.40  404368.99  48.02
1092.2  840695.80  403450.43  47.99
1096.0  839246.47  402404.55  47.95
1099.8  837686.75  401210.16  47.90
1103.6  835712.93  399855.00  47.85
1107.4  834183.97  398568.61  47.78
1111.2  832736.03  397333.70  47.71
1114.9  831787.50  396218.14  47.63
1118.7  831527.42  395200.44  47.53
1122.5  831628.85  394160.39  47.40
1126.3  829221.75  391666.95  47.23
1130.1  828664.50  389496.03  47.00
1133.9  825216.03  385311.96  46.69
1137.7  822436.20  380877.23  46.31
1141.4  818620.95  375353.48  45.85
1145.2  817716.88  370811.30  45.35
1149.0  815639.10  366040.89  44.88
1152.8  812176.15  361169.61  44.47
1156.6  808439.25  357070.51  44.17
1160.3  805106.25  353963.64  43.96
1164.1  800285.20  350880.17  43.84
1167.9  797273.13  348963.57  43.77
1171.7  794715.07  347532.88  43.73
1175.4  792343.07  346277.75  43.70
1179.2  790389.75  345151.28  43.67
1183.0  790777.25  344953.93  43.62
1186.7  790993.00  344670.33  43.57
1190.5  789714.67  343835.76  43.54
1194.3  786902.43  342467.27  43.52
1198.0  783755.95  341102.74  43.52
1201.8  781242.00  340105.33  43.53
1205.6  779662.50  339680.97  43.57
1209.3  778523.25  339639.75  43.63
1213.1  777188.25  339538.52  43.69
1216.8  775152.80  339292.61  43.77
1220.6  772750.00  338845.86  43.85
1224.3  770275.00  338335.12  43.92
1228.1  767997.67  337940.51  44.00
1231.9  765521.90  337307.19  44.06
1235.6  762902.25  336598.47  44.12
1239.4  760516.53  336008.08  44.18
1243.1  758312.10  335330.23  44.22
1246.9  756312.15  334666.54  44.25
1250.6  754194.43  333915.40  44.27
1254.3  752229.60  333178.63  44.29
1258.1  750096.67  332304.76  44.30
1261.8  747590.67  331191.20  44.30
1265.6  745434.44  330094.29  44.28
1269.3  743376.80  328982.75  44.26
1273.1  743953.72  328912.38  44.21
1276.8  743910.60  328475.57  44.16
1280.6  743125.48  327631.71  44.09
1284.3  740454.37  325826.71  44.00
1288.0  738661.41  324228.06  43.89
1291.8  737326.80  322644.60  43.76
1295.5  735692.63  320839.38  43.61
1299.2  733330.65  318502.97  43.43
1302.9  730344.36  315661.32  43.22
1306.7  727144.43  312507.90  42.98
1310.4  724079.07  309048.73  42.68
1314.1  721441.88  305616.70  42.36
1317.9  718928.06  301813.64  41.98
1321.6  716076.73  297587.55  41.56
1325.3  713246.18  293048.36  41.09
1329.0  710653.53  288411.20  40.58
1332.8  706947.50  283081.43  40.04
1336.5  703488.83  277808.95  39.49
1340.2  701841.55  273323.46  38.94
1343.9  701674.73  269437.95  38.40
1347.6  702574.20  266004.58  37.86
1351.4  704591.25  263138.75  37.35
1355.1  708737.43  261141.70  36.85
1358.8  710216.39  257987.74  36.33
1362.5  711270.53  254274.35  35.75
1366.2  707848.13  248252.32  35.07
1369.9  701372.00  240246.28  34.25
1373.6  696350.42  231381.49  33.23
1377.3  694662.30  221777.69  31.93
1381.0  693066.05  209995.95  30.30
1384.8  688705.00  195082.35  28.33
1388.4  682809.20  178394.68  26.13
1392.2  678088.78  161291.20  23.79
1395.9  676170.53  145017.83  21.45
1399.6  671650.31  129412.00  19.27
1403.3  668558.40  116010.86  17.35
1407.0  665131.50  104761.44  15.75
1410.7  662606.73  95880.12  14.47
1414.3  659445.50  88908.79  13.48
1418.1  656468.75  83723.96  12.75
1421.7  653868.37  79897.30  12.22
1425.4  651944.76  77211.20  11.84
1429.1  648049.50  75111.75  11.59
1432.8  646470.90  73928.87  11.44
1436.5  643111.63  72950.66  11.34
1440.2  639564.00  72331.64  11.31
1443.9  637278.93  72087.31  11.31
1447.6  633401.60  71859.89  11.35
1451.2  630090.90  71817.21  11.40
1454.9  628137.07  72079.43  11.48
1458.6  624241.47  72374.10  11.59
1462.3  623412.33  73328.69  11.76
1466.0  623481.54  74777.92  11.99
1469.7  621682.60  76430.20  12.29
1473.3  619454.73  78370.60  12.65
1477.0  615008.13  80328.32  13.06
1480.7  611643.79  82596.94  13.50
1484.4  607798.75  84866.43  13.96
1488.0  604576.02  87342.56  14.45
1491.7  601042.51  89784.79  14.94
1495.4  597603.43  92262.15  15.44
1499.0  594644.05  94772.00  15.94
1502.7  591813.31  97302.24  16.44
1506.4  588974.33  99767.19  16.94
1510.0  586148.33  102209.79  17.44
1513.7  583365.67  104563.37  17.92
1517.4  580786.27  106887.87  18.40
1521.0  578339.58  109181.90  18.88
1524.7  575812.28  111315.65  19.33
1528.3  573389.31  113414.60  19.78
1532.0  570843.00  115363.46  20.21
1535.7  568078.88  117155.09  20.62
1539.3  565473.03  118898.13  21.03
1543.0  563767.46  120760.21  21.42
1546.6  562367.83  122587.43  21.80
1550.3  560778.87  124274.15  22.16
1553.9  558424.53  125694.33  22.51
1557.6  556187.00  127078.92  22.85
1561.2  553665.49  128253.28  23.16
1564.9  550923.53  129333.65  23.48
1568.5  548149.33  130321.91  23.77
1572.2  545783.23  131321.28  24.06
1575.8  543870.85  132403.88  24.34
1579.5  541996.60  133376.47  24.61
1583.1  539645.17  134221.10  24.87
1586.8  537390.23  134998.45  25.12
1590.4  535082.82  135701.77  25.36
1594.0  532742.27  136339.61  25.59
1597.7  530827.68  137043.87  25.82
1601.3  528718.73  137682.64  26.04
1604.9  526208.83  138140.93  26.25
1608.6  523198.58  138388.21  26.45
1612.2  520244.67  138555.97  26.63
1615.8  517689.60  138773.06  26.81
1619.5  515325.13  138963.51  26.97
1623.1  512436.38  138970.78  27.12
1626.7  509593.13  138890.46  27.26
1630.3  507034.20  138813.51  27.38
1634.0  504614.72  138671.54  27.48
1637.6  502383.33  138454.88  27.56
1641.2  500108.12  138057.90  27.61
1644.8  497563.15  137428.38  27.62
1648.5  494908.08  136627.91  27.61
1652.1  492708.00  135860.01  27.57
1655.7  490816.05  135181.12  27.54
1659.3  488928.83  134648.33  27.54
1662.9  485685.98  133870.30  27.56
1666.6  482050.53  133122.67  27.62
1670.2  478628.15  132417.61  27.67
1673.8  475313.34  131645.50  27.70
1677.4  472762.88  130967.71  27.70
1681.0  471107.03  130405.71  27.68
1684.6  470237.63  129889.64  27.62
1688.2  468722.80  129012.00  27.52
1691.8  466980.08  128095.32  27.43
1695.4  466118.75  127285.67  27.31
1699.0  465271.75  126379.67  27.16
1702.6  464695.20  125510.02  27.01
1706.2  463126.93  124380.75  26.86
1709.8  460902.87  123142.23  26.72
1713.4  459336.80  122061.83  26.57
1717.0  457590.58  120938.74  26.43
1720.6  455886.62  119765.57  26.27
1724.2  454387.36  118602.32  26.10
1727.8  453003.78  117454.09  25.93
1731.4  452220.97  116418.81  25.74
1735.0  452149.70  115569.32  25.56
1738.6  451647.00  114470.89  25.35
1742.2  450793.18  113226.84  25.12
1745.8  449068.80  111738.82  24.88
1749.4  446629.82  110059.15  24.64
1753.0  442905.20  108035.37  24.39
1756.6  439087.25  106064.50  24.16
1760.1  435794.80  104266.63  23.93
1763.7  431929.97  102398.47  23.71
1767.3  428785.90  100805.82  23.51
1770.9  426101.00  99379.51  23.32
1774.5  422970.56  97946.18  23.16
1778.0  420793.47  96851.82  23.02
1781.6  418512.50  95853.60  22.90
1785.2  415924.80  94863.91  22.81
1788.8  413117.08  93982.23  22.75
1792.3  410867.42  93280.18  22.70
1795.9  410453.78  93072.68  22.68
1799.5  411256.77  93208.61  22.66
1803.1  413978.92  93831.38  22.67
1806.6  416742.77  94444.83  22.66
1810.2  418933.73  94928.78  22.66
1813.8  418968.00  94897.56  22.65
1817.3  418506.28  94756.52  22.64
1820.9  417896.88  94526.34  22.62
1824.5  417142.22  94211.52  22.58
1828.0  418006.22  94149.14  22.52
1831.6  419970.80  94235.08  22.44
1835.2  420529.76  93812.28  22.31
1838.7  421357.42  93197.00  22.12
1842.3  419847.75  91810.25  21.87
1845.8  417510.13  89907.44  21.53
1849.4  416914.87  87948.67  21.10
1852.9  414697.92  85136.01  20.53
1856.5  412745.88  81759.58  19.81
1860.0  412020.62  77949.34  18.92
1863.6  412079.29  73528.95  17.84
1867.1  413827.18  68636.18  16.59
1870.7  416103.62  62919.15  15.12
1874.2  413980.87  55813.13  13.48
1877.8  407770.70  48111.34  11.80
1881.3  401926.08  40700.73  10.13
1884.9  398474.00  34223.77  8.59
1888.4  395588.72  28623.41  7.24
1891.9  393543.28  24234.42  6.16
1895.5  392281.05  21050.38  5.37
1899.0  392206.63  18970.78  4.84
1901.3  406689.87  12792.71  3.15
1904.1  407168.83  11673.25  2.87
1906.8  405516.58  10869.52  2.68
1909.6  401706.13  10217.04  2.54
1912.4  397738.78  9746.24  2.45
1915.1  393818.50  9388.84  2.38
1917.9  390205.45  9205.33  2.36
1920.6  387472.63  9016.63  2.33
1923.3  384968.20  8856.84  2.30
1926.1  381551.55  8735.45  2.29
1928.8  377681.20  8652.80  2.29
1931.6  376612.05  8655.17  2.30
1934.3  373047.13  8614.78  2.31
1937.0  369335.40  8582.20  2.32
1939.8  366175.38  8583.14  2.34
1942.5  361652.80  8571.05  2.37
1945.2  357902.42  8581.70  2.40
1947.9  354913.65  8647.38  2.44
1950.7  350515.17  8708.54  2.48
1953.4  346848.73  8776.61  2.53
1956.1  344043.93  8888.06  2.58
1958.8  341772.08  9029.03  2.64
1961.5  338696.40  9166.27  2.71
1964.2  335174.67  9305.71  2.78
1966.9  332094.93  9465.96  2.85
1969.6  329302.47  9644.67  2.93
1972.3  326714.00  9837.45  3.01
1975.0  324156.67  10064.67  3.10
1977.7  321888.02  10308.33  3.20
1980.4  319662.93  10567.82  3.31
1983.1  317268.37  10836.48  3.42
1985.8  315118.80  11131.60  3.53
1988.4  313084.75  11429.92  3.65
1991.1  311239.60  11753.70  3.78
1993.8  309737.40  12092.03  3.90
1996.5  308194.60  12437.13  4.04
1999.1  306822.30  12799.50  4.17
2001.8  305566.55  13174.43  4.31
2004.5  304296.00  13558.35  4.46
2007.1  302742.93  13917.33  4.60
2009.8  300757.92  14271.25  4.75
2012.4  299431.17  14648.82  4.89
2015.1  298244.93  15038.93  5.04
2017.8  297069.78  15389.81  5.18
2020.4  295891.05  15766.95  5.33
2023.1  295398.97  16160.30  5.47
2025.7  295148.20  16562.06  5.61
2028.3  294302.92  16926.28  5.75
2031.0  293703.33  17298.16  5.89
2033.6  293384.25  17658.25  6.02
2036.2  292976.13  18025.47  6.15
2038.9  292011.20  18310.93  6.27
2041.5  291083.33  18590.28  6.39
2044.1  290250.00  18881.95  6.51
2046.8  289060.23  19151.33  6.63
2049.4  288210.40  19399.05  6.73
2052.0  287954.28  19668.38  6.83
2054.6  287560.00  19929.07  6.93
2057.2  286490.50  20172.92  7.04
2059.8  285012.00  20384.00  7.15
2062.4  283640.93  20589.33  7.26
2065.0  282259.45  20783.37  7.36
2067.6  280353.30  20942.19  7.47
2070.2  278859.93  21124.48  7.58
2072.8  277899.42  21336.33  7.68
2075.4  276838.83  21533.56  7.78
2078.0  276178.73  21743.00  7.87
2080.6  274924.90  21907.96  7.97
2083.2  273578.10  22069.86  8.07
2085.8  272233.85  22225.35  8.16
2088.4  271174.55  22398.85  8.26
2090.9  269502.50  22510.50  8.35
2093.5  267564.20  22584.13  8.44
2096.1  265722.60  22672.65  8.53
2098.7  264223.52  22772.33  8.62
2101.2  262278.40  22826.67  8.70
2103.8  260790.75  22908.69  8.78
2106.4  259300.47  22983.68  8.86
2108.9  258208.18  23101.75  8.95
2111.5  257273.33  23230.86  9.03
2114.0  256663.33  23363.89  9.10
2116.6  254451.27  23335.15  9.17
2119.1  253325.80  23414.30  9.24
2121.7  252738.57  23540.86  9.31
2124.2  252589.83  23703.72  9.38
2126.8  251415.30  23735.27  9.44
2129.3  250324.22  23778.64  9.50
2131.9  250505.07  23955.65  9.56
2134.4  249640.18  24051.14  9.63
2136.9  249368.93  24213.05  9.71
2139.4  248287.00  24284.72  9.78
2142.0  247833.78  24409.41  9.85
2144.5  247264.92  24533.03  9.92
2147.0  246817.35  24702.15  10.01
2149.5  246426.40  24868.79  10.09
2152.1  246776.83  25094.91  10.17
2154.6  246824.80  25272.53  10.24
2157.1  246728.63  25438.51  10.31
2159.6  245653.77  25508.61  10.38
2162.1  245464.17  25636.07  10.44
2164.6  244784.98  25719.39  10.51
2167.1  243801.47  25760.33  10.57
2169.6  243930.30  25896.66  10.62
2172.1  243134.70  25963.37  10.68
2174.6  242688.60  26084.18  10.75
2177.1  241604.00  26098.31  10.80
2179.5  241170.13  26180.08  10.86
2182.0  240846.00  26288.61  10.92
2184.5  239853.50  26317.60  10.97
2187.0  239023.10  26384.76  11.04
2189.5  237991.23  26432.36  11.11
2191.9  236749.70  26414.36  11.16
2194.4  235027.00  26369.42  11.22
2196.9  233911.52  26366.76  11.27
2199.3  232507.90  26342.50  11.33
2201.8  231314.18  26337.54  11.39
2204.3  230545.80  26387.67  11.45
2206.7  229295.05  26326.57  11.48
2209.2  228091.05  26293.35  11.53
2211.6  226108.90  26168.16  11.57
2214.1  225408.52  26173.43  11.61
2216.5  225072.28  26199.89  11.64
2219.0  223715.80  26088.58  11.66
2221.4  223741.05  26098.20  11.66
2223.9  222563.47  25997.98  11.68
2226.3  221276.72  25825.92  11.67
2228.7  220387.27  25693.49  11.66
2231.1  219672.87  25564.52  11.64
2233.6  218606.40  25359.47  11.60
2236.0  217570.03  25130.06  11.55
2238.4  216738.80  24882.40  11.48
2240.9  216021.60  24623.47  11.40
2243.3  215084.57  24350.23  11.32
2245.7  214241.23  24050.21  11.23
2248.1  213297.07  23721.24  11.12
2250.5  212511.20  23417.29  11.02
2252.9  211791.57  23109.79  10.91
2255.3  211034.93  22772.41  10.79
2257.7  210112.47  22407.86  10.66
2260.1  209251.20  22066.80  10.55
2262.5  208143.60  21678.67  10.42
2264.9  207193.70  21315.52  10.29
2267.3  206320.40  20992.40  10.17
2269.7  205394.00  20692.82  10.07
2272.1  204543.67  20394.78  9.97
2274.5  203769.80  20091.20  9.86
2276.8  203117.87  19823.47  9.76
2279.2  202345.80  19552.87  9.66
2281.6  201732.50  19319.20  9.58
2284.0  201395.70  19087.20  9.48
2286.3  200912.53  18877.96  9.40
2288.7  200356.97  18623.12  9.29
2291.1  199805.50  18381.33  9.20
2293.4  199058.80  18113.00  9.10
2295.8  198386.28  17825.74  8.99
2298.2  197628.20  17559.30  8.89
2300.5  196499.60  17245.08  8.78
2302.9  195073.65  16900.28  8.66
2305.2  193637.42  16581.25  8.56
2307.6  192113.60  16300.36  8.48
2309.9  191043.45  16040.35  8.40
2312.2  190008.50  15793.83  8.31
2314.6  189053.70  15557.58  8.23
2316.9  188007.37  15306.33  8.14
2319.2  187251.90  15106.60  8.07
2321.6  186612.42  14902.50  7.99
2323.9  185804.20  14707.13  7.92
2326.2  184992.52  14488.79  7.83
2328.6  184347.10  14273.42  7.74
2330.9  183977.73  14049.33  7.64
2333.2  183549.50  13865.25  7.55
2335.5  183010.97  13667.55  7.47
2337.8  182580.00  13484.67  7.39
2340.1  181884.20  13308.60  7.32
2342.4  181448.10  13134.15  7.24
2344.8  180728.33  12946.05  7.16
2347.1  179897.90  12744.17  7.08
2349.4  179271.07  12540.05  7.00
2351.6  178524.00  12375.33  6.93
2353.9  177439.00  12160.33  6.85
2356.2  176625.43  11963.45  6.77
2358.5  175792.92  11785.00  6.70
2360.8  175077.08  11597.92  6.62
2363.1  174675.33  11402.86  6.53
2365.4  174190.50  11232.00  6.45
2367.7  173582.67  11037.44  6.36
2369.9  172917.25  10903.57  6.31
2372.2  171743.30  10683.27  6.22
2374.5  170552.50  10469.17  6.14
2376.7  169641.60  10272.17  6.06
2379.0  168325.30  10051.43  5.97
2381.3  166897.68  9829.54  5.89
2383.5  165984.00  9620.33  5.80
2385.8  165248.42  9447.47  5.72
2388.0  164363.43  9224.56  5.61
2390.3  163746.65  9043.39  5.52
2392.5  163223.08  8867.25  5.43
2394.8  162306.75  8691.89  5.36
2397.0  161776.13  8535.64  5.28
2399.3  161154.73  8346.79  5.18
2401.5  160323.60  8183.80  5.10
2403.8  159706.40  8022.01  5.02
2406.0  159219.87  7882.85  4.95
2408.2  158414.55  7700.35  4.86
2410.4  157522.67  7565.23  4.80
2412.7  157168.80  7399.07  4.71
2414.9  156497.47  7226.51  4.62
2417.1  156468.93  7082.73  4.53
2419.3  155995.40  6980.77  4.47
2421.6  155142.87  6840.71  4.41
2423.8  154557.40  6707.63  4.34
2426.0  154085.20  6562.47  4.26
2428.2  153730.50  6448.75  4.19
2430.4  153797.43  6295.11  4.09
2432.6  153823.20  6129.77  3.98
2434.8  153168.30  6055.12  3.95
2437.0  152688.90  5967.43  3.91
2439.2  152190.13  5824.87  3.83
2441.4  151348.00  5693.87  3.76
2443.6  151133.27  5637.87  3.73
2445.7  151242.40  5500.51  3.64
2447.9  151323.25  5405.18  3.57
2450.1  150478.33  5326.66  3.54
2452.3  149570.85  5248.10  3.51
2454.5  149007.60  5110.00  3.43
2456.6  148252.83  4974.00  3.36
2458.8  147063.00  4867.33  3.31
2461.0  146705.43  4826.61  3.29
2463.1  146324.50  4741.00  3.24
2465.3  145696.67  4650.67  3.19
2467.5  145344.33  4591.89  3.16
2469.6  144963.75  4495.00  3.10
2471.8  144691.43  4460.62  3.08
2473.9  144064.92  4384.25  3.04
2476.1  143210.83  4285.42  2.99
2478.2  142282.70  4228.04  2.97
2480.4  141514.95  4177.07  2.95
2482.5  140644.93  4104.84  2.92
2484.6  139646.00  4045.33  2.90
2486.8  138831.73  3957.92  2.85
2488.9  138424.80  3985.47  2.88
2491.1  137051.23  3908.47  2.85
2493.2  135932.67  3842.82  2.83
2495.3  134305.38  3790.99  2.82
2497.4  132937.82  3704.87  2.79
2499.5  132240.93  3633.97  2.75
2501.7  132220.50  3589.83  2.72
2503.8  132558.30  3612.70  2.73
2505.9  133299.30  3623.30  2.72
2508.0  134043.50  3608.61  2.69
2510.1  134968.50  3673.30  2.72
2512.2  135923.00  3637.08  2.68
2514.3  137188.57  3625.34  2.64
2516.4  139083.30  4031.40  2.90
