/*** Spectra Vista SIG Data ***/
name= 31_20220721_TITO_37_avg.sig
comm= Averaged Ref/Tar of files: HR.072122.0015_moc.sig,HR.072122.0016_moc.sig,HR.072122.0017_moc.sig
data=
337.3  3374.50  304.37  9.02
338.8  3511.30  295.01  8.40
340.3  3654.30  287.35  7.86
341.8  3886.63  280.45  7.22
343.2  4040.40  272.32  6.74
344.7  4222.35  272.96  6.46
346.2  4370.95  277.78  6.36
347.7  4601.03  277.90  6.04
349.2  4762.80  277.20  5.82
350.6  5031.33  274.21  5.45
352.1  5323.03  276.27  5.19
353.6  5586.70  268.35  4.80
355.1  5893.13  273.89  4.65
356.6  6161.70  275.31  4.47
358.0  6411.90  289.23  4.51
359.5  6736.20  296.64  4.40
361.0  7032.38  291.27  4.14
362.5  7377.30  304.46  4.13
364.0  7713.58  313.51  4.06
365.4  8064.70  322.21  4.00
366.9  8398.00  331.50  3.95
368.4  8755.28  338.21  3.86
369.9  9134.45  345.92  3.79
371.3  9531.90  359.56  3.77
372.8  9929.70  371.70  3.74
374.3  10293.13  369.08  3.59
375.8  10726.10  380.89  3.55
377.2  11136.60  390.95  3.51
378.7  11513.20  401.71  3.49
380.2  11916.70  408.88  3.43
381.7  12404.48  417.99  3.37
383.1  12855.15  416.83  3.24
384.6  13352.63  428.00  3.21
386.1  13782.75  436.00  3.16
387.6  14229.60  449.17  3.16
389.0  14686.40  471.68  3.21
390.5  15160.05  474.36  3.13
392.0  15684.85  490.21  3.13
393.4  16237.95  486.96  3.00
394.9  16756.20  504.60  3.01
396.4  17284.50  517.50  2.99
397.9  17809.38  533.00  2.99
399.3  18360.63  553.77  3.02
400.8  18893.15  558.32  2.96
402.2  19492.70  572.83  2.94
403.7  20078.55  574.59  2.86
405.2  20668.28  593.45  2.87
406.6  21228.00  606.29  2.86
408.1  21809.00  626.77  2.87
409.6  22410.95  635.09  2.83
411.0  23036.65  651.89  2.83
412.5  23657.20  658.07  2.78
414.0  24287.00  673.73  2.77
415.4  24982.88  691.65  2.77
416.9  25616.48  717.03  2.80
418.4  26313.08  729.57  2.77
419.8  26990.60  749.84  2.78
421.3  27682.23  767.66  2.77
422.7  28449.00  786.48  2.76
424.2  29210.63  812.25  2.78
425.7  29943.10  832.39  2.78
427.1  30653.03  858.77  2.80
428.6  31418.50  880.40  2.80
430.0  32125.48  898.36  2.80
431.5  32969.33  921.37  2.79
432.9  33812.20  941.51  2.78
434.4  34680.83  968.37  2.79
435.9  35476.00  991.20  2.79
437.3  36272.50  1013.83  2.80
438.8  37086.90  1042.56  2.81
440.2  37918.65  1067.22  2.81
441.7  38846.60  1095.23  2.82
443.1  39723.50  1118.30  2.82
444.6  40649.30  1145.81  2.82
446.0  41545.95  1174.67  2.83
447.5  42458.63  1204.61  2.84
448.9  43369.80  1231.52  2.84
450.4  44327.85  1260.47  2.84
451.8  45162.00  1287.87  2.85
453.3  46050.15  1319.70  2.87
454.7  47021.58  1350.88  2.87
456.2  47861.28  1377.16  2.88
457.6  48812.18  1403.61  2.88
459.1  49742.23  1428.44  2.87
460.5  50651.13  1453.42  2.87
462.0  51651.98  1487.75  2.88
463.4  52635.40  1516.13  2.88
464.8  53599.13  1544.75  2.88
466.3  54557.25  1570.80  2.88
467.7  55511.80  1597.04  2.88
469.2  56539.28  1628.95  2.88
470.6  57464.50  1654.15  2.88
472.0  58467.55  1683.37  2.88
473.5  59423.88  1715.72  2.89
474.9  60405.75  1744.20  2.89
476.4  61531.20  1779.84  2.89
477.8  62567.50  1809.60  2.89
479.2  63553.50  1838.60  2.89
480.7  64616.40  1868.24  2.89
482.1  65689.70  1901.62  2.89
483.6  66845.70  1936.30  2.90
485.0  67887.75  1972.46  2.91
486.4  69039.75  2009.84  2.91
487.9  70083.00  2041.65  2.91
489.3  71210.10  2081.13  2.92
490.7  72240.85  2118.44  2.93
492.2  73441.20  2157.96  2.94
493.6  74495.25  2201.41  2.96
495.0  75567.38  2246.40  2.97
496.5  76691.55  2289.30  2.99
497.9  77762.83  2336.26  3.00
499.3  78892.80  2391.05  3.03
500.7  80091.55  2451.43  3.06
502.2  81190.60  2513.15  3.10
503.6  82373.20  2579.33  3.13
505.0  83402.45  2654.58  3.18
506.5  84645.98  2746.18  3.24
507.9  85821.93  2840.47  3.31
509.3  87172.00  2956.05  3.39
510.7  88393.50  3075.15  3.48
512.2  89730.53  3215.38  3.58
513.6  91136.85  3380.86  3.71
515.0  92490.95  3565.73  3.86
516.4  93781.80  3772.44  4.02
517.8  95329.63  4011.50  4.21
519.3  96596.73  4261.91  4.41
520.7  98083.05  4540.96  4.63
522.1  99334.30  4831.62  4.86
523.5  100649.90  5135.59  5.10
524.9  102044.25  5451.66  5.34
526.3  103391.75  5761.05  5.57
527.8  104796.45  6068.70  5.79
529.2  105894.30  6361.31  6.01
530.6  107363.50  6666.27  6.21
532.0  108990.00  6947.73  6.37
533.4  110283.30  7182.08  6.51
534.8  111222.25  7370.73  6.63
536.3  112836.30  7586.92  6.72
537.7  114697.80  7812.00  6.81
539.1  116052.20  7984.96  6.88
540.5  117210.35  8132.95  6.94
541.9  118868.63  8305.30  6.99
543.3  120125.35  8454.38  7.04
544.7  121353.00  8598.64  7.09
546.1  123044.08  8776.46  7.13
547.5  124230.40  8918.19  7.18
549.0  125928.00  9087.47  7.22
550.4  127372.50  9229.58  7.25
551.8  128826.00  9347.60  7.26
553.2  130309.00  9442.86  7.25
554.6  131580.80  9495.89  7.22
556.0  133038.90  9528.90  7.16
557.4  134576.05  9536.17  7.09
558.8  136143.90  9512.34  6.99
560.2  137531.00  9449.55  6.87
561.6  139132.05  9379.72  6.74
563.0  140626.88  9278.06  6.60
564.4  142129.60  9150.37  6.44
565.8  143596.88  9004.33  6.27
567.2  145243.25  8853.70  6.10
568.6  146703.75  8673.90  5.91
570.0  148063.73  8484.41  5.73
571.4  149727.50  8316.97  5.55
572.8  151389.00  8158.33  5.39
574.2  152936.00  8004.27  5.23
575.6  154406.25  7866.00  5.09
577.0  155860.90  7742.76  4.97
578.4  157521.00  7650.07  4.86
579.8  158951.70  7559.73  4.76
581.2  160591.55  7491.34  4.66
582.5  161939.70  7425.60  4.59
583.9  163406.40  7374.21  4.51
585.3  165125.48  7347.39  4.45
586.7  166522.20  7312.80  4.39
588.1  167943.38  7292.78  4.34
589.5  169515.50  7284.67  4.30
590.9  171070.40  7282.93  4.26
592.3  172813.50  7304.10  4.23
593.7  174192.53  7317.70  4.20
595.0  175740.98  7344.45  4.18
596.4  177117.15  7364.23  4.16
597.8  178526.05  7381.27  4.13
599.2  180008.40  7400.80  4.11
600.6  181673.05  7422.91  4.09
602.0  182915.63  7419.55  4.06
603.3  184632.30  7425.40  4.02
604.7  186226.15  7417.32  3.98
606.1  187652.40  7389.44  3.94
607.5  189198.98  7363.54  3.89
608.9  190813.05  7330.35  3.84
610.2  192142.13  7285.95  3.79
611.6  193659.68  7246.54  3.74
613.0  195147.25  7207.66  3.69
614.4  196468.65  7164.42  3.65
615.8  197847.00  7125.30  3.60
617.1  199302.60  7105.00  3.56
618.5  200836.00  7090.19  3.53
619.9  202278.53  7084.40  3.50
621.3  203829.08  7087.26  3.48
622.6  205341.25  7104.47  3.46
624.0  206721.00  7119.36  3.44
625.4  208101.30  7141.53  3.43
626.8  209620.78  7172.62  3.42
628.1  210876.33  7206.06  3.42
629.5  212660.23  7255.58  3.41
630.9  214216.75  7300.48  3.41
632.2  215531.58  7337.73  3.40
633.6  217093.63  7368.32  3.39
635.0  218560.40  7384.53  3.38
636.3  220004.10  7392.87  3.36
637.7  221305.38  7380.90  3.34
639.1  222880.00  7371.00  3.31
640.4  224295.75  7343.37  3.27
641.8  225450.60  7315.38  3.24
643.2  226970.80  7291.71  3.21
644.5  228252.75  7263.50  3.18
645.9  229887.00  7249.62  3.15
647.2  231780.33  7253.59  3.13
648.6  233624.25  7268.40  3.11
650.0  235029.60  7280.64  3.10
651.3  235394.23  7264.44  3.09
652.7  236216.40  7271.51  3.08
654.0  238137.10  7312.73  3.07
655.4  239661.33  7333.55  3.06
656.8  240097.90  7306.37  3.04
658.1  241346.40  7303.35  3.03
659.5  243516.53  7332.36  3.01
660.8  245137.50  7362.00  3.00
662.2  245974.40  7365.12  2.99
663.5  247481.95  7392.19  2.99
664.9  248801.80  7410.87  2.98
666.2  249550.20  7423.68  2.97
667.6  251156.25  7477.39  2.98
668.9  252257.48  7544.37  2.99
670.3  253285.00  7607.50  3.00
671.6  254813.63  7705.40  3.02
673.0  255919.88  7805.70  3.05
674.3  257111.40  7911.80  3.08
675.7  258387.88  8029.41  3.11
677.0  259498.55  8149.25  3.14
678.4  260820.05  8301.96  3.18
679.7  261855.23  8460.54  3.23
681.1  263067.78  8626.91  3.28
682.4  264161.30  8801.69  3.33
683.8  265398.90  8987.33  3.39
685.1  266362.88  9162.70  3.44
686.4  267665.40  9368.40  3.50
687.8  268913.50  9606.07  3.57
689.1  269914.75  9884.93  3.66
690.5  271194.90  10248.22  3.78
691.8  271992.45  10719.08  3.94
693.1  273249.60  11376.34  4.16
694.5  274410.50  12248.60  4.46
695.8  275570.75  13386.10  4.86
697.1  276731.00  14820.87  5.36
698.5  277734.50  16613.37  5.98
699.8  278789.13  18765.83  6.73
701.1  279877.53  21308.45  7.61
702.5  280634.75  24167.59  8.61
703.8  281565.00  27369.00  9.72
705.1  282667.13  30889.69  10.93
706.5  283692.63  34672.30  12.22
707.8  284649.60  38698.28  13.60
709.1  285514.43  42917.58  15.03
710.5  286608.35  47376.63  16.53
711.8  287447.00  51967.92  18.08
713.1  288428.20  56763.91  19.68
714.4  289320.20  61681.80  21.32
715.8  290123.00  66709.71  22.99
717.1  291421.65  71949.12  24.69
718.4  292320.00  77172.48  26.40
719.7  293388.65  82501.23  28.12
721.0  293895.00  87702.00  29.84
722.4  294660.85  92963.13  31.55
723.7  295582.50  98246.64  33.24
725.0  296606.70  103501.77  34.90
726.3  297523.88  108613.52  36.51
727.6  298094.50  113485.90  38.07
729.0  298987.85  118341.91  39.58
730.3  299739.45  122981.13  41.03
731.6  300625.90  127497.85  42.41
732.9  301411.25  131792.36  43.73
734.2  302192.00  135899.13  44.97
735.5  303213.73  139898.47  46.14
736.8  303976.20  143580.92  47.23
738.1  304796.70  147077.41  48.25
739.5  305717.05  150429.74  49.21
740.8  306378.05  153471.30  50.09
742.1  307135.68  156369.89  50.91
743.4  307875.00  159076.67  51.67
744.7  308872.08  161740.98  52.37
746.0  309726.30  164139.56  53.00
747.3  310281.90  166211.99  53.57
748.6  310982.75  168212.73  54.09
749.9  311740.00  170074.67  54.56
751.2  312518.65  171822.93  54.98
752.5  313433.90  173517.45  55.36
753.8  314021.23  174931.96  55.71
755.1  314704.00  176269.60  56.01
756.4  315284.55  177430.03  56.28
757.7  316237.60  178697.19  56.51
759.0  317978.13  180333.59  56.71
760.3  319123.20  181558.08  56.89
761.6  320689.60  182951.25  57.05
762.9  321214.00  183708.30  57.19
764.2  321616.40  184315.21  57.31
765.5  321894.78  184832.98  57.42
766.8  322374.40  185380.69  57.50
768.1  322909.00  185947.36  57.59
769.3  323505.00  186515.84  57.65
770.6  324164.10  187101.03  57.72
771.9  324885.93  187701.85  57.77
773.2  325293.60  188087.52  57.82
774.5  325925.60  188580.77  57.86
775.8  326639.70  189109.83  57.90
777.1  327237.90  189556.62  57.93
778.4  327588.53  189861.87  57.96
779.6  328372.08  190406.46  57.98
780.9  328830.00  190776.00  58.02
782.2  329301.50  191123.53  58.04
783.5  329644.00  191393.60  58.06
784.8  330197.40  191772.60  58.08
786.0  330626.10  192091.67  58.10
787.3  331022.58  192387.79  58.12
788.6  331489.20  192706.74  58.13
789.9  332014.20  193036.85  58.14
791.2  332655.90  193460.75  58.16
792.4  333311.30  193914.98  58.18
793.7  333799.60  194245.49  58.19
795.0  334461.60  194660.62  58.20
796.2  335131.20  195091.63  58.21
797.5  335894.93  195566.57  58.22
798.8  336610.10  195996.60  58.23
800.0  337271.45  196431.31  58.24
801.3  337751.60  196764.25  58.26
802.6  338363.55  197150.13  58.27
803.8  339036.00  197577.69  58.28
805.1  339565.63  197902.48  58.28
806.4  340042.50  198211.44  58.29
807.7  340580.70  198582.30  58.31
808.9  341163.05  198956.60  58.32
810.2  341672.45  199300.36  58.33
811.4  342213.40  199639.19  58.34
812.7  342834.38  200037.50  58.35
814.0  343725.95  200565.10  58.35
815.2  344312.25  200967.80  58.37
816.5  344752.63  201262.82  58.38
817.7  345199.60  201583.54  58.40
819.0  345731.65  201944.01  58.41
820.2  345928.00  202100.80  58.42
821.5  346617.95  202556.21  58.44
822.7  346987.60  202813.89  58.45
824.0  347325.30  203049.36  58.46
825.2  347775.53  203389.92  58.48
826.5  348085.83  203629.18  58.50
827.7  348661.50  203971.78  58.50
829.0  349114.63  204261.70  58.51
830.2  349413.70  204479.05  58.52
831.5  349896.55  204812.60  58.54
832.7  350211.23  205030.84  58.54
834.0  350540.33  205279.28  58.56
835.2  350919.53  205547.83  58.57
836.4  351203.05  205781.62  58.59
837.7  351595.40  206082.85  58.61
838.9  352039.40  206384.38  58.63
840.1  352397.25  206672.49  58.65
841.4  352893.80  206987.03  58.65
842.6  353215.80  207263.09  58.68
843.8  353592.40  207537.76  58.69
845.1  354022.75  207891.18  58.72
846.3  354469.80  208170.37  58.73
847.5  354925.20  208472.88  58.74
848.8  355288.20  208752.16  58.76
850.0  355601.40  209008.75  58.78
851.2  356081.40  209368.08  58.80
852.5  356543.50  209669.44  58.81
853.7  356982.75  210009.30  58.83
854.9  357468.80  210303.76  58.83
856.1  357914.70  210615.77  58.85
857.4  358116.00  210763.93  58.85
858.6  358558.95  211085.02  58.87
859.8  359015.63  211371.75  58.88
861.0  359424.00  211704.48  58.90
862.2  359923.80  212021.46  58.91
863.5  360274.20  212247.66  58.91
864.7  360822.00  212563.12  58.91
865.9  361201.40  212820.85  58.92
867.1  361481.25  213047.78  58.94
868.3  361899.75  213362.42  58.96
869.5  362363.50  213716.29  58.98
870.8  362992.50  214036.80  58.96
872.0  363504.83  214344.90  58.97
873.2  363944.55  214620.74  58.97
874.4  364390.65  214906.77  58.98
875.6  364731.30  215158.49  58.99
876.8  365263.85  215475.29  58.99
878.0  365710.35  215784.62  59.00
879.2  366304.80  216113.22  59.00
880.4  366779.25  216421.50  59.01
881.6  367224.65  216714.98  59.01
882.8  367652.00  216990.29  59.02
884.0  368290.05  217337.88  59.01
885.2  368778.50  217659.71  59.02
886.5  369527.15  218037.90  59.00
887.7  370002.75  218340.63  59.01
888.8  370667.78  218731.41  59.01
890.0  371186.75  219081.85  59.02
891.2  371707.90  219457.89  59.04
892.4  372402.98  219811.83  59.03
893.6  372970.85  220179.02  59.03
894.8  373893.75  220719.50  59.03
896.0  374867.25  221208.40  59.01
897.2  375596.00  221703.73  59.03
898.4  376361.70  222113.76  59.02
899.6  376962.38  222458.70  59.01
900.8  377316.08  222727.88  59.03
902.0  377640.45  222912.32  59.03
903.2  378101.10  223112.93  59.01
904.3  378413.70  223326.84  59.02
905.5  379029.03  223699.03  59.02
906.7  379657.50  224064.13  59.02
907.9  380340.45  224419.67  59.00
909.1  380686.50  224643.96  59.01
910.2  380973.23  224754.86  58.99
911.4  381241.58  224931.33  59.00
912.6  381423.90  225061.98  59.01
913.8  381751.05  225238.87  59.00
915.0  382222.05  225493.10  59.00
916.2  382404.75  225682.60  59.02
917.3  382598.55  225704.88  58.99
918.5  382884.30  225818.91  58.98
919.7  383205.15  225967.82  58.97
920.8  383245.03  226036.08  58.98
922.0  383498.50  226110.50  58.96
923.2  383701.50  226262.40  58.97
924.4  383990.63  226399.95  58.96
925.5  384281.70  226556.44  58.96
926.7  385124.38  226831.85  58.90
927.9  385792.80  227272.64  58.91
929.0  387298.80  228062.88  58.89
930.2  389359.40  229252.73  58.88
931.4  391643.10  230572.98  58.87
932.5  394349.45  232069.72  58.85
933.7  395763.30  232826.93  58.83
934.9  396593.75  233143.17  58.79
936.0  396197.75  232904.32  58.78
937.2  394432.80  231674.12  58.74
938.3  392969.65  230667.00  58.70
939.5  391528.80  229818.72  58.70
940.7  391760.10  229818.84  58.66
941.8  393127.43  230625.40  58.66
943.0  394529.25  231352.00  58.64
944.2  395619.90  231673.26  58.56
945.3  395323.50  231340.20  58.52
946.5  394815.60  230809.50  58.46
947.6  394939.70  230772.43  58.43
948.8  394840.88  230579.31  58.40
949.9  394997.40  230484.24  58.35
951.1  394833.73  230175.96  58.30
952.2  394944.00  229785.60  58.18
953.4  394811.25  229494.83  58.13
954.5  394875.00  229160.88  58.03
955.7  394770.60  228908.40  57.99
956.8  394616.90  228591.63  57.93
958.0  394270.00  228174.53  57.87
959.1  394115.85  227952.15  57.84
960.3  393947.18  227644.59  57.79
961.4  393809.45  227482.23  57.76
962.6  394149.00  227506.77  57.72
963.7  393991.95  227367.21  57.71
964.9  394109.25  227227.83  57.66
966.0  393992.10  227171.25  57.66
967.2  393847.65  227204.22  57.69
968.3  394000.20  227065.68  57.63
969.5  393921.18  227089.45  57.65
970.6  394109.63  227053.34  57.61
971.8  394043.30  227163.77  57.65
972.9  394027.95  227174.91  57.65
974.0  394664.90  227174.03  57.56
975.2  394340.50  227143.77  57.60
976.3  394736.03  227257.05  57.57
977.5  394436.53  227257.96  57.62
978.6  394898.70  227256.80  57.55
979.7  394994.25  227199.56  57.52
980.9  394559.38  227206.08  57.58
982.0  394998.85  227368.31  57.56
983.2  394434.10  227327.56  57.63
984.3  394255.00  227380.91  57.67
985.4  394588.15  227572.83  57.67
986.6  394882.38  227553.78  57.63
987.7  395900.58  228278.75  57.66
988.9  395715.60  227961.60  57.61
990.0  396596.50  228400.77  57.59
993.1  343253.05  197341.21  57.49
996.9  343990.65  198331.12  57.66
1000.7  345055.20  199460.52  57.81
1004.5  345615.17  200262.04  57.94
1008.4  345419.00  200628.44  58.08
1012.2  345496.67  201138.96  58.22
1016.0  345625.80  201664.93  58.35
1019.8  345916.73  202205.85  58.46
1023.7  345952.12  202591.64  58.56
1027.5  345735.92  202804.63  58.66
1031.3  345961.68  203226.88  58.74
1035.1  345906.69  203416.01  58.81
1038.9  345887.67  203616.48  58.87
1042.7  345691.33  203684.72  58.92
1046.5  345598.67  203772.26  58.96
1050.3  345614.91  203921.93  59.00
1054.2  345339.17  203878.24  59.04
1058.0  344884.63  203705.21  59.06
1061.8  344754.21  203710.06  59.09
1065.6  344482.33  203579.28  59.10
1069.4  344506.33  203648.74  59.11
1073.2  344125.64  203449.58  59.12
1077.0  343756.23  203189.19  59.11
1080.8  343287.50  202865.74  59.09
1084.6  342294.40  202189.79  59.07
1088.4  341691.64  201728.90  59.04
1092.2  340908.75  201175.00  59.01
1096.0  340401.62  200732.88  58.97
1099.8  339947.18  200310.64  58.92
1103.6  339309.85  199796.19  58.88
1107.4  338429.60  199101.27  58.83
1111.2  338161.60  198756.73  58.78
1114.9  337499.17  198137.20  58.71
1118.7  336827.70  197478.05  58.63
1122.5  336128.87  196699.82  58.52
1126.3  335068.59  195571.46  58.37
1130.1  334593.55  194571.10  58.15
1133.9  333125.80  192701.76  57.85
1137.7  331864.10  190636.89  57.44
1141.4  330261.97  188123.34  56.96
1145.2  329592.26  186021.93  56.44
1149.0  328588.75  183810.93  55.94
1152.8  327128.75  181588.17  55.51
1156.6  325615.03  179710.59  55.19
1160.3  324022.67  178130.81  54.97
1164.1  321770.20  176467.13  54.84
1167.9  320131.25  175305.79  54.76
1171.7  318984.75  174520.50  54.71
1175.4  317943.47  173854.50  54.68
1179.2  317010.53  173240.89  54.65
1183.0  316778.33  172977.04  54.61
1186.7  316288.23  172560.37  54.56
1190.5  315286.60  171899.30  54.52
1194.3  314174.67  171240.04  54.50
1198.0  313067.70  170649.85  54.51
1201.8  311700.95  169973.65  54.53
1205.6  310589.67  169514.96  54.58
1209.3  309686.43  169249.45  54.65
1213.1  308738.70  169016.83  54.74
1216.8  307779.82  168814.98  54.85
1220.6  306747.47  168587.79  54.96
1224.3  305567.92  168276.02  55.07
1228.1  304444.20  168021.24  55.19
1231.9  303296.55  167699.03  55.29
1235.6  301971.83  167228.75  55.38
1239.4  300737.88  166793.08  55.46
1243.1  299618.64  166358.75  55.52
1246.9  298488.87  165895.87  55.58
1250.6  297603.67  165520.68  55.62
1254.3  296636.18  165075.05  55.65
1258.1  295748.60  164637.53  55.67
1261.8  294592.80  164027.52  55.68
1265.6  293285.13  163295.13  55.68
1269.3  291939.33  162472.48  55.65
1273.1  291891.46  162333.54  55.61
1276.8  292116.80  162327.20  55.57
1280.6  292014.07  162095.47  55.51
1284.3  290739.20  161179.20  55.44
1288.0  289394.02  160135.61  55.33
1291.8  288192.13  159088.93  55.20
1295.5  286915.20  157948.92  55.05
1299.2  285681.85  156774.86  54.88
1302.9  284305.79  155431.25  54.67
1306.7  282853.32  153952.92  54.43
1310.4  281479.43  152371.30  54.13
1314.1  280184.48  150743.06  53.80
1317.9  279072.92  149058.57  53.41
1321.6  277779.63  147163.36  52.98
1325.3  276272.85  145019.82  52.49
1329.0  275023.58  142933.13  51.97
1332.8  273072.80  140376.14  51.41
1336.5  271334.47  137898.71  50.82
1340.2  270922.17  136085.44  50.23
1343.9  270312.92  134184.81  49.64
1347.6  269293.50  132124.97  49.06
1351.4  268894.00  130410.11  48.50
1355.1  268506.33  128722.57  47.94
1358.8  268096.00  126951.11  47.35
1362.5  267405.10  124903.35  46.71
1366.2  266022.80  122212.43  45.94
1369.9  264683.88  119185.97  45.03
1373.6  262987.43  115474.61  43.91
1377.3  261109.80  110936.07  42.49
1381.0  259814.50  105672.52  40.67
1384.8  258033.75  99143.05  38.42
1388.4  256132.92  91989.41  35.91
1392.2  254567.00  84530.43  33.21
1395.9  253098.85  77048.20  30.44
1399.6  251702.98  70019.34  27.82
1403.3  250730.84  63873.78  25.48
1407.0  249912.60  58686.60  23.48
1410.7  249028.73  54493.27  21.88
1414.3  248151.46  51230.94  20.65
1418.1  247250.96  48804.21  19.74
1421.7  246571.27  47051.19  19.08
1425.4  245835.85  45808.03  18.63
1429.1  245123.63  44973.58  18.35
1432.8  243821.47  44365.73  18.20
1436.5  243131.01  44088.34  18.13
1440.2  242373.00  43984.48  18.15
1443.9  241236.23  43930.93  18.21
1447.6  239793.40  43910.53  18.31
1451.2  238871.23  44033.65  18.43
1454.9  237764.10  44184.13  18.58
1458.6  236758.07  44470.11  18.78
1462.3  235662.53  44902.89  19.05
1466.0  234418.63  45480.35  19.40
1469.7  232880.59  46210.35  19.84
1473.3  231948.83  47222.74  20.36
1477.0  230241.87  48201.68  20.94
1480.7  228805.41  49319.06  21.56
1484.4  227051.15  50390.29  22.19
1488.0  225661.33  51574.52  22.85
1491.7  224200.96  52740.77  23.52
1495.4  222640.59  53882.01  24.20
1499.0  221197.50  55032.33  24.88
1502.7  220012.75  56228.21  25.56
1506.4  218706.13  57366.33  26.23
1510.0  217439.50  58472.33  26.89
1513.7  216118.58  59526.38  27.54
1517.4  214914.00  60569.48  28.18
1521.0  213786.00  61606.64  28.82
1524.7  212658.33  62573.82  29.42
1528.3  211479.50  63480.89  30.02
1532.0  210352.45  64350.04  30.59
1535.7  209071.39  65111.52  31.14
1539.3  207915.13  65870.86  31.68
1543.0  207029.16  66660.99  32.20
1546.6  206391.25  67487.33  32.70
1550.3  205481.25  68183.09  33.18
1553.9  204507.77  68800.76  33.64
1557.6  203343.07  69307.50  34.08
1561.2  202177.35  69756.20  34.50
1564.9  200987.41  70147.80  34.90
1568.5  199781.17  70493.40  35.29
1572.2  198737.25  70861.95  35.66
1575.8  197736.00  71228.89  36.02
1579.5  196794.65  71579.88  36.37
1583.1  195871.06  71906.08  36.71
1586.8  194754.00  72124.89  37.03
1590.4  193772.27  72380.82  37.35
1594.0  192580.92  72509.96  37.65
1597.7  191540.17  72688.27  37.95
1601.3  190327.73  72771.30  38.23
1604.9  189124.26  72825.73  38.51
1608.6  187866.08  72822.09  38.76
1612.2  186897.15  72892.60  39.00
1615.8  185811.60  72893.60  39.23
1619.5  184771.58  72870.76  39.44
1623.1  183591.83  72763.23  39.63
1626.7  182443.63  72651.37  39.82
1630.3  181334.17  72518.20  39.99
1634.0  180292.00  72404.89  40.16
1637.6  179350.00  72296.41  40.31
1641.2  178406.90  72145.19  40.44
1644.8  177285.32  71874.12  40.54
1648.5  176272.66  71623.25  40.63
1652.1  175375.80  71355.40  40.69
1655.7  174503.80  71056.80  40.72
1659.3  173680.28  70738.18  40.73
1662.9  172365.83  70165.93  40.71
1666.6  171036.60  69551.85  40.66
1670.2  169712.20  68901.45  40.60
1673.8  168375.72  68186.06  40.50
1677.4  167293.35  67530.54  40.37
1681.0  166563.55  66956.34  40.20
1684.6  166211.50  66467.07  39.99
1688.2  165597.45  65822.66  39.75
1691.8  164976.68  65164.80  39.50
1695.4  164606.40  64584.76  39.24
1699.0  164295.37  64040.51  38.98
1702.6  163987.67  63480.74  38.71
1706.2  163433.73  62801.12  38.43
1709.8  162584.28  62025.35  38.15
1713.4  161947.98  61355.00  37.89
1717.0  161158.50  60684.78  37.66
1720.6  160426.95  60068.58  37.44
1724.2  159787.05  59491.05  37.23
1727.8  159123.65  58939.14  37.04
1731.4  158676.38  58493.42  36.86
1735.0  158481.58  58154.72  36.69
1738.6  158208.00  57758.97  36.51
1742.2  157626.70  57180.95  36.28
1745.8  156976.90  56531.92  36.01
1749.4  156044.63  55743.78  35.72
1753.0  154649.87  54773.99  35.42
1756.6  153083.88  53770.95  35.13
1760.1  151873.11  52914.43  34.84
1763.7  150282.00  51966.37  34.58
1767.3  148957.80  51166.73  34.35
1770.9  147819.93  50455.12  34.13
1774.5  146474.98  49712.60  33.94
1778.0  145414.63  49102.84  33.77
1781.6  144364.35  48560.80  33.64
1785.2  143293.43  48063.30  33.54
1788.8  142211.80  47608.62  33.48
1792.3  141045.43  47159.01  33.44
1795.9  140540.40  46967.29  33.42
1799.5  140013.00  46777.19  33.41
1803.1  139246.57  46515.52  33.41
1806.6  139407.51  46564.12  33.40
1810.2  140241.03  46824.50  33.39
1813.8  140906.45  47036.57  33.38
1817.3  140820.60  46992.31  33.37
1820.9  140020.42  46689.50  33.34
1824.5  138856.50  46236.11  33.30
1828.0  137967.50  45841.48  33.23
1831.6  137064.53  45388.85  33.11
1835.2  136269.17  44889.45  32.94
1838.7  135857.60  44413.87  32.69
1842.3  135555.00  43870.00  32.36
1845.8  134994.83  43085.12  31.92
1849.4  134586.08  42181.41  31.34
1852.9  134086.28  41034.92  30.60
1856.5  133349.30  39539.55  29.65
1860.0  132732.67  37782.99  28.47
1863.6  132367.82  35827.66  27.07
1867.1  131900.65  33511.10  25.41
1870.7  131612.95  30793.17  23.40
1874.2  131105.70  27621.70  21.07
1877.8  130448.53  24322.65  18.65
1881.3  129481.00  20996.58  16.22
1884.9  128718.79  17936.17  13.93
1888.4  127823.18  15126.79  11.83
1891.9  126863.40  12797.41  10.09
1895.5  125756.40  10968.65  8.72
1899.0  125096.38  9701.25  7.76
1901.3  149605.13  7591.30  5.07
1904.1  149382.00  6861.19  4.59
1906.8  148726.80  6302.70  4.24
1909.6  147292.16  5883.24  3.99
1912.4  146000.40  5570.83  3.82
1915.1  145070.06  5346.97  3.69
1917.9  143947.88  5183.88  3.60
1920.6  143094.50  5082.81  3.55
1923.3  142278.68  5007.28  3.52
1926.1  141267.50  4942.42  3.50
1928.8  140360.00  4920.67  3.51
1931.6  139676.14  4929.10  3.53
1934.3  139002.81  4949.90  3.56
1937.0  138313.13  4997.32  3.61
1939.8  137523.13  5044.54  3.67
1942.5  136521.00  5104.00  3.74
1945.2  135165.53  5159.69  3.82
1947.9  134065.40  5242.42  3.91
1950.7  133161.18  5349.69  4.02
1953.4  131668.24  5443.50  4.13
1956.1  130500.88  5558.19  4.26
1958.8  129457.41  5692.48  4.40
1961.5  128188.20  5825.90  4.54
1964.2  126883.58  5978.70  4.71
1966.9  125514.45  6124.59  4.88
1969.6  124443.00  6291.00  5.06
1972.3  123200.48  6461.40  5.24
1975.0  122269.39  6650.78  5.44
1977.7  121286.48  6841.74  5.64
1980.4  120283.05  7041.83  5.85
1983.1  119309.38  7254.45  6.08
1985.8  118487.48  7479.83  6.31
1988.4  117572.00  7702.50  6.55
1991.1  116744.25  7925.40  6.79
1993.8  115956.64  8151.37  7.03
1996.5  115387.94  8403.41  7.28
1999.1  114767.54  8655.44  7.54
2001.8  114128.35  8907.45  7.80
2004.5  113518.28  9151.70  8.06
2007.1  112876.01  9389.58  8.32
2009.8  112218.23  9628.33  8.58
2012.4  111697.85  9874.70  8.84
2015.1  111208.13  10120.43  9.10
2017.8  110489.40  10334.10  9.35
2020.4  110036.99  10566.19  9.60
2023.1  109705.93  10808.93  9.85
2025.7  109473.00  11047.83  10.09
2028.3  109154.50  11273.17  10.33
2031.0  108810.85  11479.37  10.55
2033.6  108569.48  11688.45  10.77
2036.2  108321.53  11882.03  10.97
2038.9  107793.00  12036.45  11.17
2041.5  107502.65  12218.59  11.37
2044.1  107010.00  12358.35  11.55
2046.8  106677.23  12514.95  11.73
2049.4  106096.50  12634.58  11.91
2052.0  105808.70  12785.60  12.08
2054.6  105439.69  12925.94  12.26
2057.2  104963.75  13054.15  12.44
2059.8  104695.20  13226.63  12.63
2062.4  103920.10  13334.32  12.83
2065.0  103444.15  13482.08  13.03
2067.6  102638.75  13574.03  13.23
2070.2  102102.68  13702.60  13.42
2072.8  101540.45  13835.53  13.63
2075.4  101134.69  13982.50  13.83
2078.0  100558.19  14097.25  14.02
2080.6  100036.20  14220.80  14.22
2083.2  99420.58  14320.35  14.40
2085.8  98990.36  14446.39  14.59
2088.4  98401.13  14541.88  14.78
2090.9  97673.24  14620.24  14.97
2093.5  96862.90  14681.98  15.16
2096.1  96177.50  14758.20  15.34
2098.7  95485.81  14821.87  15.52
2101.2  94614.75  14864.13  15.71
2103.8  94005.60  14934.00  15.89
2106.4  93409.55  15010.42  16.07
2108.9  92813.50  15080.28  16.25
2111.5  92047.15  15108.67  16.41
2114.0  91477.30  15171.98  16.59
2116.6  91021.88  15251.25  16.76
2119.1  90531.18  15319.75  16.92
2121.7  90096.56  15393.44  17.09
2124.2  89735.60  15466.59  17.24
2126.8  89023.48  15480.63  17.39
2129.3  88664.40  15540.80  17.53
2131.9  88129.80  15554.00  17.65
2134.4  87754.39  15589.28  17.76
2136.9  87418.66  15621.34  17.87
2139.4  86955.40  15631.93  17.98
2142.0  86549.75  15647.45  18.08
2144.5  86301.08  15681.80  18.17
2147.0  86088.30  15713.73  18.25
2149.5  85646.10  15707.03  18.34
2152.1  85492.14  15745.54  18.42
2154.6  85408.00  15782.80  18.48
2157.1  84917.81  15741.42  18.54
2159.6  84563.56  15725.52  18.60
2162.1  84425.25  15738.45  18.64
2164.6  84213.90  15739.02  18.69
2167.1  83931.08  15728.75  18.74
2169.6  83613.60  15719.03  18.80
2172.1  83196.95  15685.13  18.85
2174.6  82913.50  15690.78  18.92
2177.1  82526.51  15663.31  18.98
2179.5  82152.04  15647.34  19.05
2182.0  81702.64  15626.19  19.13
2184.5  81226.83  15590.41  19.19
2187.0  80676.23  15541.42  19.26
2189.5  80051.19  15486.28  19.35
2191.9  79365.38  15416.13  19.42
2194.4  78823.31  15365.95  19.49
2196.9  78156.00  15285.60  19.56
2199.3  77546.00  15220.17  19.63
2201.8  76744.90  15106.13  19.68
2204.3  76319.68  15056.32  19.73
2206.7  75758.81  14979.39  19.77
2209.2  75348.06  14928.78  19.81
2211.6  74784.60  14837.63  19.84
2214.1  74498.14  14798.14  19.86
2216.5  73993.40  14708.78  19.88
2219.0  73687.95  14654.15  19.89
2221.4  73333.75  14579.98  19.88
2223.9  72902.38  14480.81  19.86
2226.3  72441.25  14359.33  19.82
2228.7  71967.96  14217.18  19.75
2231.1  71421.08  14048.10  19.67
2233.6  70879.30  13871.90  19.57
2236.0  70395.94  13694.92  19.45
2238.4  69949.69  13516.42  19.32
2240.9  69545.75  13328.05  19.16
2243.3  69068.95  13107.03  18.98
2245.7  68572.91  12877.79  18.78
2248.1  68127.15  12662.65  18.59
2250.5  67657.05  12439.23  18.39
2252.9  67088.13  12174.29  18.15
2255.3  66595.35  11917.61  17.90
2257.7  66187.50  11690.00  17.66
2260.1  65753.45  11460.58  17.43
2262.5  65205.00  11202.50  17.18
2264.9  64729.44  10971.69  16.95
2267.3  64185.00  10742.50  16.74
2269.7  63744.28  10532.49  16.52
2272.1  63255.25  10324.68  16.32
2274.5  62737.76  10128.10  16.14
2276.8  62301.16  9954.07  15.98
2279.2  61777.35  9758.55  15.80
2281.6  61389.05  9591.02  15.62
2284.0  60978.75  9425.83  15.46
2286.3  60556.80  9266.93  15.30
2288.7  60214.05  9116.63  15.14
2291.1  59719.18  8936.26  14.96
2293.4  59320.80  8778.00  14.80
2295.8  58756.35  8592.78  14.62
2298.2  58226.51  8414.55  14.45
2300.5  57636.56  8233.43  14.29
2302.9  56962.50  8047.08  14.13
2305.2  56315.25  7869.20  13.97
2307.6  55717.74  7711.71  13.84
2309.9  55017.25  7548.50  13.72
2312.2  54451.50  7421.92  13.63
2314.6  53895.04  7309.69  13.56
2316.9  53250.75  7182.90  13.49
2319.2  52722.28  7064.89  13.40
2321.6  52145.10  6938.66  13.31
2323.9  51640.63  6812.50  13.19
2326.2  51159.85  6687.77  13.07
2328.6  50692.95  6567.83  12.96
2330.9  50234.63  6457.50  12.85
2333.2  49807.81  6336.77  12.72
2335.5  49393.88  6222.05  12.60
2337.8  48977.90  6103.37  12.46
2340.1  48468.39  5976.66  12.33
2342.4  48083.75  5860.84  12.19
2344.8  47692.19  5747.63  12.05
2347.1  47178.60  5625.90  11.92
2349.4  46691.39  5511.09  11.80
2351.6  46154.33  5398.17  11.70
2353.9  45711.10  5296.00  11.59
2356.2  45230.94  5191.48  11.48
2358.5  44696.40  5073.60  11.35
2360.8  44175.60  4970.00  11.25
2363.1  43778.65  4879.25  11.15
2365.4  43349.63  4791.20  11.05
2367.7  42912.45  4696.80  10.95
2369.9  42422.25  4594.31  10.83
2372.2  41864.80  4489.20  10.72
2374.5  41337.45  4377.45  10.59
2376.7  40765.79  4269.13  10.47
2379.0  40204.80  4167.64  10.37
2381.3  39637.50  4062.92  10.25
2383.5  39168.80  3960.00  10.11
2385.8  38627.03  3844.76  9.95
2388.0  38152.35  3737.65  9.80
2390.3  37691.50  3640.10  9.66
2392.5  37242.00  3558.00  9.55
2394.8  36817.28  3469.68  9.42
2397.0  36390.90  3379.13  9.29
2399.3  35965.20  3286.46  9.14
2401.5  35537.25  3206.44  9.02
2403.8  35065.55  3113.04  8.88
2406.0  34605.25  3038.98  8.78
2408.2  34230.35  2957.72  8.64
2410.4  33836.08  2877.41  8.50
2412.7  33458.75  2799.23  8.37
2414.9  33130.35  2726.08  8.23
2417.1  32756.48  2654.30  8.10
2419.3  32380.80  2582.40  7.98
2421.6  32046.25  2512.29  7.84
2423.8  31693.78  2447.46  7.72
2426.0  31354.75  2385.69  7.61
2428.2  31007.20  2322.60  7.49
2430.4  30717.88  2259.60  7.36
2432.6  30470.00  2210.00  7.25
2434.8  30195.30  2145.35  7.10
2437.0  29872.38  2078.81  6.96
2439.2  29550.81  2020.74  6.84
2441.4  29243.50  1976.84  6.76
2443.6  29025.36  1920.52  6.62
2445.7  28780.15  1877.72  6.52
2447.9  28525.69  1830.04  6.42
2450.1  28251.04  1787.86  6.33
2452.3  27919.24  1739.88  6.23
2454.5  27604.31  1680.72  6.09
2456.6  27252.90  1629.97  5.98
2458.8  26930.48  1576.58  5.85
2461.0  26652.81  1538.98  5.77
2463.1  26364.60  1502.29  5.70
2465.3  26109.53  1470.65  5.63
2467.5  25897.31  1434.44  5.54
2469.6  25652.94  1398.44  5.45
2471.8  25374.41  1359.01  5.36
2473.9  25091.13  1327.33  5.29
2476.1  24740.63  1300.54  5.26
2478.2  24415.23  1260.56  5.16
2480.4  24153.23  1228.00  5.08
2482.5  23828.85  1199.96  5.04
2484.6  23526.94  1180.44  5.02
2486.8  23267.40  1150.03  4.94
2488.9  22988.43  1128.51  4.91
2491.1  22669.50  1102.73  4.86
2493.2  22309.43  1069.77  4.80
2495.3  21945.63  1054.20  4.80
2497.4  21626.33  1030.40  4.76
2499.5  21325.59  1007.42  4.72
2501.7  21199.00  990.11  4.67
2503.8  21088.08  977.92  4.64
2505.9  21012.50  978.02  4.65
2508.0  21006.86  972.17  4.63
2510.1  21003.98  956.76  4.56
2512.2  21084.15  954.20  4.53
2514.3  21199.64  963.41  4.54
2516.4  21394.20  989.93  4.63
