/*** Spectra Vista SIG Data ***/
name= 41_20220722_QUPH_15_avg.sig
comm= Averaged Ref/Tar of files: HR.072222.0000_moc.sig,HR.072222.0001_moc.sig
data=
337.3  3225.63  205.59  6.37
338.8  3318.90  206.15  6.21
340.3  3513.75  214.17  6.10
341.8  3703.73  228.63  6.17
343.2  3862.80  215.66  5.58
344.7  4051.75  213.25  5.26
346.2  4207.55  215.93  5.13
347.7  4404.40  224.72  5.10
349.2  4573.80  216.00  4.72
350.6  4810.98  220.35  4.58
352.1  5037.23  224.56  4.46
353.6  5378.50  223.07  4.15
355.1  5623.73  230.92  4.11
356.6  5932.28  243.48  4.10
358.0  6188.60  241.53  3.90
359.5  6458.10  260.45  4.03
361.0  6733.13  265.05  3.94
362.5  7113.83  267.66  3.76
364.0  7455.50  278.56  3.74
365.4  7811.80  289.03  3.70
366.9  8149.38  299.93  3.68
368.4  8482.53  315.61  3.72
369.9  8837.18  320.44  3.63
371.3  9238.20  335.66  3.63
372.8  9637.65  348.94  3.62
374.3  10051.25  353.22  3.51
375.8  10456.60  361.90  3.46
377.2  10840.70  368.92  3.40
378.7  11271.10  380.45  3.38
380.2  11674.60  388.13  3.32
381.7  12134.23  405.38  3.34
383.1  12585.65  415.80  3.30
384.6  13109.85  423.89  3.23
386.1  13539.53  428.54  3.17
387.6  13987.05  438.90  3.14
389.0  14445.20  455.60  3.15
390.5  14921.10  458.94  3.08
392.0  15473.25  483.66  3.13
393.4  16001.48  499.23  3.12
394.9  16547.40  503.36  3.04
396.4  17077.50  517.50  3.03
397.9  17578.75  534.47  3.04
399.3  18107.38  549.92  3.04
400.8  18668.83  569.72  3.05
402.2  19271.75  585.70  3.04
403.7  19837.80  598.44  3.02
405.2  20407.85  618.93  3.03
406.6  20996.00  626.40  2.98
408.1  21583.00  645.72  2.99
409.6  22169.50  658.50  2.97
411.0  22801.80  680.15  2.98
412.5  23407.30  702.10  3.00
414.0  24042.50  721.86  3.00
415.4  24704.63  738.22  2.99
416.9  25365.90  757.24  2.99
418.4  26032.95  779.01  2.99
419.8  26735.80  803.40  3.00
421.3  27414.85  835.23  3.05
422.7  28170.60  855.09  3.04
424.2  28890.00  875.09  3.03
425.7  29633.40  896.50  3.03
427.1  30368.18  922.37  3.04
428.6  31139.50  949.93  3.05
430.0  31852.33  971.20  3.05
431.5  32685.75  995.71  3.05
432.9  33504.55  1021.32  3.05
434.4  34365.68  1045.73  3.04
435.9  35182.00  1074.00  3.05
437.3  35983.75  1100.00  3.06
438.8  36801.83  1128.67  3.07
440.2  37622.20  1153.08  3.06
441.7  38551.80  1184.95  3.07
443.1  39432.00  1211.43  3.07
444.6  40361.10  1244.50  3.08
446.0  41260.50  1273.41  3.09
447.5  42187.20  1303.58  3.09
448.9  43073.10  1332.39  3.09
450.4  44030.00  1367.15  3.11
451.8  44876.00  1398.43  3.12
453.3  45749.43  1430.78  3.13
454.7  46731.73  1464.31  3.13
456.2  47557.10  1490.65  3.13
457.6  48480.30  1517.14  3.13
459.1  49422.43  1547.61  3.13
460.5  50316.75  1578.25  3.14
462.0  51340.90  1615.27  3.15
463.4  52334.00  1644.00  3.14
464.8  53280.00  1670.95  3.14
466.3  54220.65  1703.04  3.14
467.7  55159.93  1731.23  3.14
469.2  56187.40  1763.40  3.14
470.6  57127.30  1796.39  3.14
472.0  58129.75  1827.74  3.14
473.5  59099.00  1858.45  3.14
474.9  60078.00  1891.18  3.15
476.4  61185.60  1927.55  3.15
477.8  62205.00  1963.72  3.16
479.2  63176.50  1996.86  3.16
480.7  64240.05  2032.71  3.16
482.1  65328.45  2068.42  3.17
483.6  66470.00  2107.64  3.17
485.0  67496.93  2144.37  3.18
486.4  68646.90  2184.58  3.18
487.9  69673.50  2227.18  3.20
489.3  70783.08  2271.86  3.21
490.7  71813.83  2309.72  3.22
492.2  72985.50  2358.30  3.23
493.6  74041.10  2404.70  3.25
495.0  75099.38  2457.00  3.27
496.5  76221.95  2513.62  3.30
497.9  77293.23  2574.41  3.33
499.3  78408.53  2633.11  3.36
500.7  79608.10  2706.07  3.40
502.2  80694.20  2776.09  3.44
503.6  81891.40  2863.69  3.50
505.0  82933.65  2959.30  3.57
506.5  84173.18  3066.87  3.64
507.9  85303.05  3183.14  3.73
509.3  86609.60  3321.55  3.84
510.7  87793.88  3470.30  3.95
512.2  89122.58  3647.70  4.09
513.6  90534.15  3854.00  4.26
515.0  91879.28  4080.55  4.44
516.4  93214.80  4329.45  4.64
517.8  94764.63  4618.88  4.87
519.3  96019.65  4918.21  5.12
520.7  97492.95  5246.67  5.38
522.1  98733.38  5586.01  5.66
523.5  100010.50  5933.32  5.93
524.9  101416.50  6297.43  6.21
526.3  102746.00  6648.15  6.47
527.8  104143.05  7000.72  6.72
529.2  105164.20  7328.68  6.97
530.6  106713.25  7664.70  7.18
532.0  108332.00  7988.00  7.37
533.4  109550.25  8257.48  7.54
534.8  110375.85  8473.45  7.68
536.3  111946.20  8731.46  7.80
537.7  113891.40  8996.40  7.90
539.1  115263.40  9201.50  7.98
540.5  116354.80  9380.07  8.06
541.9  117985.50  9598.31  8.14
543.3  119199.35  9772.61  8.20
544.7  120406.80  9947.32  8.26
546.1  122085.70  10165.22  8.33
547.5  123289.60  10329.60  8.38
549.0  124916.00  10520.72  8.42
550.4  126320.63  10684.20  8.46
551.8  127762.98  10830.23  8.48
553.2  129198.65  10946.38  8.47
554.6  130447.20  11013.60  8.44
556.0  131900.40  11064.15  8.39
557.4  133419.65  11092.00  8.31
558.8  134964.00  11095.20  8.22
560.2  136327.50  11064.20  8.12
561.6  137901.90  11019.23  7.99
563.0  139401.30  10940.39  7.85
564.4  140895.25  10836.36  7.69
565.8  142321.88  10708.49  7.52
567.2  143974.75  10579.54  7.35
568.6  145377.00  10410.48  7.16
570.0  146724.78  10224.00  6.97
571.4  148346.25  10052.34  6.78
572.8  150009.50  9886.95  6.59
574.2  151524.80  9723.20  6.42
575.6  152977.50  9572.14  6.26
577.0  154414.50  9437.12  6.11
578.4  156042.25  9327.50  5.98
579.8  157459.95  9224.26  5.86
581.2  159086.80  9150.87  5.75
582.5  160418.70  9070.85  5.65
583.9  161848.80  9015.20  5.57
585.3  163539.45  8982.93  5.49
586.7  164922.88  8944.89  5.42
588.1  166330.75  8922.27  5.36
589.5  167886.25  8918.00  5.31
590.9  169421.20  8920.92  5.27
592.3  171119.25  8944.57  5.23
593.7  172494.08  8961.23  5.20
595.0  174009.60  8992.16  5.17
596.4  175368.90  9013.20  5.14
597.8  176774.00  9036.70  5.11
599.2  178226.40  9051.43  5.08
600.6  179887.50  9072.43  5.04
602.0  181103.25  9054.21  5.00
603.3  182789.50  9049.47  4.95
604.7  184352.68  9021.59  4.89
606.1  185748.00  8971.97  4.83
607.5  187291.25  8917.97  4.76
608.9  188888.20  8855.52  4.69
610.2  190185.98  8778.38  4.62
611.6  191697.15  8713.69  4.55
613.0  193153.15  8641.10  4.47
614.4  194446.20  8572.03  4.41
615.8  195799.50  8513.84  4.35
617.1  197259.30  8465.10  4.29
618.5  198793.60  8440.23  4.25
619.9  200218.88  8417.70  4.20
621.3  201748.73  8409.70  4.17
622.6  203236.75  8415.82  4.14
624.0  204604.35  8431.29  4.12
625.4  205985.18  8453.30  4.10
626.8  207454.98  8490.30  4.09
628.1  208685.95  8522.76  4.08
629.5  210396.30  8576.48  4.08
630.9  211851.48  8624.75  4.07
632.2  213087.18  8669.38  4.07
633.6  214542.00  8714.18  4.06
635.0  215946.00  8737.60  4.05
636.3  217357.20  8746.39  4.02
637.7  218647.00  8729.70  3.99
639.1  220202.50  8705.00  3.95
640.4  221573.80  8658.23  3.91
641.8  222705.55  8589.10  3.86
643.2  224194.95  8528.40  3.80
644.5  225478.75  8457.58  3.75
645.9  227045.70  8394.75  3.70
647.2  228442.20  8338.50  3.65
648.6  229979.25  8302.50  3.61
650.0  231249.60  8272.80  3.58
651.3  231833.53  8226.78  3.55
652.7  233473.45  8205.80  3.51
654.0  235480.70  8194.93  3.48
655.4  236837.23  8156.70  3.44
656.8  236897.20  8071.48  3.41
658.1  238145.70  8035.80  3.37
659.5  240468.90  8033.48  3.34
660.8  242077.50  8013.22  3.31
662.2  242928.00  7968.00  3.28
663.5  244403.10  7951.85  3.25
664.9  245486.80  7937.06  3.23
666.2  246153.60  7925.40  3.22
667.6  247740.53  7944.51  3.21
668.9  248743.58  7973.85  3.21
670.3  250152.50  8023.04  3.21
671.6  251362.13  8078.79  3.21
673.0  252468.38  8142.00  3.22
674.3  253641.70  8218.05  3.24
675.7  254877.95  8306.51  3.26
677.0  255886.45  8400.97  3.28
678.4  257119.85  8514.24  3.31
679.7  258110.98  8630.66  3.34
681.1  259337.10  8776.39  3.38
682.4  260360.10  8922.09  3.43
683.8  261509.30  9102.04  3.48
685.1  262424.63  9298.82  3.54
686.4  263625.00  9546.00  3.62
687.8  264797.25  9850.39  3.72
689.1  265820.75  10238.18  3.85
690.5  267037.80  10743.97  4.02
691.8  267812.10  11401.25  4.26
693.1  269036.70  12289.25  4.57
694.5  270110.75  13412.75  4.97
695.8  271271.00  14810.25  5.46
697.1  272363.00  16510.00  6.06
698.5  273330.70  18516.72  6.77
699.8  274344.83  20835.09  7.59
701.1  275387.88  23452.43  8.52
702.5  276169.85  26296.53  9.52
703.8  276997.50  29365.72  10.60
705.1  278092.43  32605.95  11.72
706.5  279061.00  35959.82  12.89
707.8  279956.10  39374.32  14.06
709.1  280759.20  42806.59  15.25
710.5  281853.13  46286.10  16.42
711.8  282607.90  49697.15  17.59
713.1  283544.50  53109.05  18.73
714.4  284347.30  56450.86  19.85
715.8  285105.50  59716.22  20.95
717.1  286325.85  63001.46  22.00
718.4  287190.40  66118.40  23.02
719.7  288241.88  69171.63  24.00
721.0  288742.50  71996.79  24.93
722.4  289429.25  74772.58  25.83
723.7  290305.05  77472.71  26.69
725.0  291311.78  80082.90  27.49
726.3  292182.83  82548.25  28.25
727.6  292684.98  84788.36  28.97
729.0  293508.78  87013.48  29.65
730.3  294213.45  89067.28  30.27
731.6  295023.60  91042.34  30.86
732.9  295755.43  92873.90  31.40
734.2  296511.88  94611.98  31.91
735.5  297450.10  96311.35  32.38
736.8  298169.70  97836.99  32.81
738.1  298965.10  99287.43  33.21
739.5  299890.88  100678.52  33.57
740.8  300504.05  101899.92  33.91
742.1  301164.90  103060.46  34.22
743.4  301800.00  104142.86  34.51
744.7  302653.85  105249.49  34.78
746.0  303490.20  106259.96  35.01
747.3  304028.28  107102.90  35.23
748.6  304699.75  107925.61  35.42
749.9  305344.00  108683.72  35.59
751.2  305955.00  109374.24  35.75
752.5  306713.35  110084.03  35.89
753.8  307215.65  110662.30  36.02
755.1  307840.00  111235.43  36.13
756.4  308401.18  111748.16  36.23
757.7  309301.65  112346.00  36.32
759.0  311002.28  113179.61  36.39
760.3  312048.00  113776.46  36.46
761.6  313507.60  114494.00  36.52
762.9  313991.50  114837.75  36.57
764.2  314326.50  115108.95  36.62
765.5  314598.03  115315.68  36.65
766.8  314976.00  115549.49  36.69
768.1  315428.80  115815.89  36.72
769.3  315928.90  116086.55  36.74
770.6  316533.75  116363.84  36.76
771.9  317194.15  116676.70  36.78
773.2  317512.00  116849.77  36.80
774.5  318060.60  117100.66  36.82
775.8  318677.10  117365.93  36.83
777.1  319192.50  117586.94  36.84
778.4  319467.23  117721.02  36.85
779.6  320167.98  118008.25  36.86
780.9  320580.00  118187.15  36.87
782.2  320982.75  118359.61  36.87
783.5  321226.00  118483.79  36.88
784.8  321658.88  118680.65  36.90
786.0  322028.70  118841.70  36.90
787.3  322366.95  118984.49  36.91
788.6  322737.33  119130.07  36.91
789.9  323159.20  119291.80  36.91
791.2  323730.35  119517.68  36.92
792.4  324309.13  119760.49  36.93
793.7  324714.80  119934.63  36.94
795.0  325227.38  120165.73  36.95
796.2  325822.00  120393.77  36.95
797.5  326484.45  120629.69  36.95
798.8  327099.35  120877.10  36.95
800.0  327710.55  121106.44  36.96
801.3  328112.90  121270.22  36.96
802.6  328571.33  121467.60  36.97
803.8  329147.45  121700.33  36.97
805.1  329595.00  121872.75  36.98
806.4  329946.00  122045.19  36.99
807.7  330461.78  122235.08  36.99
808.9  330997.10  122425.42  36.99
810.2  331468.55  122588.05  36.98
811.4  331867.60  122757.56  36.99
812.7  332434.38  122971.88  36.99
814.0  333150.40  123267.77  37.00
815.2  333749.50  123514.40  37.01
816.5  334141.60  123654.38  37.01
817.7  334529.95  123812.02  37.01
819.0  334999.50  123975.27  37.01
820.2  335148.00  124023.43  37.01
821.5  335723.35  124273.71  37.02
822.7  336076.33  124415.70  37.02
824.0  336355.20  124533.26  37.02
825.2  336783.83  124701.24  37.03
826.5  337070.75  124806.00  37.03
827.7  337567.73  124988.50  37.03
829.0  337956.60  125132.77  37.03
830.2  338238.00  125228.59  37.02
831.5  338662.95  125410.82  37.03
832.7  338905.88  125522.85  37.04
834.0  339212.55  125625.25  37.03
835.2  339574.13  125729.85  37.03
836.4  339839.50  125837.41  37.03
837.7  340213.40  125984.03  37.03
838.9  340638.88  126153.22  37.03
840.1  341024.18  126296.36  37.03
841.4  341400.00  126439.93  37.04
842.6  341713.60  126573.75  37.04
843.8  342048.20  126701.57  37.04
845.1  342508.85  126873.34  37.04
846.3  342930.60  127017.06  37.04
847.5  343232.40  127159.20  37.05
848.8  343608.00  127308.00  37.05
850.0  343948.50  127412.20  37.04
851.2  344470.05  127616.08  37.05
852.5  344840.90  127764.10  37.05
853.7  345303.00  127936.61  37.05
854.9  345703.00  128092.36  37.05
856.1  346131.50  128266.64  37.06
857.4  346382.28  128344.28  37.05
858.6  346819.80  128483.38  37.05
859.8  347221.88  128631.17  37.05
861.0  347630.40  128766.86  37.04
862.2  348054.28  128919.90  37.04
863.5  348423.08  129059.27  37.04
864.7  348915.60  129248.74  37.04
865.9  349310.60  129393.72  37.04
867.1  349617.25  129465.90  37.03
868.3  349923.75  129629.51  37.05
869.5  350410.80  129782.98  37.04
870.8  350905.50  129962.57  37.04
872.0  351442.13  130137.98  37.03
873.2  351831.30  130276.05  37.03
874.4  352307.48  130432.86  37.02
875.6  352685.28  130557.49  37.02
876.8  353085.70  130722.13  37.02
878.0  353626.15  130873.29  37.01
879.2  354072.60  131047.48  37.01
880.4  354570.00  131195.68  37.00
881.6  354961.28  131344.98  37.00
882.8  355411.20  131469.37  36.99
884.0  355909.83  131692.94  37.00
885.2  356412.80  131825.63  36.99
886.5  356999.30  132043.80  36.99
887.7  357399.25  132169.56  36.98
888.8  358071.83  132387.87  36.97
890.0  358521.10  132560.10  36.97
891.2  359058.40  132786.29  36.98
892.4  359669.63  132953.55  36.97
893.6  360156.30  133114.41  36.96
894.8  361088.50  133386.86  36.94
896.0  361865.50  133647.22  36.93
897.2  362599.25  133939.93  36.94
898.4  363267.30  134188.37  36.94
899.6  363770.25  134399.41  36.95
900.8  364137.95  134462.06  36.93
902.0  364271.70  134512.54  36.93
903.2  364644.00  134602.01  36.91
904.3  364981.50  134715.22  36.91
905.5  365504.25  134912.43  36.91
906.7  366151.00  135081.21  36.89
907.9  366522.45  135251.90  36.90
909.1  366790.28  135325.55  36.89
910.2  366999.08  135359.78  36.88
911.4  367210.35  135412.46  36.88
912.6  367324.10  135441.43  36.87
913.8  367580.18  135494.69  36.86
915.0  367852.80  135624.30  36.87
916.2  367955.25  135640.61  36.86
917.3  367952.40  135614.54  36.86
918.5  368183.00  135675.72  36.85
919.7  368471.55  135759.60  36.84
920.8  368479.25  135742.51  36.84
922.0  368541.25  135789.50  36.85
923.2  368686.50  135759.00  36.82
924.4  368907.75  135805.18  36.81
925.5  369129.30  135830.44  36.80
926.7  369747.88  135968.13  36.77
927.9  370465.20  136213.20  36.77
929.0  371848.05  136660.31  36.75
930.2  373749.00  137384.39  36.76
931.4  376014.15  138121.40  36.73
932.5  378537.90  138971.67  36.71
933.7  379830.80  139409.38  36.70
934.9  380568.13  139536.25  36.67
936.0  380113.50  139342.13  36.66
937.2  378053.25  138528.93  36.64
938.3  376421.80  137898.75  36.63
939.5  374947.20  137317.89  36.62
940.7  375257.70  137298.99  36.59
941.8  376637.48  137758.75  36.58
943.0  377859.00  138150.54  36.56
944.2  378633.45  138344.33  36.54
945.3  378095.25  138090.64  36.52
946.5  377364.15  137735.10  36.50
947.6  377395.30  137685.40  36.48
948.8  377378.63  137508.29  36.44
949.9  377626.20  137418.60  36.39
951.1  377187.53  137130.46  36.36
952.2  376992.00  136913.15  36.32
953.4  376573.25  136696.18  36.30
954.5  376552.80  136528.97  36.26
955.7  376349.40  136353.60  36.23
956.8  376313.30  136125.24  36.17
958.0  375885.50  135842.79  36.14
959.1  375832.13  135596.24  36.08
960.3  375319.20  135389.57  36.07
961.4  375280.00  135201.32  36.03
962.6  375208.75  135219.00  36.04
963.7  375101.93  135068.94  36.01
964.9  375031.35  134979.73  35.99
966.0  374703.98  134833.18  35.98
967.2  374828.85  134791.97  35.96
968.3  374463.00  134628.37  35.95
969.5  374350.93  134515.52  35.93
970.6  374476.33  134587.10  35.94
971.8  374281.25  134570.15  35.95
972.9  374357.78  134524.38  35.93
974.0  374459.10  134643.26  35.96
975.2  374555.25  134598.18  35.94
976.3  374300.10  134600.53  35.96
977.5  374015.08  134576.28  35.98
978.6  374093.50  134547.92  35.97
979.7  374182.73  134577.15  35.97
980.9  374267.75  134568.90  35.96
982.0  374361.00  134523.13  35.93
983.2  373997.10  134446.27  35.95
984.3  373590.60  134318.60  35.95
985.4  373759.45  134312.05  35.94
986.6  373388.00  134317.91  35.97
987.7  373724.93  134731.05  36.05
988.9  373654.80  134728.46  36.06
990.0  374765.50  134936.37  36.01
993.1  347187.63  124276.63  35.80
996.9  346971.63  124606.74  35.91
1000.7  347514.48  125125.75  36.01
1004.5  347860.92  125515.22  36.08
1008.4  347497.33  125679.79  36.17
1012.2  347442.46  125920.52  36.24
1016.0  347246.40  126125.23  36.32
1019.8  347089.05  126325.24  36.40
1023.7  346635.07  126362.01  36.45
1027.5  345807.68  126273.45  36.52
1031.3  345549.78  126328.26  36.56
1035.1  345065.23  126290.88  36.60
1038.9  344837.53  126304.32  36.63
1042.7  344621.58  126313.86  36.65
1046.5  344440.67  126304.72  36.67
1050.3  344417.59  126339.42  36.68
1054.2  344102.50  126272.50  36.70
1058.0  343638.58  126114.57  36.70
1061.8  343524.55  126112.82  36.71
1065.6  343160.87  125991.98  36.72
1069.4  342852.47  125887.95  36.72
1073.2  342108.88  125645.41  36.73
1077.0  341534.38  125410.14  36.72
1080.8  341233.33  125237.28  36.70
1084.6  340632.48  124948.08  36.68
1088.4  340346.52  124769.96  36.66
1092.2  339680.25  124435.77  36.63
1096.0  339101.49  124137.18  36.61
1099.8  338584.78  123850.68  36.58
1103.6  337852.98  123475.45  36.55
1107.4  336902.89  123003.12  36.51
1111.2  336610.40  122786.19  36.48
1114.9  336018.67  122399.75  36.43
1118.7  335548.13  122010.78  36.36
1122.5  334973.60  121544.80  36.28
1126.3  334002.26  120882.22  36.19
1130.1  333590.67  120283.79  36.06
1133.9  332089.80  119125.20  35.87
1137.7  330707.60  117896.92  35.65
1141.4  328924.16  116405.55  35.39
1145.2  328163.93  115173.47  35.10
1149.0  327101.25  113884.07  34.82
1152.8  325508.45  112526.68  34.57
1156.6  323883.82  111381.33  34.39
1160.3  322270.67  110417.72  34.26
1164.1  320098.10  109403.12  34.18
1167.9  318478.13  108710.94  34.13
1171.7  317283.75  108231.19  34.11
1175.4  316092.23  107789.99  34.10
1179.2  314995.98  107370.16  34.09
1183.0  314672.00  107199.86  34.07
1186.7  314355.77  106979.20  34.03
1190.5  313634.67  106644.43  34.00
1194.3  312631.43  106261.00  33.99
1198.0  311447.13  105881.91  34.00
1201.8  309944.00  105421.83  34.01
1205.6  308825.33  105103.86  34.03
1209.3  308079.22  104939.30  34.06
1213.1  307373.18  104783.15  34.09
1216.8  306604.28  104655.46  34.13
1220.6  305556.53  104447.20  34.18
1224.3  304383.00  104189.46  34.23
1228.1  303163.80  103974.30  34.30
1231.9  301888.70  103688.97  34.35
1235.6  300447.00  103329.08  34.39
1239.4  299098.88  103017.54  34.44
1243.1  297908.22  102684.62  34.47
1246.9  296724.28  102343.72  34.49
1250.6  295792.40  102054.76  34.50
1254.3  294760.86  101733.40  34.51
1258.1  293740.30  101407.83  34.52
1261.8  292461.87  100978.54  34.53
1265.6  291205.95  100511.46  34.52
1269.3  290111.43  100063.02  34.49
1273.1  290214.02  100023.69  34.47
1276.8  290263.60  99960.35  34.44
1280.6  289755.47  99708.07  34.41
1284.3  288230.00  99085.29  34.38
1288.0  286941.53  98497.59  34.33
1291.8  286064.48  97965.09  34.25
1295.5  285076.00  97363.52  34.15
1299.2  283947.84  96707.90  34.06
1302.9  282557.66  95914.33  33.95
1306.7  281022.35  95021.85  33.81
1310.4  279537.98  94074.48  33.65
1314.1  278191.10  93106.44  33.47
1317.9  277004.58  92103.84  33.25
1321.6  275652.79  90993.74  33.01
1325.3  274126.13  89731.80  32.73
1329.0  272899.20  88519.98  32.44
1332.8  271040.00  87007.80  32.10
1336.5  269426.13  85551.13  31.75
1340.2  269147.67  84509.75  31.40
1343.9  268852.92  83467.68  31.05
1347.6  268490.10  82393.75  30.69
1351.4  269033.50  81620.79  30.34
1355.1  269767.67  80923.54  30.00
1358.8  270384.00  80129.15  29.64
1362.5  270154.85  79026.43  29.25
1366.2  268590.65  77385.03  28.81
1369.9  266446.00  75397.18  28.30
1373.6  264315.33  73119.19  27.66
1377.3  262652.10  70524.45  26.85
1381.0  261786.83  67591.68  25.82
1384.8  260048.75  63827.68  24.54
1388.4  257619.37  59543.63  23.11
1392.2  255757.17  55104.95  21.55
1395.9  254316.75  50657.32  19.92
1399.6  252787.01  46386.84  18.35
1403.3  251613.31  42588.02  16.93
1407.0  250430.70  39321.78  15.70
1410.7  249154.13  36639.20  14.71
1414.3  247813.94  34541.77  13.94
1418.1  246578.13  32980.85  13.38
1421.7  245589.40  31869.03  12.98
1425.4  244598.58  31102.09  12.72
1429.1  243632.25  30610.53  12.56
1432.8  242203.59  30267.47  12.50
1436.5  241460.92  30155.30  12.49
1440.2  240769.63  30168.20  12.53
1443.9  239671.58  30195.47  12.60
1447.6  238238.00  30231.30  12.69
1451.2  237197.40  30331.17  12.79
1454.9  235976.40  30435.27  12.90
1458.6  234916.88  30612.37  13.03
1462.3  233828.47  30877.40  13.21
1466.0  232599.82  31234.03  13.43
1469.7  231055.07  31676.36  13.71
1473.3  230079.83  32284.75  14.03
1477.0  228307.43  32854.78  14.39
1480.7  226830.03  33503.60  14.77
1484.4  225075.77  34106.95  15.15
1488.0  223652.00  34782.00  15.55
1491.7  222187.31  35423.36  15.94
1495.4  220646.10  36044.36  16.34
1499.0  219211.00  36658.07  16.72
1502.7  218008.83  37303.13  17.11
1506.4  216710.33  37887.54  17.48
1510.0  215428.17  38454.44  17.85
1513.7  214089.17  38976.44  18.21
1517.4  212850.00  39498.57  18.56
1521.0  211731.60  40011.89  18.90
1524.7  210574.00  40469.47  19.22
1528.3  209403.13  40897.93  19.53
1532.0  208277.30  41300.33  19.83
1535.7  207011.58  41635.71  20.11
1539.3  205862.17  41965.30  20.39
1543.0  204955.93  42325.18  20.65
1546.6  204321.00  42717.77  20.91
1550.3  203415.90  43017.09  21.15
1553.9  202430.83  43281.81  21.38
1557.6  201280.93  43486.93  21.61
1561.2  200126.70  43655.53  21.81
1564.9  198908.66  43796.30  22.02
1568.5  197698.67  43913.98  22.21
1572.2  196657.85  44055.79  22.40
1575.8  195664.00  44193.00  22.59
1579.5  194717.15  44330.88  22.77
1583.1  193784.81  44455.01  22.94
1586.8  192626.00  44511.00  23.11
1590.4  191611.13  44589.91  23.27
1594.0  190395.40  44615.56  23.43
1597.7  189486.93  44708.78  23.59
1601.3  188428.28  44757.57  23.75
1604.9  187376.89  44784.33  23.90
1608.6  186188.08  44751.67  24.04
1612.2  185130.00  44731.74  24.16
1615.8  183980.88  44674.09  24.28
1619.5  182906.75  44612.86  24.39
1623.1  181720.30  44497.80  24.49
1626.7  180584.95  44392.59  24.58
1630.3  179483.25  44293.77  24.68
1634.0  178458.00  44169.00  24.75
1637.6  177535.40  44023.64  24.80
1641.2  176594.45  43826.97  24.82
1644.8  175465.34  43555.45  24.82
1648.5  174468.93  43310.74  24.82
1652.1  173556.90  43046.29  24.80
1655.7  172728.80  42767.36  24.76
1659.3  171952.96  42499.27  24.72
1662.9  170637.50  42108.40  24.68
1666.6  169306.40  41723.75  24.64
1670.2  168011.14  41352.59  24.61
1673.8  166682.73  40973.60  24.58
1677.4  165635.45  40659.70  24.55
1681.0  164888.63  40382.18  24.49
1684.6  164535.58  40161.64  24.41
1688.2  163899.45  39815.07  24.29
1691.8  163307.97  39512.83  24.20
1695.4  162916.60  39240.69  24.09
1699.0  162587.37  38979.00  23.97
1702.6  162267.67  38703.08  23.85
1706.2  161704.73  38356.02  23.72
1709.8  160851.28  37924.85  23.58
1713.4  160194.98  37529.86  23.43
1717.0  159403.25  37113.11  23.28
1720.6  158668.73  36716.94  23.14
1724.2  158040.83  36357.30  23.01
1727.8  157377.85  36010.35  22.88
1731.4  156937.00  35732.81  22.77
1735.0  156762.10  35525.48  22.66
1738.6  156523.95  35295.53  22.55
1742.2  155998.33  34970.19  22.42
1745.8  155402.14  34620.18  22.28
1749.4  154508.48  34193.89  22.13
1753.0  153127.60  33641.87  21.97
1756.6  151615.33  33072.01  21.81
1760.1  150415.33  32584.12  21.66
1763.7  148825.33  32032.43  21.52
1767.3  147516.18  31558.58  21.39
1770.9  146369.53  31138.28  21.27
1774.5  145050.09  30695.63  21.16
1778.0  144001.81  30326.91  21.06
1781.6  143000.85  29993.76  20.97
1785.2  141941.18  29659.35  20.90
1788.8  140867.90  29360.88  20.84
1792.3  139765.83  29061.94  20.79
1795.9  139301.07  28927.37  20.77
1799.5  138916.33  28814.36  20.74
1803.1  138889.68  28767.90  20.71
1806.6  139932.22  28928.57  20.67
1810.2  141237.37  29148.85  20.64
1813.8  142017.55  29285.43  20.62
1817.3  141825.60  29228.27  20.61
1820.9  140846.77  29017.82  20.60
1824.5  139654.08  28735.12  20.58
1828.0  138711.83  28484.99  20.54
1831.6  138021.78  28266.23  20.48
1835.2  137487.50  28031.79  20.39
1838.7  137165.60  27788.77  20.26
1842.3  136890.00  27501.43  20.09
1845.8  136065.25  27030.21  19.87
1849.4  135545.53  26515.31  19.56
1852.9  134892.51  25860.18  19.17
1856.5  134058.43  25010.77  18.66
1860.0  133264.24  24017.53  18.02
1863.6  133083.41  22940.54  17.24
1867.1  133118.30  21708.23  16.31
1870.7  133356.53  20229.58  15.17
1874.2  132673.95  18368.30  13.84
1877.8  131150.27  16335.09  12.46
1881.3  129332.00  14248.13  11.02
1884.9  128099.86  12346.89  9.64
1888.4  126959.24  10591.18  8.34
1891.9  125743.33  9097.90  7.24
1895.5  124531.50  7932.69  6.37
1899.0  123827.75  7110.70  5.74
1901.3  155403.13  6480.94  4.17
1904.1  155211.19  5974.32  3.85
1906.8  154416.15  5573.03  3.61
1909.6  152752.95  5265.10  3.45
1912.4  151164.56  5047.18  3.34
1915.1  150015.11  4884.00  3.26
1917.9  148750.38  4760.13  3.20
1920.6  147670.35  4688.27  3.17
1923.3  146590.15  4628.32  3.16
1926.1  145237.00  4582.44  3.16
1928.8  143979.00  4559.50  3.17
1931.6  142981.78  4569.87  3.20
1934.3  142060.39  4605.84  3.24
1937.0  141166.55  4628.79  3.28
1939.8  140155.44  4665.19  3.33
1942.5  138888.75  4710.75  3.39
1945.2  137305.16  4749.53  3.46
1947.9  135999.33  4804.72  3.53
1950.7  134955.80  4874.79  3.61
1953.4  133358.59  4942.13  3.71
1956.1  132104.06  5014.38  3.80
1958.8  131001.65  5104.37  3.90
1961.5  129671.70  5188.80  4.00
1964.2  128303.18  5285.97  4.12
1966.9  126885.53  5379.10  4.24
1969.6  125759.25  5494.50  4.37
1972.3  124482.08  5610.34  4.51
1975.0  123523.88  5741.44  4.65
1977.7  122523.01  5875.21  4.80
1980.4  121492.85  6009.56  4.95
1983.1  120512.28  6138.72  5.09
1985.8  119668.50  6283.58  5.25
1988.4  118735.50  6435.00  5.42
1991.1  117896.80  6585.08  5.59
1993.8  117094.04  6730.70  5.75
1996.5  116525.34  6895.49  5.92
1999.1  115892.01  7057.05  6.09
2001.8  115255.00  7209.92  6.26
2004.5  114640.61  7369.80  6.43
2007.1  113978.89  7515.77  6.59
2009.8  113306.03  7656.69  6.76
2012.4  112777.09  7797.01  6.91
2015.1  112282.98  7941.59  7.07
2017.8  111564.25  8064.62  7.23
2020.4  111109.76  8191.22  7.37
2023.1  110787.25  8307.43  7.50
2025.7  110552.00  8433.75  7.63
2028.3  110253.00  8547.50  7.75
2031.0  109924.49  8648.61  7.87
2033.6  109672.20  8750.03  7.98
2036.2  109411.20  8841.38  8.08
2038.9  108882.68  8896.84  8.17
2041.5  108594.41  8962.92  8.25
2044.1  108086.63  9007.77  8.33
2046.8  107734.28  9063.23  8.41
2049.4  107153.55  9089.33  8.48
2052.0  106876.35  9140.53  8.55
2054.6  106509.38  9180.94  8.62
2057.2  105998.65  9219.13  8.70
2059.8  105723.55  9274.80  8.77
2062.4  104946.49  9293.06  8.86
2065.0  104479.05  9333.75  8.93
2067.6  103678.21  9335.55  9.00
2070.2  103135.60  9368.24  9.08
2072.8  102540.69  9404.20  9.17
2075.4  102132.19  9443.44  9.25
2078.0  101546.31  9462.95  9.32
2080.6  101039.40  9490.80  9.39
2083.2  100413.40  9500.88  9.46
2085.8  99958.73  9528.82  9.53
2088.4  99368.38  9540.01  9.60
2090.9  98645.28  9541.84  9.67
2093.5  97855.73  9533.76  9.74
2096.1  97145.86  9522.23  9.80
2098.7  96441.00  9515.65  9.87
2101.2  95564.50  9494.23  9.93
2103.8  94942.25  9497.50  10.00
2106.4  94346.20  9497.50  10.07
2108.9  93756.70  9500.78  10.13
2111.5  92996.90  9484.40  10.20
2114.0  92413.95  9487.68  10.27
2116.6  91947.19  9492.66  10.32
2119.1  91458.25  9494.30  10.38
2121.7  91021.88  9499.22  10.44
2124.2  90656.10  9510.74  10.49
2126.8  89932.55  9482.71  10.54
2129.3  89568.60  9484.20  10.59
2131.9  89040.60  9474.30  10.64
2134.4  88637.18  9465.08  10.68
2136.9  88284.79  9467.41  10.72
2139.4  87819.90  9462.95  10.78
2142.0  87420.90  9452.98  10.81
2144.5  87168.83  9458.48  10.85
2147.0  86959.30  9480.50  10.90
2149.5  86510.40  9480.50  10.96
2152.1  86368.01  9506.61  11.01
2154.6  86271.60  9526.80  11.04
2157.1  85783.00  9503.44  11.08
2159.6  85421.94  9496.63  11.12
2162.1  85271.55  9514.05  11.16
2164.6  85049.60  9521.50  11.20
2167.1  84764.46  9521.97  11.23
2169.6  84450.01  9515.06  11.27
2172.1  84034.88  9501.11  11.31
2174.6  83740.55  9507.60  11.35
2177.1  83355.05  9496.85  11.39
2179.5  82976.56  9485.54  11.43
2182.0  82537.13  9466.88  11.47
2184.5  82050.21  9458.40  11.53
2187.0  81496.93  9434.52  11.58
2189.5  80862.01  9399.17  11.62
2191.9  80177.63  9355.13  11.67
2194.4  79618.35  9329.16  11.72
2196.9  78933.60  9288.00  11.77
2199.3  78336.25  9247.38  11.80
2201.8  77526.00  9187.05  11.85
2204.3  77092.74  9158.95  11.88
2206.7  76504.95  9119.87  11.92
2209.2  76081.90  9102.56  11.96
2211.6  75512.25  9043.65  11.98
2214.1  75214.54  9018.44  11.99
2216.5  74693.70  8954.90  11.99
2219.0  74395.70  8928.83  12.00
2221.4  74055.19  8884.10  12.00
2223.9  73601.50  8813.44  11.97
2226.3  73155.25  8739.07  11.95
2228.7  72649.91  8650.39  11.91
2231.1  72089.33  8546.18  11.85
2233.6  71542.35  8429.68  11.78
2236.0  71065.31  8311.41  11.70
2238.4  70611.63  8188.69  11.60
2240.9  70193.90  8068.35  11.49
2243.3  69694.75  7930.53  11.38
2245.7  69169.91  7790.85  11.26
2248.1  68740.10  7658.14  11.14
2250.5  68271.03  7517.45  11.01
2252.9  67708.55  7359.14  10.87
2255.3  67184.89  7223.70  10.75
2257.7  66757.50  7102.50  10.64
2260.1  66325.35  6968.16  10.51
2262.5  65782.50  6836.25  10.39
2264.9  65298.49  6712.55  10.28
2267.3  64747.50  6588.75  10.18
2269.7  64293.60  6479.03  10.08
2272.1  63781.13  6366.85  9.98
2274.5  63269.38  6267.04  9.91
2276.8  62849.58  6175.28  9.83
2279.2  62320.05  6071.46  9.74
2281.6  61925.10  5994.70  9.68
2284.0  61501.43  5904.72  9.60
2286.3  61066.00  5821.60  9.53
2288.7  60695.21  5739.59  9.46
2291.1  60202.70  5641.13  9.37
2293.4  59805.90  5551.70  9.28
2295.8  59243.03  5453.86  9.21
2298.2  58692.26  5348.37  9.11
2300.5  58079.03  5247.46  9.04
2302.9  57396.50  5153.75  8.98
2305.2  56755.58  5044.43  8.89
2307.6  56143.30  4948.14  8.81
2309.9  55443.50  4855.38  8.76
2312.2  54885.50  4774.00  8.70
2314.6  54321.98  4700.20  8.65
2316.9  53677.69  4607.05  8.58
2319.2  53142.13  4544.49  8.55
2321.6  52557.84  4470.03  8.50
2323.9  52054.69  4402.35  8.46
2326.2  51574.58  4323.32  8.38
2328.6  51100.50  4251.85  8.32
2330.9  50620.50  4185.57  8.27
2333.2  50196.75  4111.63  8.19
2335.5  49795.13  4032.57  8.10
2337.8  49366.10  3975.01  8.05
2340.1  48848.50  3906.27  8.00
2342.4  48457.50  3839.07  7.92
2344.8  48068.81  3766.25  7.84
2347.1  47532.28  3701.26  7.79
2349.4  47021.89  3631.37  7.72
2351.6  46501.35  3573.54  7.68
2353.9  46058.65  3525.15  7.65
2356.2  45581.11  3464.24  7.60
2358.5  45040.80  3389.40  7.53
2360.8  44503.20  3322.20  7.47
2363.1  44089.91  3272.47  7.42
2365.4  43663.20  3216.27  7.37
2367.7  43237.35  3154.95  7.30
2369.9  42757.16  3095.80  7.24
2372.2  42183.00  3027.20  7.18
2374.5  41640.64  2958.25  7.10
2376.7  41070.73  2888.20  7.03
2379.0  40510.18  2831.27  6.99
2381.3  39961.25  2773.75  6.94
2383.5  39485.60  2706.00  6.85
2385.8  38927.08  2643.09  6.79
2388.0  38444.40  2584.20  6.72
2390.3  37967.40  2523.15  6.65
2392.5  37548.00  2466.00  6.57
2394.8  37125.83  2418.49  6.51
2397.0  36663.90  2366.00  6.45
2399.3  36230.19  2307.22  6.37
2401.5  35831.25  2246.35  6.27
2403.8  35342.68  2189.29  6.19
2406.0  34884.63  2151.19  6.17
2408.2  34520.20  2103.75  6.09
2410.4  34126.31  2031.67  5.95
2412.7  33741.50  1983.97  5.88
2414.9  33405.49  1959.17  5.86
2417.1  33032.70  1909.77  5.78
2419.3  32649.60  1852.80  5.67
2421.6  32288.44  1801.88  5.58
2423.8  31936.90  1765.09  5.53
2426.0  31598.19  1723.54  5.45
2428.2  31262.00  1675.80  5.36
2430.4  30975.93  1647.55  5.32
2432.6  30730.00  1610.00  5.24
2434.8  30455.95  1563.91  5.13
2437.0  30134.33  1526.37  5.07
2439.2  29804.25  1495.28  5.02
2441.4  29488.90  1451.96  4.92
2443.6  29274.06  1414.48  4.83
2445.7  29030.05  1384.86  4.77
2447.9  28776.19  1356.88  4.72
2450.1  28514.48  1333.00  4.67
2452.3  28183.93  1302.26  4.62
2454.5  27838.34  1265.86  4.55
2456.6  27466.90  1241.20  4.52
2458.8  27155.70  1201.20  4.42
2461.0  26890.69  1173.16  4.36
2463.1  26593.76  1156.73  4.35
2465.3  26340.00  1124.94  4.27
2467.5  26129.63  1095.19  4.19
2469.6  25910.25  1085.19  4.19
2471.8  25610.93  1064.31  4.16
2473.9  25317.38  1035.10  4.09
2476.1  24990.88  1001.01  4.01
2478.2  24678.00  976.84  3.96
2480.4  24418.01  961.30  3.94
2482.5  24084.33  940.62  3.91
2484.6  23760.69  917.47  3.86
2486.8  23502.90  912.57  3.88
2488.9  23201.50  899.65  3.88
2491.1  22895.60  868.70  3.79
2493.2  22560.90  850.23  3.77
2495.3  22186.13  829.73  3.74
2497.4  21867.83  833.18  3.81
2499.5  21592.61  813.22  3.77
2501.7  21470.15  788.81  3.67
2503.8  21388.98  789.86  3.69
2505.9  21345.63  800.79  3.75
2508.0  21322.16  788.25  3.70
2510.1  21299.05  777.93  3.65
2512.2  21400.69  791.35  3.70
2514.3  21569.81  797.30  3.70
2516.4  21763.58  797.86  3.67
