/*** Spectra Vista SIG Data ***/
name= 50_20220926_CECA_17_avg.sig
comm= Averaged Ref/Tar of files: HR.092722.0063_moc.sig,HR.092722.0064_moc.sig,HR.092722.0065_moc.sig
data=
337.3  3126.38  224.97  7.20
338.8  3270.80  205.23  6.27
340.3  3420.05  212.39  6.21
341.8  3612.28  219.48  6.08
343.2  3818.40  219.04  5.74
344.7  3966.45  210.41  5.30
346.2  4125.85  206.97  5.02
347.7  4325.75  209.73  4.85
349.2  4536.00  206.64  4.56
350.6  4810.98  215.45  4.48
352.1  5072.95  214.35  4.23
353.6  5343.80  226.71  4.24
355.1  5590.05  233.48  4.18
356.6  5899.50  244.72  4.15
358.0  6188.60  238.19  3.85
359.5  6489.00  238.96  3.68
361.0  6792.98  243.39  3.58
362.5  7143.10  261.52  3.66
364.0  7512.85  275.28  3.66
365.4  7868.00  284.75  3.62
366.9  8259.88  290.98  3.52
368.4  8591.63  301.84  3.51
369.9  8945.28  309.89  3.46
371.3  9371.70  323.96  3.46
372.8  9796.95  339.84  3.47
374.3  10239.38  351.17  3.43
375.8  10672.20  352.15  3.30
377.2  11082.80  365.84  3.30
378.7  11513.20  365.84  3.18
380.2  11916.70  373.01  3.13
381.7  12404.48  389.16  3.14
383.1  12882.10  398.86  3.10
384.6  13406.58  406.42  3.03
386.1  13863.83  407.18  2.94
387.6  14310.45  420.42  2.94
389.0  14820.40  425.23  2.87
390.5  15292.80  442.50  2.89
392.0  15843.55  458.47  2.89
393.4  16421.88  469.45  2.86
394.9  16938.90  476.76  2.81
396.4  17465.63  489.90  2.80
397.9  18040.00  498.83  2.77
399.3  18588.55  509.88  2.74
400.8  19167.33  521.76  2.72
402.2  19787.30  540.10  2.73
403.7  20391.53  545.70  2.68
405.2  21023.40  565.04  2.69
406.6  21576.00  572.27  2.65
408.1  22170.60  584.59  2.64
409.6  22784.10  597.04  2.62
411.0  23420.95  612.03  2.61
412.5  24115.35  627.53  2.60
414.0  24776.00  652.00  2.63
415.4  25479.75  667.80  2.62
416.9  26136.90  683.62  2.62
418.4  26817.30  707.16  2.64
419.8  27554.80  732.85  2.66
421.3  28270.45  765.29  2.71
422.7  29040.60  798.08  2.75
424.2  29818.13  830.25  2.78
425.7  30578.80  860.64  2.81
427.1  31349.33  896.75  2.86
428.6  32162.50  932.07  2.90
430.0  32899.40  967.15  2.94
431.5  33760.35  1008.93  2.99
432.9  34617.95  1046.99  3.02
434.4  35511.68  1088.70  3.07
435.9  36372.00  1121.87  3.08
437.3  37221.25  1160.50  3.12
438.8  38077.88  1198.22  3.15
440.2  38956.23  1239.70  3.18
441.7  39918.60  1279.25  3.20
443.1  40810.00  1317.93  3.23
444.6  41789.00  1358.91  3.25
446.0  42739.65  1397.84  3.27
447.5  43712.35  1437.26  3.29
448.9  44646.90  1482.64  3.32
450.4  45648.75  1526.37  3.34
451.8  46540.00  1565.20  3.36
453.3  47462.25  1600.38  3.37
454.7  48457.65  1642.48  3.39
456.2  49329.25  1676.93  3.40
457.6  50312.25  1713.36  3.41
459.1  51301.25  1750.02  3.41
460.5  52242.75  1785.12  3.42
462.0  53315.55  1824.97  3.42
463.4  54361.60  1863.20  3.43
464.8  55347.38  1901.80  3.44
466.3  56296.35  1935.45  3.44
467.7  57271.18  1966.75  3.43
469.2  58340.88  2004.28  3.44
470.6  59347.20  2041.93  3.44
472.0  60395.83  2083.10  3.45
473.5  61415.50  2118.75  3.45
474.9  62457.75  2156.50  3.45
476.4  63604.80  2200.32  3.46
477.8  64670.00  2236.87  3.46
479.2  65670.50  2275.53  3.47
480.7  66773.18  2314.07  3.47
482.1  67915.00  2354.39  3.47
483.6  69114.35  2394.85  3.47
485.0  70174.80  2445.31  3.48
486.4  71367.75  2492.90  3.49
487.9  72437.63  2544.75  3.51
489.3  73580.83  2593.56  3.52
490.7  74655.75  2642.65  3.54
492.2  75866.70  2702.84  3.56
493.6  76956.45  2767.87  3.60
495.0  78082.88  2835.30  3.63
496.5  79245.00  2917.39  3.68
497.9  80360.30  2997.61  3.73
499.3  81519.63  3087.62  3.79
500.7  82787.15  3189.79  3.85
502.2  83935.40  3301.55  3.93
503.6  85205.60  3428.08  4.02
505.0  86273.85  3572.65  4.14
506.5  87586.20  3741.03  4.27
507.9  88757.28  3927.64  4.43
509.3  90087.60  4142.03  4.60
510.7  91303.88  4377.75  4.79
512.2  92683.43  4653.23  5.02
513.6  94179.05  4970.84  5.28
515.0  95620.45  5327.74  5.57
516.4  97013.70  5724.81  5.90
517.8  98634.88  6177.33  6.26
519.3  99974.73  6656.54  6.66
520.7  101525.30  7197.35  7.09
522.1  102828.05  7747.74  7.53
523.5  104166.60  8332.59  8.00
524.9  105657.30  8941.02  8.46
526.3  107122.75  9553.27  8.92
527.8  108612.90  10169.28  9.36
529.2  109634.20  10759.79  9.81
530.6  111120.50  11398.16  10.26
532.0  112770.00  12019.47  10.66
533.4  114138.60  12583.12  11.02
534.8  115083.95  13069.83  11.36
536.3  116680.50  13603.48  11.66
537.7  118578.60  14152.32  11.93
539.1  119996.20  14625.67  12.19
540.5  121198.90  15054.47  12.42
541.9  122919.23  15538.29  12.64
543.3  124246.05  15958.07  12.84
544.7  125571.00  16376.48  13.04
546.1  127384.95  16849.36  13.23
547.5  128609.60  17233.07  13.40
549.0  130229.00  17654.27  13.56
550.4  131739.38  18031.33  13.69
551.8  133320.18  18378.05  13.78
553.2  134834.20  18665.05  13.84
554.6  136167.20  18868.37  13.86
556.0  137675.70  19031.58  13.82
557.4  139284.25  19146.68  13.75
558.8  140935.95  19224.78  13.64
560.2  142396.88  19226.95  13.50
561.6  144063.08  19207.02  13.33
563.0  145654.88  19139.92  13.14
564.4  147246.35  19042.05  12.93
565.8  148760.63  18895.50  12.70
567.2  150510.75  18733.67  12.45
568.6  151999.88  18494.75  12.17
570.0  153419.53  18189.23  11.86
571.4  155130.95  17890.69  11.53
572.8  156907.00  17584.92  11.21
574.2  158513.60  17273.39  10.90
575.6  160065.00  16978.50  10.61
577.0  161578.70  16705.92  10.34
578.4  163299.50  16484.65  10.09
579.8  164826.90  16266.96  9.87
581.2  166541.10  16093.88  9.66
582.5  167965.20  15915.12  9.48
583.9  169459.80  15767.95  9.30
585.3  171254.93  15666.27  9.15
586.7  172727.10  15560.35  9.01
588.1  174212.00  15473.12  8.88
589.5  175873.25  15421.93  8.77
590.9  177493.60  15387.57  8.67
592.3  179289.30  15389.65  8.58
593.7  180732.83  15379.00  8.51
595.0  182345.85  15396.84  8.44
596.4  183799.35  15417.41  8.39
597.8  185285.83  15433.73  8.33
599.2  186819.60  15447.52  8.27
600.6  188562.08  15464.11  8.20
602.0  189842.93  15417.27  8.12
603.3  191637.65  15383.77  8.03
604.7  193296.13  15305.06  7.92
606.1  194773.20  15176.32  7.79
607.5  196426.05  15033.43  7.65
608.9  198119.05  14861.15  7.50
610.2  199484.78  14647.50  7.34
611.6  201080.03  14441.51  7.18
613.0  202617.90  14230.36  7.02
614.4  203991.00  14010.68  6.87
615.8  205452.00  13811.85  6.72
617.1  206961.30  13639.64  6.59
618.5  208591.20  13497.60  6.47
619.9  210099.23  13376.78  6.37
621.3  211698.23  13298.16  6.28
622.6  213271.25  13241.07  6.21
624.0  214724.10  13204.60  6.15
625.4  216173.93  13198.35  6.11
626.8  217758.45  13219.87  6.07
628.1  219021.28  13248.25  6.05
629.5  220774.00  13319.15  6.03
630.9  222235.20  13373.03  6.02
632.2  223475.88  13403.46  6.00
633.6  224988.25  13405.45  5.96
635.0  226438.00  13372.43  5.91
636.3  227927.50  13286.40  5.83
637.7  229280.50  13142.45  5.73
639.1  230877.50  12973.33  5.62
640.4  232337.88  12751.92  5.49
641.8  233543.15  12491.76  5.35
643.2  235100.08  12225.76  5.20
644.5  236465.25  11937.93  5.05
645.9  238023.45  11665.32  4.90
647.2  239066.98  11396.68  4.77
648.6  240610.50  11196.90  4.65
650.0  241963.20  11027.52  4.56
651.3  242949.30  10867.74  4.47
652.7  245021.50  10768.96  4.40
654.0  247045.20  10671.40  4.32
655.4  248452.48  10531.16  4.24
656.8  248723.90  10326.99  4.15
658.1  250154.00  10154.47  4.06
659.5  252343.35  9987.18  3.96
660.8  253665.00  9774.00  3.85
662.2  254665.60  9542.40  3.75
663.5  256209.05  9335.49  3.64
664.9  257244.00  9140.56  3.55
666.2  258052.80  8965.84  3.47
667.6  259773.70  8858.56  3.41
668.9  260681.83  8763.73  3.36
670.3  262481.13  8711.33  3.32
671.6  263530.88  8673.00  3.29
673.0  264703.50  8675.95  3.28
674.3  265929.30  8695.61  3.27
675.7  267239.95  8747.59  3.27
677.0  268286.53  8812.94  3.28
678.4  269563.98  8912.78  3.31
679.7  270599.15  9033.19  3.34
681.1  271831.55  9203.80  3.39
682.4  272890.80  9417.55  3.45
683.8  274062.10  9706.32  3.54
685.1  275035.88  10086.05  3.67
686.4  276345.60  10602.72  3.84
687.8  277546.50  11300.03  4.07
689.1  278592.25  12246.40  4.40
690.5  279911.40  13532.18  4.83
691.8  280712.75  15220.07  5.42
693.1  282037.80  17464.66  6.19
694.5  283192.00  20256.60  7.15
695.8  284397.75  23617.53  8.30
697.1  285512.50  27494.13  9.63
698.5  286542.10  31843.56  11.11
699.8  287587.03  36594.43  12.72
701.1  288720.78  41661.53  14.43
702.5  289496.90  46867.92  16.19
703.8  290407.50  52194.00  17.97
705.1  291525.00  57581.42  19.75
706.5  292530.75  62906.57  21.50
707.8  293477.85  68164.52  23.23
709.1  294265.83  73294.46  24.91
710.5  295359.75  78408.38  26.55
711.8  296166.30  83348.48  28.14
713.1  297125.20  88221.77  29.69
714.4  298017.20  92964.24  31.19
715.8  298820.00  97569.93  32.65
717.1  300093.45  102205.06  34.06
718.4  301033.60  106597.12  35.41
719.7  302108.95  110882.66  36.70
721.0  302580.00  114813.00  37.94
722.4  303320.05  118664.11  39.12
723.7  304234.80  122421.74  40.24
725.0  305242.20  126035.88  41.29
726.3  306151.73  129429.92  42.28
727.6  306676.70  132479.34  43.20
729.0  307561.80  135483.69  44.05
730.3  308327.78  138272.80  44.85
731.6  309191.40  140918.68  45.58
732.9  309929.90  143352.28  46.25
734.2  310723.88  145629.37  46.87
735.5  311706.25  147856.19  47.43
736.8  312484.50  149821.92  47.95
738.1  313305.10  151672.59  48.41
739.5  314202.48  153446.78  48.84
740.8  314846.40  154969.17  49.22
742.1  315509.63  156389.71  49.57
743.4  316125.00  157700.00  49.89
744.7  317003.60  159045.58  50.17
746.0  317838.30  160282.98  50.43
747.3  318424.38  161300.98  50.66
748.6  319145.50  162321.13  50.86
749.9  319774.00  163217.60  51.04
751.2  320363.65  164023.26  51.20
752.5  321095.85  164867.03  51.35
753.8  321556.90  165538.01  51.48
755.1  322166.00  166226.67  51.60
756.4  322713.40  166835.69  51.70
757.7  323668.98  167617.05  51.79
759.0  325399.80  168759.62  51.86
760.3  326541.60  169547.84  51.92
761.6  328031.20  170516.64  51.98
762.9  328490.00  170925.37  52.03
764.2  328798.70  171231.05  52.08
765.5  329002.35  171464.62  52.12
766.8  329364.80  171758.93  52.15
768.1  329841.20  172072.00  52.17
769.3  330362.20  172425.40  52.19
770.6  330955.95  172809.26  52.22
771.9  331591.58  173204.87  52.23
773.2  331882.40  173417.97  52.25
774.5  332417.80  173739.28  52.27
775.8  333015.55  174080.90  52.27
777.1  333505.15  174367.53  52.28
778.4  333767.78  174525.56  52.29
779.6  334435.98  174909.83  52.30
780.9  334830.00  175152.00  52.31
782.2  335200.25  175381.43  52.32
783.5  335439.00  175525.47  52.33
784.8  335869.20  175768.26  52.33
786.0  336170.80  175931.05  52.33
787.3  336467.75  176096.33  52.34
788.6  336803.98  176297.77  52.34
789.9  337198.40  176511.81  52.35
791.2  337737.60  176821.44  52.35
792.4  338323.50  177141.70  52.36
793.7  338709.40  177354.00  52.36
795.0  339230.93  177635.37  52.36
796.2  339820.03  177924.37  52.36
797.5  340374.45  178255.00  52.37
798.8  340978.00  178557.87  52.37
800.0  341552.45  178869.69  52.37
801.3  341903.10  179070.44  52.37
802.6  342434.48  179350.53  52.38
803.8  342976.55  179649.43  52.38
805.1  343365.75  179852.52  52.38
806.4  343738.20  180050.44  52.38
807.7  344197.35  180293.85  52.38
808.9  344707.50  180556.62  52.38
810.2  345113.30  180785.69  52.38
811.4  345541.70  181006.05  52.38
812.7  346084.38  181301.25  52.39
814.0  346853.35  181696.45  52.38
815.2  347401.75  182007.73  52.39
816.5  347796.43  182216.52  52.39
817.7  348241.95  182426.73  52.39
819.0  348642.80  182669.59  52.39
820.2  348744.00  182734.93  52.40
821.5  349386.25  183070.95  52.40
822.7  349704.10  183261.13  52.40
824.0  349987.50  183410.28  52.40
825.2  350476.88  183642.12  52.40
826.5  350733.23  183786.29  52.40
827.7  351254.85  184063.82  52.40
829.0  351599.60  184251.96  52.40
830.2  351886.20  184428.72  52.41
831.5  352353.90  184665.67  52.41
832.7  352655.63  184823.80  52.41
834.0  353023.13  184989.29  52.40
835.2  353388.20  185161.13  52.40
836.4  353657.15  185330.79  52.40
837.7  354034.40  185559.12  52.41
838.9  354462.70  185808.36  52.42
840.1  354862.35  186010.47  52.42
841.4  355226.70  186222.32  52.42
842.6  355643.40  186439.68  52.42
843.8  356053.60  186637.09  52.42
845.1  356574.80  186912.93  52.42
846.3  356933.90  187111.33  52.42
847.5  357300.30  187360.88  52.44
848.8  357698.40  187600.08  52.45
850.0  358107.40  187791.29  52.44
851.2  358682.85  188074.26  52.43
852.5  359051.20  188287.55  52.44
853.7  359592.75  188555.10  52.44
854.9  360046.70  188825.67  52.44
856.1  360525.75  189048.95  52.44
857.4  360761.18  189168.45  52.44
858.6  361236.30  189419.08  52.44
859.8  361651.88  189615.75  52.43
861.0  362091.60  189858.24  52.43
862.2  362624.65  190120.89  52.43
863.5  363003.55  190326.67  52.43
864.7  363508.20  190589.52  52.43
865.9  363843.80  190781.28  52.43
867.1  364150.65  190951.08  52.44
868.3  364594.35  191186.86  52.44
869.5  365162.55  191424.76  52.42
870.8  365746.50  191688.60  52.41
872.0  366211.20  191930.96  52.41
873.2  366679.80  192155.22  52.40
874.4  367075.80  192372.57  52.41
875.6  367443.65  192566.21  52.41
876.8  367925.30  192807.27  52.40
878.0  368404.80  193064.15  52.41
879.2  369032.25  193268.76  52.37
880.4  369538.88  193519.40  52.37
881.6  370015.63  193733.13  52.36
882.8  370391.20  193935.36  52.36
884.0  370887.30  194181.95  52.36
885.2  371497.20  194413.36  52.33
886.5  372014.95  194688.12  52.33
887.7  372523.45  194898.12  52.32
888.8  373040.93  195206.80  52.33
890.0  373590.45  195426.97  52.31
891.2  374237.80  195720.56  52.30
892.4  374778.60  195966.89  52.29
893.6  375283.25  196219.99  52.29
894.8  376142.00  196633.90  52.28
896.0  376951.50  197004.63  52.26
897.2  377711.75  197362.53  52.25
898.4  378510.00  197684.52  52.23
899.6  378936.00  197902.65  52.23
900.8  379213.73  198072.49  52.23
902.0  379351.65  198128.44  52.23
903.2  379620.45  198210.06  52.21
904.3  380065.20  198312.12  52.18
905.5  380593.88  198572.01  52.17
906.7  381133.00  198806.60  52.16
907.9  381491.95  199040.61  52.17
909.1  381737.48  199093.59  52.15
910.2  381802.20  199111.90  52.15
911.4  382081.05  199139.46  52.12
912.6  382153.20  199196.14  52.12
913.8  382367.18  199263.04  52.11
915.0  382596.90  199420.20  52.12
916.2  382658.25  199352.40  52.10
917.3  382727.03  199256.16  52.06
918.5  382754.20  199243.81  52.06
919.7  382942.05  199289.48  52.04
920.8  382845.95  199271.45  52.05
922.0  382959.50  199250.33  52.03
923.2  383019.00  199271.80  52.03
924.4  383160.38  199241.55  52.00
925.5  383439.90  199244.71  51.96
926.7  383843.00  199457.88  51.96
927.9  384636.00  199798.64  51.94
929.0  385974.45  200457.54  51.94
930.2  388008.50  201494.24  51.93
931.4  390417.30  202563.45  51.88
932.5  392940.50  203828.10  51.87
933.7  394170.05  204360.87  51.85
934.9  394651.25  204566.83  51.83
936.0  394228.25  204171.50  51.79
937.2  392116.50  202907.88  51.75
938.3  390295.25  201894.91  51.73
939.5  388652.40  201009.60  51.72
940.7  388665.90  200939.64  51.70
941.8  389969.78  201481.46  51.67
943.0  391302.75  202002.80  51.62
944.2  391966.90  202254.43  51.60
945.3  391803.75  201823.70  51.51
946.5  390687.30  201285.90  51.52
947.6  390744.30  201124.93  51.47
948.8  390378.30  200802.94  51.44
949.9  390457.20  200558.40  51.37
951.1  390021.13  200123.95  51.31
952.2  389844.00  199729.60  51.23
953.4  389422.75  199346.87  51.19
954.5  388978.20  199002.96  51.16
955.7  388773.00  198606.24  51.09
956.8  388515.70  198259.95  51.03
958.0  388068.00  197755.20  50.96
959.1  387795.55  197373.94  50.90
960.3  387277.90  196919.93  50.85
961.4  387007.50  196709.27  50.83
962.6  387196.25  196563.03  50.77
963.7  386877.53  196227.29  50.72
964.9  386578.50  196000.32  50.70
966.0  386276.85  195761.61  50.68
967.2  386187.30  195541.44  50.63
968.3  385859.70  195299.64  50.61
969.5  385533.93  195217.90  50.64
970.6  385736.60  195216.60  50.61
971.8  385659.40  195265.02  50.63
972.9  385597.88  194953.29  50.56
974.0  385865.60  194975.11  50.53
975.2  385812.38  194759.63  50.48
976.3  385414.38  194750.78  50.53
977.5  385738.50  194734.91  50.48
978.6  385296.30  194822.03  50.56
979.7  385650.30  194693.94  50.48
980.9  385089.95  194559.11  50.52
982.0  384919.90  194283.76  50.47
983.2  384726.53  194083.38  50.45
984.3  383922.80  193955.33  50.52
985.4  383595.23  193861.20  50.54
986.6  383828.13  193735.97  50.47
987.7  384812.75  193928.23  50.40
988.9  384685.20  193583.52  50.32
990.0  384953.30  193762.25  50.33
993.1  387713.84  194001.19  50.04
996.9  386486.88  193848.11  50.16
1000.7  386484.53  194261.70  50.26
1004.5  386556.92  194657.26  50.36
1008.4  386206.29  194832.20  50.45
1012.2  386026.08  195106.48  50.54
1016.0  385702.80  195270.13  50.63
1019.8  385088.55  195261.73  50.71
1023.7  383931.73  194952.71  50.78
1027.5  382265.15  194344.13  50.84
1031.3  381213.45  194020.15  50.90
1035.1  380137.22  193647.61  50.94
1038.9  379623.20  193523.53  50.98
1042.7  379275.00  193462.67  51.01
1046.5  379116.33  193471.78  51.03
1050.3  379076.76  193531.18  51.05
1054.2  378729.17  193394.06  51.06
1058.0  378315.47  193209.96  51.07
1061.8  378224.91  193186.32  51.08
1065.6  377639.13  192874.07  51.07
1069.4  376815.80  192426.08  51.07
1073.2  375474.50  191724.65  51.06
1077.0  374772.05  191252.58  51.03
1080.8  374885.42  191185.19  51.00
1084.6  374928.40  191063.34  50.96
1088.4  375170.31  191054.25  50.92
1092.2  374692.50  190645.00  50.88
1096.0  374002.63  190139.27  50.84
1099.8  373269.22  189575.44  50.79
1103.6  372341.50  188900.82  50.73
1107.4  371156.68  188078.13  50.67
1111.2  370847.60  187682.89  50.61
1114.9  370289.50  187109.61  50.53
1118.7  369987.75  186612.25  50.44
1122.5  369577.87  185965.10  50.32
1126.3  368604.78  184931.82  50.17
1130.1  368216.53  183985.11  49.97
1133.9  366536.80  182163.33  49.70
1137.7  364965.70  180162.71  49.36
1141.4  362899.44  177690.12  48.96
1145.2  361942.57  175647.78  48.53
1149.0  360619.58  173475.56  48.10
1152.8  358798.25  171244.43  47.73
1156.6  356947.62  169279.94  47.42
1160.3  355120.67  167608.00  47.20
1164.1  352740.40  165922.94  47.04
1167.9  351085.42  164732.18  46.92
1171.7  349768.13  163815.75  46.84
1175.4  348336.50  162898.12  46.76
1179.2  346947.68  161991.69  46.69
1183.0  346574.67  161553.93  46.61
1186.7  346524.27  161274.56  46.54
1190.5  346138.20  160850.22  46.47
1194.3  345200.57  160209.63  46.41
1198.0  343721.68  159379.37  46.37
1201.8  342019.60  158555.98  46.36
1205.6  340918.33  158159.70  46.39
1209.3  340311.62  158079.67  46.45
1213.1  339777.30  158102.27  46.53
1216.8  339099.38  158118.56  46.63
1220.6  337978.67  157910.46  46.72
1224.3  336737.25  157627.39  46.81
1228.1  335193.20  157260.71  46.92
1231.9  333603.38  156770.23  46.99
1235.6  331828.28  156172.20  47.06
1239.4  330258.50  155638.78  47.13
1243.1  328879.78  155139.84  47.17
1246.9  327595.53  154649.38  47.21
1250.6  326530.13  154222.68  47.23
1254.3  325332.06  153724.86  47.25
1258.1  324093.82  153174.96  47.26
1261.8  322661.73  152499.53  47.26
1265.6  321482.98  151904.49  47.25
1269.3  320694.90  151441.14  47.22
1273.1  321022.48  151493.84  47.19
1276.8  320784.00  151240.80  47.15
1280.6  319624.63  150529.69  47.10
1284.3  317618.80  149363.91  47.03
1288.0  316355.18  148470.49  46.93
1291.8  315900.42  147889.40  46.82
1295.5  315164.67  147118.07  46.68
1299.2  313998.68  146102.13  46.53
1302.9  312369.58  144789.84  46.35
1306.7  310550.57  143305.04  46.15
1310.4  308860.04  141749.82  45.89
1314.1  307285.37  140155.64  45.61
1317.9  305854.79  138507.36  45.29
1321.6  304304.28  136694.62  44.92
1325.3  302627.33  134704.03  44.51
1329.0  301310.92  132795.19  44.07
1332.8  299391.40  130530.40  43.60
1336.5  297715.27  128341.78  43.11
1340.2  297554.83  126813.56  42.62
1343.9  297520.63  125350.46  42.13
1347.6  297752.40  124015.43  41.65
1351.4  299274.00  123252.56  41.18
1355.1  301379.83  122727.73  40.72
1358.8  303136.00  121969.78  40.24
1362.5  303410.65  120485.78  39.71
1366.2  301423.60  117833.99  39.09
1369.9  298227.75  114384.67  38.35
1373.6  295347.09  110552.94  37.43
1377.3  293832.00  106512.33  36.25
1381.0  293311.83  101947.00  34.76
1384.8  291362.50  95900.28  32.91
1388.4  288115.57  88821.16  30.83
1392.2  285849.08  81646.15  28.56
1395.9  284363.63  74605.28  26.24
1399.6  282518.22  67837.11  24.01
1403.3  281049.88  61821.69  22.00
1407.0  279350.10  56572.33  20.25
1410.7  277525.88  52215.17  18.81
1414.3  275597.70  48701.27  17.67
1418.1  273889.04  46010.93  16.80
1421.7  272483.34  43962.40  16.13
1425.4  271115.98  42416.98  15.65
1429.1  269877.38  41276.75  15.29
1432.8  268212.86  40383.53  15.06
1436.5  267401.97  39856.75  14.91
1440.2  266765.97  39542.79  14.82
1443.9  265666.59  39293.75  14.79
1447.6  264094.60  39088.62  14.80
1451.2  262867.92  39002.01  14.84
1454.9  261443.55  38969.17  14.91
1458.6  260165.24  39074.00  15.02
1462.3  258949.17  39337.22  15.19
1466.0  257586.18  39748.93  15.43
1469.7  255870.33  40286.88  15.75
1473.3  254821.83  41081.74  16.12
1477.0  252775.80  41838.89  16.55
1480.7  251094.81  42731.18  17.02
1484.4  249060.46  43596.02  17.50
1488.0  247500.00  44576.89  18.01
1491.7  245898.77  45558.43  18.53
1495.4  244216.04  46528.44  19.05
1499.0  242672.00  47505.22  19.58
1502.7  241407.08  48520.09  20.10
1506.4  239999.54  49485.20  20.62
1510.0  238544.13  50404.65  21.13
1513.7  237027.29  51278.50  21.63
1517.4  235640.00  52135.11  22.12
1521.0  234372.80  52989.57  22.61
1524.7  233135.50  53779.56  23.07
1528.3  231819.50  54522.50  23.52
1532.0  230581.63  55227.53  23.95
1535.7  229189.88  55834.51  24.36
1539.3  227920.85  56441.41  24.76
1543.0  226920.99  57076.18  25.15
1546.6  226234.67  57747.93  25.53
1550.3  225249.60  58301.25  25.88
1553.9  224168.47  58793.43  26.23
1557.6  222905.47  59194.99  26.56
1561.2  221637.60  59547.90  26.87
1564.9  220333.64  59861.84  27.17
1568.5  218995.70  60139.51  27.46
1572.2  217845.25  60433.73  27.74
1575.8  216734.00  60725.78  28.02
1579.5  215699.90  61001.55  28.28
1583.1  214619.49  61255.39  28.54
1586.8  213304.00  61404.00  28.79
1590.4  212085.77  61575.15  29.03
1594.0  210760.44  61683.29  29.27
1597.7  209918.83  61919.52  29.50
1601.3  209010.38  62111.70  29.72
1604.9  208021.18  62263.25  29.93
1608.6  206659.68  62269.34  30.13
1612.2  205297.95  62249.18  30.32
1615.8  203853.33  62176.33  30.50
1619.5  202598.83  62127.09  30.67
1623.1  201259.67  62027.52  30.82
1626.7  200052.13  61937.20  30.96
1630.3  198855.25  61820.93  31.09
1634.0  197736.00  61696.44  31.20
1637.6  196708.27  61561.98  31.30
1641.2  195674.35  61351.67  31.35
1644.8  194455.16  61032.65  31.39
1648.5  193365.85  60697.51  31.39
1652.1  192394.50  60363.67  31.37
1655.7  191458.60  60024.98  31.35
1659.3  190613.64  59732.44  31.34
1662.9  189181.67  59289.08  31.34
1666.6  187733.73  58851.81  31.35
1670.2  186315.09  58398.31  31.34
1673.8  184843.91  57888.19  31.32
1677.4  183647.55  57408.30  31.26
1681.0  182834.25  56963.09  31.16
1684.6  182407.33  56549.28  31.00
1688.2  181700.15  55942.81  30.79
1691.8  181027.48  55325.34  30.56
1695.4  180581.40  54764.67  30.33
1699.0  180208.23  54251.14  30.10
1702.6  179854.67  53702.22  29.86
1706.2  179225.26  53025.87  29.59
1709.8  178267.93  52262.79  29.32
1713.4  177535.08  51651.82  29.09
1717.0  176646.00  51103.83  28.93
1720.6  175792.95  50645.42  28.81
1724.2  175085.18  50244.18  28.70
1727.8  174339.20  49862.32  28.60
1731.4  173892.13  49562.94  28.50
1735.0  173713.47  49318.91  28.39
1738.6  173534.40  49017.70  28.25
1742.2  172979.95  48530.75  28.06
1745.8  172350.28  47984.22  27.84
1749.4  171406.13  47328.05  27.61
1753.0  169903.60  46541.32  27.39
1756.6  168248.50  45742.93  27.19
1760.1  166900.68  45077.56  27.01
1763.7  165170.67  44337.19  26.84
1767.3  163707.90  43690.51  26.69
1770.9  162444.80  43102.39  26.53
1774.5  160981.50  42487.13  26.39
1778.0  159801.14  42013.40  26.29
1781.6  158726.55  41638.93  26.23
1785.2  157567.18  41325.43  26.23
1788.8  156405.80  41051.87  26.25
1792.3  155166.73  40771.17  26.28
1795.9  154637.82  40694.89  26.32
1799.5  154426.33  40705.48  26.36
1803.1  155368.38  41008.83  26.39
1806.6  157442.48  41603.54  26.42
1810.2  159199.83  42105.36  26.45
1813.8  160025.50  42357.30  26.47
1817.3  159553.80  42257.64  26.48
1820.9  158344.40  41935.44  26.48
1824.5  156952.30  41549.44  26.47
1828.0  155831.50  41192.35  26.43
1831.6  155361.68  40973.34  26.37
1835.2  155110.83  40746.48  26.27
1838.7  154881.73  40441.42  26.11
1842.3  154665.00  40036.67  25.89
1845.8  153451.88  39245.21  25.57
1849.4  152831.10  38457.09  25.16
1852.9  151965.51  37420.08  24.62
1856.5  150932.58  36101.33  23.92
1860.0  149888.04  34525.53  23.03
1863.6  149858.21  32906.12  21.96
1867.1  150508.40  31106.29  20.67
1870.7  151367.48  28943.75  19.12
1874.2  150367.50  26071.90  17.34
1877.8  147733.33  22820.70  15.45
1881.3  144809.38  19527.28  13.48
1884.9  142934.92  16595.15  11.61
1888.4  141385.06  13916.83  9.84
1891.9  139775.87  11670.30  8.35
1895.5  138368.33  9900.02  7.15
1899.0  137708.00  8639.92  6.27
1901.3  175724.00  7297.06  4.15
1904.1  175569.00  6482.25  3.69
1906.8  174473.40  5828.00  3.34
1909.6  172210.50  5293.05  3.07
1912.4  170133.25  4887.48  2.87
1915.1  168640.45  4599.10  2.73
1917.9  167108.17  4413.28  2.64
1920.6  165823.87  4273.14  2.58
1923.3  164473.87  4152.71  2.52
1926.1  162780.63  4052.52  2.49
1928.8  161216.00  3984.44  2.47
1931.6  160010.82  3969.99  2.48
1934.3  158916.00  3972.90  2.50
1937.0  157883.40  4000.30  2.53
1939.8  156687.75  4027.14  2.57
1942.5  155144.00  4059.00  2.62
1945.2  153155.20  4099.88  2.68
1947.9  151513.37  4157.15  2.74
1950.7  150211.33  4238.73  2.82
1953.4  148311.50  4319.78  2.91
1956.1  146843.50  4419.56  3.01
1958.8  145544.97  4524.80  3.11
1961.5  144016.80  4639.87  3.22
1964.2  142433.20  4759.30  3.34
1966.9  140818.00  4883.98  3.47
1969.6  139536.00  5034.00  3.61
1972.3  138128.00  5176.83  3.75
1975.0  137068.80  5339.50  3.90
1977.7  135935.37  5516.30  4.06
1980.4  134769.97  5689.57  4.22
1983.1  133643.93  5872.13  4.39
1985.8  132709.80  6061.00  4.57
1988.4  131672.67  6248.67  4.75
1991.1  130743.20  6449.10  4.93
1993.8  129853.17  6654.94  5.12
1996.5  129206.92  6873.23  5.32
1999.1  128508.97  7094.39  5.52
2001.8  127807.87  7309.56  5.72
2004.5  127120.40  7525.50  5.92
2007.1  126385.15  7724.45  6.11
2009.8  125615.00  7928.28  6.31
2012.4  125027.83  8145.62  6.52
2015.1  124458.13  8354.19  6.71
2017.8  123655.23  8535.49  6.90
2020.4  123158.02  8731.56  7.09
2023.1  122791.90  8935.50  7.28
2025.7  122538.00  9140.44  7.46
2028.3  122182.67  9310.89  7.62
2031.0  121775.07  9487.99  7.79
2033.6  121504.20  9659.90  7.95
2036.2  121243.20  9831.00  8.11
2038.9  120634.20  9958.60  8.26
2041.5  120281.28  10099.71  8.40
2044.1  119712.00  10205.10  8.52
2046.8  119337.90  10329.80  8.66
2049.4  118702.80  10419.70  8.78
2052.0  118406.53  10546.96  8.91
2054.6  118002.50  10657.50  9.03
2057.2  117428.40  10744.91  9.15
2059.8  117096.53  10852.62  9.27
2062.4  116201.88  10916.17  9.39
2065.0  115681.73  11009.82  9.52
2067.6  114763.63  11061.45  9.64
2070.2  114153.47  11136.99  9.76
2072.8  113508.43  11206.73  9.87
2075.4  113058.75  11293.33  9.99
2078.0  112409.10  11356.85  10.10
2080.6  111848.00  11437.07  10.23
2083.2  111152.57  11487.26  10.33
2085.8  110652.43  11550.08  10.44
2088.4  109966.17  11601.11  10.55
2090.9  109159.15  11640.94  10.66
2093.5  108259.57  11659.67  10.77
2096.1  107490.43  11687.69  10.87
2098.7  106708.72  11711.11  10.97
2101.2  105734.47  11720.13  11.08
2103.8  105053.27  11749.24  11.18
2106.4  104389.53  11781.26  11.29
2108.9  103717.07  11810.38  11.39
2111.5  102843.73  11816.20  11.49
2114.0  102206.20  11836.58  11.58
2116.6  101683.75  11876.67  11.68
2119.1  101114.73  11896.37  11.77
2121.7  100625.00  11929.17  11.86
2124.2  100211.77  11969.42  11.94
2126.8  99409.77  11957.04  12.03
2129.3  99000.00  11991.47  12.11
2131.9  98401.60  11997.33  12.19
2134.4  97951.80  12033.05  12.28
2136.9  97565.65  12066.53  12.37
2139.4  97045.67  12085.27  12.45
2142.0  96584.60  12105.96  12.53
2144.5  96289.10  12163.33  12.63
2147.0  96051.20  12211.87  12.71
2149.5  95559.87  12223.78  12.79
2152.1  95394.02  12289.20  12.88
2154.6  95336.00  12360.89  12.97
2157.1  94784.58  12362.42  13.04
2159.6  94375.83  12383.61  13.12
2162.1  94212.30  12433.63  13.20
2164.6  93963.73  12473.09  13.27
2167.1  93633.27  12501.58  13.35
2169.6  93300.32  12525.45  13.42
2172.1  92841.17  12523.48  13.49
2174.6  92518.40  12550.16  13.57
2177.1  92062.82  12554.16  13.64
2179.5  91648.05  12568.18  13.71
2182.0  91162.50  12566.40  13.78
2184.5  90614.85  12564.29  13.87
2187.0  89994.00  12555.76  13.95
2189.5  89295.07  12530.65  14.03
2191.9  88492.50  12495.67  14.12
2194.4  87860.00  12472.30  14.20
2196.9  87110.40  12416.00  14.25
2199.3  86439.33  12379.78  14.32
2201.8  85526.80  12299.69  14.38
2204.3  85061.42  12293.74  14.45
2206.7  84394.80  12243.55  14.51
2209.2  83919.38  12222.39  14.56
2211.6  83288.70  12163.80  14.60
2214.1  83002.90  12158.90  14.65
2216.5  82416.87  12102.11  14.68
2219.0  82079.13  12078.94  14.72
2221.4  81703.42  12042.14  14.74
2223.9  81227.42  11966.11  14.73
2226.3  80701.83  11873.55  14.71
2228.7  80143.95  11774.34  14.69
2231.1  79536.60  11649.00  14.65
2233.6  78930.27  11509.42  14.58
2236.0  78351.58  11361.19  14.50
2238.4  77865.67  11205.83  14.39
2240.9  77390.60  11045.87  14.27
2243.3  76844.27  10863.76  14.14
2245.7  76256.80  10673.03  14.00
2248.1  75776.57  10471.64  13.82
2250.5  75254.37  10252.88  13.62
2252.9  74610.47  10016.50  13.43
2255.3  74037.95  9804.07  13.24
2257.7  73570.00  9590.00  13.04
2260.1  73062.73  9367.79  12.82
2262.5  72440.00  9143.33  12.62
2264.9  71909.95  8938.41  12.43
2267.3  71310.00  8726.67  12.24
2269.7  70805.23  8541.71  12.06
2272.1  70226.85  8367.25  11.91
2274.5  69643.73  8186.34  11.75
2276.8  69155.07  8016.67  11.59
2279.2  68581.20  7849.05  11.44
2281.6  68151.33  7690.93  11.29
2284.0  67680.10  7548.07  11.15
2286.3  67214.40  7400.71  11.01
2288.7  66792.48  7260.72  10.87
2291.1  66240.37  7101.93  10.72
2293.4  65768.27  6953.96  10.57
2295.8  65137.20  6791.13  10.43
2298.2  64552.95  6637.80  10.28
2300.5  63880.20  6486.00  10.15
2302.9  63116.00  6320.56  10.01
2305.2  62366.50  6162.83  9.88
2307.6  61693.67  6042.13  9.79
2309.9  60904.67  5917.55  9.72
2312.2  60305.33  5828.00  9.66
2314.6  59688.45  5727.00  9.59
2316.9  58995.00  5623.50  9.53
2319.2  58416.17  5542.71  9.49
2321.6  57793.63  5433.95  9.40
2323.9  57239.58  5333.33  9.32
2326.2  56705.17  5237.53  9.24
2328.6  56179.20  5148.37  9.16
2330.9  55660.50  5057.50  9.09
2333.2  55192.08  4974.17  9.01
2335.5  54741.20  4886.33  8.93
2337.8  54261.73  4809.37  8.86
2340.1  53679.43  4715.91  8.79
2342.4  53245.83  4633.06  8.70
2344.8  52803.92  4548.61  8.61
2347.1  52245.20  4459.78  8.54
2349.4  51690.20  4377.29  8.47
2351.6  51095.30  4285.49  8.39
2353.9  50598.87  4200.02  8.30
2356.2  50058.35  4116.87  8.22
2358.5  49481.60  4032.00  8.15
2360.8  48899.20  3957.33  8.09
2363.1  48456.00  3888.44  8.02
2365.4  47968.50  3815.63  7.95
2367.7  47492.40  3727.80  7.85
2369.9  46967.90  3652.55  7.78
2372.2  46348.27  3577.60  7.72
2374.5  45749.55  3503.50  7.66
2376.7  45119.13  3403.68  7.54
2379.0  44497.50  3319.38  7.46
2381.3  43855.00  3231.67  7.37
2383.5  43331.20  3160.18  7.29
2385.8  42736.53  3075.02  7.20
2388.0  42208.60  2993.27  7.09
2390.3  41687.60  2919.20  7.00
2392.5  41172.00  2832.00  6.88
2394.8  40704.40  2766.87  6.80
2397.0  40234.13  2693.60  6.69
2399.3  39766.40  2619.42  6.59
2401.5  39322.50  2543.92  6.47
2403.8  38797.50  2471.54  6.37
2406.0  38280.58  2404.70  6.28
2408.2  37861.27  2335.42  6.17
2410.4  37437.52  2271.97  6.07
2412.7  37008.83  2215.92  5.99
2414.9  36659.70  2154.72  5.88
2417.1  36258.50  2108.20  5.81
2419.3  35840.00  2043.73  5.70
2421.6  35456.25  1976.25  5.57
2423.8  35087.80  1919.07  5.47
2426.0  34717.43  1873.93  5.40
2428.2  34339.20  1824.98  5.31
2430.4  34022.90  1764.44  5.19
2432.6  33773.33  1711.11  5.07
2434.8  33443.40  1661.92  4.97
2437.0  33086.30  1616.48  4.89
2439.2  32737.37  1563.43  4.78
2441.4  32406.43  1522.39  4.70
2443.6  32165.20  1478.38  4.60
2445.7  31903.90  1434.61  4.50
2447.9  31646.50  1387.03  4.38
2450.1  31317.45  1358.17  4.34
2452.3  30943.73  1317.55  4.26
2454.5  30579.27  1271.77  4.16
2456.6  30202.53  1226.94  4.06
2458.8  29829.80  1186.90  3.98
2461.0  29525.33  1158.14  3.92
2463.1  29230.95  1130.05  3.87
2465.3  28930.10  1097.50  3.79
2467.5  28688.75  1062.00  3.70
2469.6  28475.92  1034.22  3.63
2471.8  28186.28  1006.12  3.57
2473.9  27843.83  985.45  3.54
2476.1  27482.00  960.56  3.50
2478.2  27130.57  949.54  3.50
2480.4  26831.80  921.00  3.43
2482.5  26491.98  887.71  3.35
2484.6  26148.83  862.28  3.30
2486.8  25905.00  853.03  3.29
2488.9  25600.57  841.78  3.29
2491.1  25243.87  809.20  3.21
2493.2  24828.17  782.37  3.15
2495.3  24434.80  769.60  3.15
2497.4  24101.70  756.70  3.14
2499.5  23773.32  749.83  3.15
2501.7  23631.13  744.98  3.15
2503.8  23553.78  729.96  3.10
2505.9  23489.58  723.20  3.08
2508.0  23489.85  718.18  3.06
2510.1  23498.70  721.29  3.07
2512.2  23616.45  721.77  3.06
2514.3  23824.08  721.36  3.03
2516.4  24053.70  742.03  3.08
