/*** Spectra Vista SIG Data ***/
name= 19_20220926_QUPH_06_avg.sig
comm= Averaged Ref/Tar of files: HR.092622.0054_moc.sig,HR.092622.0055_moc.sig
data=
337.3  3076.75  236.78  7.70
338.8  3238.73  246.00  7.60
340.3  3373.20  239.61  7.10
341.8  3536.07  256.06  7.24
343.2  3759.20  254.99  6.78
344.7  3895.37  247.37  6.35
346.2  4085.00  228.76  5.60
347.7  4247.10  220.22  5.19
349.2  4435.20  226.80  5.11
350.6  4676.32  230.85  4.94
352.1  4930.05  229.66  4.66
353.6  5205.00  244.89  4.70
355.1  5455.35  239.58  4.39
356.6  5768.40  242.54  4.20
358.0  6039.73  251.56  4.17
359.5  6303.60  263.09  4.17
361.0  6623.40  250.52  3.78
362.5  6967.45  255.11  3.66
364.0  7321.68  263.81  3.60
365.4  7680.67  285.82  3.72
366.9  8048.08  290.46  3.61
368.4  8382.52  300.03  3.58
369.9  8738.08  306.54  3.51
371.3  9167.00  321.17  3.50
372.8  9593.40  341.36  3.56
374.3  10015.42  341.70  3.41
375.8  10438.63  350.35  3.36
377.2  10867.60  361.23  3.32
378.7  11280.07  366.61  3.25
380.2  11692.53  375.83  3.21
381.7  12197.28  381.44  3.13
383.1  12684.47  381.92  3.01
384.6  13181.78  395.38  3.00
386.1  13656.63  403.83  2.96
387.6  14139.77  421.19  2.98
389.0  14650.67  435.69  2.97
390.5  15133.50  453.63  3.00
392.0  15693.67  460.99  2.94
393.4  16272.98  470.70  2.89
394.9  16825.80  481.73  2.86
396.4  17388.00  502.72  2.89
397.9  17937.50  513.97  2.87
399.3  18504.13  530.38  2.87
400.8  19075.93  546.22  2.86
402.2  19721.83  566.76  2.87
403.7  20319.30  574.36  2.83
405.2  20928.70  589.17  2.82
406.6  21529.60  604.53  2.81
408.1  22117.87  621.83  2.81
409.6  22725.57  640.32  2.82
411.0  23413.83  661.24  2.82
412.5  24073.70  682.47  2.83
414.0  24748.83  701.48  2.83
415.4  25453.25  724.02  2.84
416.9  26136.90  743.47  2.84
418.4  26854.65  766.74  2.86
419.8  27579.07  787.28  2.85
421.3  28306.10  815.37  2.88
422.7  29081.20  841.67  2.89
424.2  29857.50  868.82  2.91
425.7  30633.13  892.31  2.91
427.1  31407.35  913.33  2.91
428.6  32229.67  941.52  2.92
430.0  32980.33  964.70  2.93
431.5  33859.85  994.01  2.94
432.9  34730.27  1021.32  2.94
434.4  35640.60  1053.09  2.95
435.9  36493.33  1077.60  2.95
437.3  37354.17  1103.93  2.96
438.8  38236.25  1127.50  2.95
440.2  39104.45  1160.01  2.97
441.7  40066.00  1191.45  2.97
443.1  40986.67  1222.03  2.98
444.6  41972.40  1255.36  2.99
446.0  42921.30  1286.38  3.00
447.5  43910.53  1319.83  3.01
448.9  44857.60  1356.35  3.02
450.4  45877.53  1394.53  3.04
451.8  46756.67  1430.37  3.06
453.3  47697.60  1459.55  3.06
454.7  48721.15  1496.31  3.07
456.2  49602.57  1525.79  3.08
457.6  50595.45  1555.45  3.07
459.1  51585.52  1590.63  3.08
460.5  52537.00  1623.35  3.09
462.0  53622.12  1659.33  3.09
463.4  54672.13  1692.15  3.10
464.8  55675.75  1729.22  3.11
466.3  56661.00  1757.54  3.10
467.7  57651.20  1791.95  3.11
469.2  58730.28  1819.30  3.10
470.6  59740.60  1851.79  3.10
472.0  60804.00  1889.27  3.11
473.5  61820.42  1924.23  3.11
474.9  62880.50  1959.17  3.12
476.4  64051.20  1996.67  3.12
477.8  65124.33  2034.56  3.12
479.2  66139.33  2066.46  3.12
480.7  67260.50  2105.91  3.13
482.1  68425.57  2147.27  3.14
483.6  69629.73  2195.16  3.15
485.0  70744.15  2237.84  3.16
486.4  71944.90  2278.53  3.17
487.9  73047.00  2323.71  3.18
489.3  74214.00  2371.15  3.20
490.7  75293.83  2419.11  3.21
492.2  76528.20  2475.90  3.24
493.6  77654.77  2532.36  3.26
495.0  78789.75  2590.72  3.29
496.5  79988.53  2660.37  3.33
497.9  81113.62  2725.36  3.36
499.3  82297.40  2802.51  3.41
500.7  83563.60  2891.91  3.46
502.2  84738.40  2990.08  3.53
503.6  86013.47  3102.29  3.61
505.0  87118.67  3213.38  3.69
506.5  88453.00  3352.24  3.79
507.9  89631.95  3507.17  3.91
509.3  90980.53  3688.59  4.05
510.7  92225.25  3889.00  4.22
512.2  93643.60  4120.41  4.40
513.6  95150.07  4382.90  4.61
515.0  96606.72  4679.21  4.84
516.4  98005.95  5004.18  5.11
517.8  99637.75  5377.19  5.40
519.3  100983.43  5762.31  5.71
520.7  102574.37  6188.43  6.03
522.1  103880.83  6616.57  6.37
523.5  105241.53  7062.00  6.71
524.9  106726.80  7515.86  7.04
526.3  108179.87  7958.92  7.36
527.8  109682.10  8392.37  7.65
529.2  110726.87  8787.60  7.94
530.6  112315.03  9205.07  8.20
532.0  114072.00  9599.20  8.42
533.4  115378.45  9930.31  8.61
534.8  116238.93  10187.79  8.76
536.3  117914.60  10483.65  8.89
537.7  119977.20  10797.84  9.00
539.1  121508.07  11050.25  9.09
540.5  122741.30  11262.97  9.18
541.9  124508.85  11517.63  9.25
543.3  125820.25  11727.46  9.32
544.7  127148.00  11944.60  9.39
546.1  128955.93  12205.35  9.46
547.5  130263.47  12411.84  9.53
549.0  132014.67  12650.00  9.58
550.4  133520.83  12853.22  9.63
551.8  135098.90  13038.07  9.65
553.2  136628.92  13179.95  9.65
554.6  137980.27  13271.29  9.62
556.0  139531.80  13332.28  9.56
557.4  141163.40  13365.86  9.47
558.8  142823.10  13358.30  9.35
560.2  144288.58  13298.08  9.22
561.6  145970.85  13221.88  9.06
563.0  147578.78  13107.22  8.88
564.4  149184.03  12967.16  8.69
565.8  150705.00  12790.68  8.49
567.2  152470.83  12611.90  8.27
568.6  153982.75  12387.87  8.04
570.0  155435.27  12140.55  7.81
571.4  157167.83  11910.01  7.58
572.8  158946.58  11680.62  7.35
574.2  160578.13  11461.76  7.14
575.6  162142.50  11260.61  6.94
577.0  163684.27  11079.81  6.77
578.4  165422.83  10933.65  6.61
579.8  166953.60  10796.99  6.47
581.2  168678.62  10688.36  6.34
582.5  170125.80  10579.48  6.22
583.9  171650.67  10494.25  6.11
585.3  173469.00  10443.58  6.02
586.7  174963.75  10385.48  5.94
588.1  176459.17  10342.63  5.86
589.5  178123.17  10322.20  5.79
590.9  179775.20  10313.97  5.74
592.3  181590.13  10329.37  5.69
593.7  183052.35  10342.08  5.65
595.0  184688.55  10372.13  5.62
596.4  186143.30  10401.44  5.59
597.8  187643.68  10426.75  5.56
599.2  189208.80  10443.47  5.52
600.6  190973.90  10462.03  5.48
602.0  192281.80  10441.20  5.43
603.3  194081.17  10433.12  5.38
604.7  195762.18  10402.38  5.31
606.1  197266.40  10343.30  5.24
607.5  198923.27  10274.66  5.17
608.9  200634.00  10193.48  5.08
610.2  202031.55  10087.74  4.99
611.6  203644.20  9989.85  4.91
613.0  205228.53  9896.60  4.82
614.4  206610.00  9800.47  4.74
615.8  208084.50  9716.02  4.67
617.1  209631.80  9649.50  4.60
618.5  211265.07  9602.24  4.55
619.9  212800.65  9562.24  4.49
621.3  214436.85  9544.63  4.45
622.6  216041.67  9541.27  4.42
624.0  217515.40  9547.66  4.39
625.4  219011.10  9568.47  4.37
626.8  220614.33  9611.88  4.36
628.1  221925.55  9649.24  4.35
629.5  223726.47  9712.45  4.34
630.9  225243.52  9763.05  4.33
632.2  226548.35  9803.31  4.33
633.6  228116.42  9839.05  4.31
635.0  229608.53  9856.09  4.29
636.3  231139.53  9842.71  4.26
637.7  232523.83  9801.49  4.22
639.1  234196.67  9751.00  4.16
640.4  235690.23  9673.78  4.10
641.8  236918.02  9569.48  4.04
643.2  238506.80  9477.03  3.97
644.5  239890.17  9374.25  3.91
645.9  241473.60  9284.04  3.84
647.2  242812.03  9206.14  3.79
648.6  244431.00  9151.27  3.74
650.0  245779.20  9109.65  3.71
651.3  246525.22  9060.88  3.68
652.7  248371.43  9036.92  3.64
654.0  250571.80  9044.19  3.61
655.4  251982.60  9013.05  3.58
656.8  252060.80  8926.29  3.54
658.1  253377.40  8877.00  3.50
659.5  255865.05  8871.33  3.47
660.8  257610.00  8847.65  3.43
662.2  258645.33  8790.40  3.40
663.5  260232.97  8753.05  3.36
664.9  261354.60  8728.24  3.34
666.2  262108.00  8701.77  3.32
667.6  263821.97  8739.92  3.31
668.9  264939.05  8785.40  3.32
670.3  266531.00  8838.13  3.32
671.6  267786.25  8916.38  3.33
673.0  269010.50  9009.30  3.35
674.3  270312.47  9119.73  3.37
675.7  271669.67  9255.73  3.41
677.0  272801.65  9395.87  3.44
678.4  274123.15  9560.11  3.49
679.7  275209.72  9730.02  3.54
681.1  276526.17  9930.60  3.59
682.4  277664.40  10150.85  3.66
683.8  278916.73  10398.37  3.73
685.1  279940.25  10685.11  3.82
686.4  281200.00  11027.69  3.92
687.8  282500.83  11439.05  4.05
689.1  283568.83  11936.17  4.21
690.5  284873.10  12611.79  4.43
691.8  285762.13  13494.63  4.72
693.1  287096.30  14698.56  5.12
694.5  288272.83  16242.85  5.63
695.8  289531.67  18162.30  6.27
697.1  290714.67  20478.90  7.04
698.5  291816.07  23207.83  7.95
699.8  292930.77  26339.93  8.99
701.1  294109.87  29858.44  10.15
702.5  294923.93  33659.42  11.41
703.8  295905.00  37750.50  12.76
705.1  297071.45  42060.97  14.16
706.5  298154.33  46507.40  15.60
707.8  299147.30  51069.11  17.07
709.1  300018.23  55680.47  18.56
710.5  301179.13  60415.28  20.06
711.8  302031.20  65146.59  21.57
713.1  303057.00  69944.27  23.08
714.4  303963.87  74750.88  24.59
715.8  304811.27  79539.64  26.09
717.1  306165.20  84449.80  27.58
718.4  307118.93  89236.48  29.06
719.7  308282.08  94039.90  30.50
721.0  308805.00  98604.65  31.93
722.4  309596.47  103173.98  33.33
723.7  310561.70  107709.17  34.68
725.0  311635.50  112162.81  35.99
726.3  312626.42  116455.11  37.25
727.6  313174.22  120461.87  38.46
729.0  314118.35  124445.42  39.62
730.3  314920.60  128234.78  40.72
731.6  315843.17  131898.12  41.76
732.9  316648.62  135342.80  42.74
734.2  317448.08  138647.15  43.68
735.5  318512.82  141867.85  44.54
736.8  319349.60  144814.45  45.35
738.1  320228.13  147613.91  46.10
739.5  321221.28  150318.77  46.80
740.8  321927.83  152737.99  47.44
742.1  322653.08  155018.59  48.04
743.4  323333.33  157131.43  48.60
744.7  324270.78  159228.28  49.10
746.0  325156.00  161148.50  49.56
747.3  325750.05  162794.08  49.98
748.6  326458.50  164390.21  50.36
749.9  327132.00  165848.80  50.70
751.2  327781.53  167176.95  51.00
752.5  328618.33  168515.83  51.28
753.8  329222.95  169626.82  51.52
755.1  329922.67  170716.75  51.74
756.4  330523.22  171681.39  51.94
757.7  331569.70  172786.36  52.11
759.0  333407.17  174253.89  52.26
760.3  334628.80  175327.68  52.39
761.6  336206.27  176548.00  52.51
762.9  336746.83  177182.07  52.62
764.2  337146.67  177674.50  52.70
765.5  337434.15  178080.85  52.77
766.8  337842.13  178537.69  52.85
768.1  338353.47  179023.77  52.91
769.3  338933.70  179510.12  52.96
770.6  339611.13  180012.38  53.01
771.9  340335.22  180542.99  53.05
773.2  340724.27  180865.00  53.08
774.5  341312.40  181295.40  53.12
775.8  341987.90  181740.99  53.14
777.1  342531.93  182133.37  53.17
778.4  342860.10  182398.85  53.20
779.6  343640.82  182880.94  53.22
780.9  344080.00  183203.15  53.24
782.2  344547.50  183522.43  53.26
783.5  344833.00  183747.69  53.29
784.8  345342.75  184081.62  53.30
786.0  345723.47  184335.91  53.32
787.3  346078.12  184604.47  53.34
788.6  346489.38  184872.34  53.36
789.9  346944.27  185171.16  53.37
791.2  347575.25  185572.33  53.39
792.4  348237.98  185956.39  53.40
793.7  348696.00  186260.35  53.42
795.0  349276.95  186626.06  53.43
796.2  349916.40  187012.25  53.44
797.5  350583.60  187410.83  53.46
798.8  351240.22  187797.56  53.47
800.0  351874.42  188192.76  53.48
801.3  352336.00  188477.07  53.49
802.6  352911.30  188816.52  53.50
803.8  353534.25  189187.83  53.51
805.1  354001.08  189483.80  53.53
806.4  354431.60  189778.28  53.54
807.7  354970.35  190096.18  53.55
808.9  355535.60  190422.10  53.56
810.2  356029.10  190724.79  53.57
811.4  356569.20  191016.93  53.57
812.7  357202.08  191387.86  53.58
814.0  358005.00  191870.70  53.59
815.2  358632.50  192239.67  53.60
816.5  359027.48  192496.20  53.62
817.7  359511.50  192784.60  53.62
819.0  360026.70  193089.32  53.63
820.2  360213.33  193216.57  53.64
821.5  360891.07  193621.54  53.65
822.7  361264.32  193857.20  53.66
824.0  361569.60  194059.96  53.67
825.2  362043.00  194362.80  53.69
826.5  362410.15  194540.68  53.68
827.7  362972.95  194889.57  53.69
829.0  363391.05  195121.35  53.69
830.2  363688.27  195321.85  53.71
831.5  364189.30  195626.56  53.72
832.7  364487.20  195828.45  53.73
834.0  364833.67  196046.62  53.74
835.2  365188.82  196273.92  53.75
836.4  365518.63  196481.96  53.75
837.7  365958.40  196728.97  53.76
838.9  366395.62  197039.47  53.78
840.1  366739.65  197280.03  53.79
841.4  367194.67  197574.69  53.81
842.6  367569.47  197821.33  53.82
843.8  367929.87  198066.33  53.83
845.1  368405.23  198391.79  53.85
846.3  368813.67  198676.87  53.87
847.5  369216.40  198948.12  53.88
848.8  369687.60  199244.97  53.90
850.0  370010.90  199466.86  53.91
851.2  370590.30  199818.56  53.92
852.5  371011.00  200088.74  53.93
853.7  371490.00  200403.26  53.95
854.9  371966.73  200711.71  53.96
856.1  372420.53  201016.42  53.98
857.4  372630.55  201155.39  53.98
858.6  373089.87  201454.41  54.00
859.8  373515.00  201698.90  54.00
861.0  374025.60  202017.55  54.01
862.2  374517.87  202326.16  54.02
863.5  374830.73  202575.23  54.04
864.7  375390.40  202875.52  54.04
865.9  375808.00  203112.48  54.05
867.1  376138.23  203312.95  54.05
868.3  376545.40  203583.45  54.07
869.5  377039.60  203909.17  54.08
870.8  377655.00  204265.93  54.09
872.0  378170.80  204573.23  54.10
873.2  378610.70  204817.76  54.10
874.4  379080.00  205091.31  54.10
875.6  379409.90  205283.87  54.11
876.8  379915.27  205558.42  54.11
878.0  380380.13  205890.98  54.13
879.2  381016.50  206202.31  54.12
880.4  381497.25  206479.68  54.12
881.6  381997.08  206756.88  54.13
882.8  382346.67  206997.92  54.14
884.0  382950.08  207310.02  54.13
885.2  383541.33  207585.90  54.12
886.5  384128.17  207926.77  54.13
887.7  384586.80  208189.25  54.13
888.8  385241.35  208571.20  54.14
890.0  385763.03  208873.61  54.15
891.2  386356.33  209210.69  54.15
892.4  386941.80  209543.70  54.15
893.6  387583.93  209850.30  54.14
894.8  388458.50  210313.32  54.14
896.0  389324.67  210770.14  54.14
897.2  390171.17  211206.55  54.13
898.4  390922.40  211629.47  54.14
899.6  391539.50  211922.81  54.13
900.8  391899.87  212100.04  54.12
902.0  392078.70  212219.36  54.13
903.2  392354.05  212389.63  54.13
904.3  392763.40  212574.79  54.12
905.5  393298.97  212873.89  54.13
906.7  393996.33  213172.46  54.11
907.9  394350.37  213455.20  54.13
909.1  394777.35  213588.15  54.10
910.2  394907.90  213692.84  54.11
911.4  395192.85  213805.72  54.10
912.6  395361.63  213907.17  54.10
913.8  395634.40  214027.74  54.10
915.0  396008.20  214210.71  54.09
916.2  396136.00  214283.55  54.09
917.3  396216.90  214288.96  54.08
918.5  396371.33  214323.03  54.07
919.7  396579.40  214456.57  54.08
920.8  396680.55  214462.91  54.06
922.0  396704.00  214495.05  54.07
923.2  396942.00  214546.80  54.05
924.4  397136.25  214682.88  54.06
925.5  397423.13  214743.18  54.03
926.7  398080.50  214998.46  54.01
927.9  398903.20  215342.45  53.98
929.0  400444.20  216100.29  53.97
930.2  402568.20  217186.13  53.95
931.4  405024.75  218468.21  53.94
932.5  407656.20  219876.71  53.94
933.7  409146.60  220483.04  53.89
934.9  409867.50  220746.63  53.86
936.0  409437.17  220391.74  53.83
937.2  407227.60  219140.89  53.81
938.3  405394.47  218111.65  53.80
939.5  403824.00  217151.28  53.77
940.7  404079.60  217173.55  53.75
941.8  405582.60  217857.80  53.71
943.0  407136.50  218423.81  53.65
944.2  407918.33  218741.64  53.62
945.3  407303.00  218399.17  53.62
946.5  406449.90  217781.23  53.58
947.6  406699.53  217659.53  53.52
948.8  406676.40  217418.87  53.46
949.9  406907.20  217247.16  53.39
951.1  406397.33  216790.44  53.34
952.2  406096.00  216432.35  53.30
953.4  405795.50  215972.27  53.22
954.5  405756.00  215648.39  53.15
955.7  405694.80  215252.64  53.06
956.8  405439.27  214905.43  53.01
958.0  405049.67  214399.35  52.93
959.1  404800.17  214058.24  52.88
960.3  404449.37  213673.06  52.83
961.4  404364.20  213306.47  52.75
962.6  404378.33  213315.85  52.75
963.7  404295.60  212991.17  52.68
964.9  403982.90  212854.86  52.69
966.0  403764.75  212720.47  52.68
967.2  403797.30  212648.30  52.66
968.3  403587.90  212428.29  52.63
969.5  403333.53  212205.42  52.61
970.6  403445.07  212229.38  52.60
971.8  403624.90  212129.78  52.56
972.9  403394.70  212098.91  52.58
974.0  403464.20  212086.41  52.57
975.2  403437.17  211955.58  52.54
976.3  403221.12  211919.01  52.56
977.5  403134.55  211778.00  52.53
978.6  403300.80  211561.45  52.46
979.7  403205.60  211525.19  52.46
980.9  402826.33  211458.06  52.49
982.0  402518.07  211273.99  52.49
983.2  401587.05  211041.22  52.55
984.3  400961.87  210605.97  52.53
985.4  401145.33  210799.67  52.55
986.6  400818.92  210522.05  52.52
987.7  401770.60  210836.39  52.48
988.9  401690.40  210562.46  52.42
990.0  401690.40  210845.88  52.49
993.1  378664.30  198512.85  52.42
996.9  377890.58  198662.34  52.57
1000.7  378160.83  199369.43  52.72
1004.5  378322.50  199967.72  52.86
1008.4  377789.04  200195.46  52.99
1012.2  377578.50  200495.64  53.10
1016.0  377118.00  200706.20  53.22
1019.8  376599.30  200858.35  53.33
1023.7  375774.27  200762.01  53.43
1027.5  374657.88  200492.15  53.51
1031.3  374176.83  200515.21  53.59
1035.1  373607.50  200446.60  53.65
1038.9  373388.03  200542.65  53.71
1042.7  373148.25  200648.36  53.77
1046.5  373004.67  200773.61  53.83
1050.3  372995.65  200897.13  53.86
1054.2  372638.58  200834.67  53.90
1058.0  372206.74  200706.57  53.92
1061.8  372136.60  200754.22  53.95
1065.6  371692.53  200572.61  53.96
1069.4  371263.53  200383.67  53.97
1073.2  370343.61  199877.40  53.97
1077.0  369607.75  199486.10  53.97
1080.8  369357.29  199284.38  53.95
1084.6  368885.07  198946.54  53.93
1088.4  368773.49  198809.48  53.91
1092.2  368140.50  198393.00  53.89
1096.0  367559.78  197946.44  53.85
1099.8  367024.88  197491.24  53.81
1103.6  366261.88  196891.80  53.76
1107.4  365271.91  196140.38  53.70
1111.2  365002.90  195792.84  53.64
1114.9  364367.50  195188.39  53.57
1118.7  363943.80  194622.45  53.48
1122.5  363452.27  193905.69  53.35
1126.3  362446.70  192775.30  53.19
1130.1  362040.88  191700.27  52.95
1133.9  360424.40  189700.23  52.63
1137.7  358977.60  187455.80  52.22
1141.4  357068.62  184726.93  51.73
1145.2  356229.27  182407.97  51.21
1149.0  354967.08  179979.24  50.70
1152.8  353274.50  177561.97  50.26
1156.6  351558.90  175527.49  49.93
1160.3  349840.33  173869.78  49.70
1164.1  347530.23  172193.99  49.55
1167.9  345814.58  171062.50  49.47
1171.7  344523.38  170233.88  49.41
1175.4  343157.73  169415.19  49.37
1179.2  341911.30  168620.96  49.32
1183.0  341510.00  168246.33  49.27
1186.7  341245.33  167936.07  49.21
1190.5  340577.47  167481.22  49.18
1194.3  339603.47  166907.21  49.15
1198.0  338243.68  166226.87  49.14
1201.8  336636.13  165483.67  49.16
1205.6  335491.33  165050.78  49.20
1209.3  334763.42  164934.19  49.27
1213.1  334141.80  164917.85  49.36
1216.8  333494.61  164959.52  49.46
1220.6  332496.27  164855.29  49.58
1224.3  331354.92  164669.95  49.70
1228.1  329974.60  164402.07  49.82
1231.9  328561.75  164058.92  49.93
1235.6  326952.60  163557.88  50.02
1239.4  325509.13  163136.38  50.12
1243.1  324226.69  162698.82  50.18
1246.9  322938.47  162245.42  50.24
1250.6  321921.27  161878.22  50.29
1254.3  320785.30  161418.77  50.32
1258.1  319636.80  160910.63  50.34
1261.8  318242.67  160250.85  50.35
1265.6  316860.67  159558.71  50.36
1269.3  315735.88  158942.68  50.34
1273.1  315923.72  158952.82  50.31
1276.8  315995.20  158828.54  50.26
1280.6  315287.47  158282.03  50.20
1284.3  313486.00  157150.27  50.13
1288.0  312067.38  156120.32  50.03
1291.8  311190.33  155313.65  49.91
1295.5  310211.73  154396.00  49.77
1299.2  309083.01  153308.61  49.60
1302.9  307593.43  151947.13  49.40
1306.7  305942.12  150387.54  49.16
1310.4  304360.81  148721.24  48.86
1314.1  302872.53  146998.07  48.53
1317.9  301566.04  145199.03  48.15
1321.6  300080.99  143176.40  47.71
1325.3  298410.00  140942.90  47.23
1329.0  297092.72  138752.29  46.70
1332.8  295094.80  136146.27  46.14
1336.5  293394.80  133624.05  45.54
1340.2  293186.83  131773.06  44.95
1343.9  292988.54  129934.93  44.35
1347.6  292792.95  128147.45  43.77
1351.4  293694.00  126867.50  43.20
1355.1  294931.27  125775.96  42.65
1358.8  295936.00  124501.34  42.07
1362.5  295856.93  122638.85  41.45
1366.2  294091.50  119784.55  40.73
1369.9  291544.38  116284.38  39.89
1373.6  289055.38  112286.60  38.85
1377.3  287360.70  107876.20  37.54
1381.0  286554.17  102884.67  35.90
1384.8  284651.25  96541.25  33.92
1388.4  281850.10  89346.84  31.70
1392.2  279769.58  82051.81  29.33
1395.9  278242.08  74911.54  26.92
1399.6  276540.09  68155.94  24.65
1403.3  275235.05  62245.42  22.62
1407.0  273855.10  57195.10  20.89
1410.7  272368.80  53070.33  19.48
1414.3  270826.44  49804.17  18.39
1418.1  269393.29  47368.49  17.58
1421.7  268203.02  45574.98  16.99
1425.4  267022.28  44287.32  16.59
1429.1  265910.63  43408.75  16.32
1432.8  264314.55  42758.13  16.18
1436.5  263484.28  42459.87  16.11
1440.2  262780.90  42356.90  16.12
1443.9  261607.78  42287.09  16.16
1447.6  260044.40  42257.60  16.25
1451.2  258926.80  42327.70  16.35
1454.9  257595.45  42414.95  16.47
1458.6  256452.69  42638.99  16.63
1462.3  255266.00  42985.32  16.84
1466.0  253918.73  43477.67  17.12
1469.7  252234.13  44074.81  17.47
1473.3  251202.50  44959.84  17.90
1477.0  249231.80  45771.75  18.37
1480.7  247601.03  46711.43  18.87
1484.4  245640.39  47610.67  19.38
1488.0  244068.00  48610.23  19.92
1491.7  242469.73  49597.08  20.45
1495.4  240780.28  50565.95  21.00
1499.0  239221.00  51528.17  21.54
1502.7  237947.08  52543.95  22.08
1506.4  236582.26  53499.15  22.61
1510.0  235167.97  54420.94  23.14
1513.7  233711.63  55280.17  23.65
1517.4  232357.67  56129.34  24.16
1521.0  231120.00  56971.56  24.65
1524.7  229868.17  57751.06  25.12
1528.3  228584.88  58463.38  25.58
1532.0  227391.27  59158.25  26.02
1535.7  226015.50  59753.50  26.44
1539.3  224749.38  60347.54  26.85
1543.0  223783.13  60973.61  27.25
1546.6  223094.08  61647.45  27.63
1550.3  222088.35  62194.67  28.00
1553.9  221025.00  62686.90  28.36
1557.6  219784.40  63080.85  28.70
1561.2  218526.75  63421.35  29.02
1564.9  217215.52  63729.86  29.34
1568.5  215913.60  64006.79  29.64
1572.2  214754.25  64297.48  29.94
1575.8  213668.00  64600.67  30.23
1579.5  212639.05  64891.87  30.52
1583.1  211629.20  65169.82  30.79
1586.8  210350.00  65342.67  31.06
1590.4  209194.90  65545.02  31.33
1594.0  207865.34  65669.57  31.59
1597.7  206874.87  65904.75  31.86
1601.3  205806.83  66079.13  32.11
1604.9  204709.64  66230.84  32.35
1608.6  203443.52  66281.00  32.58
1612.2  202268.55  66338.25  32.80
1615.8  201002.43  66330.01  33.00
1619.5  199829.42  66326.84  33.19
1623.1  198536.17  66243.90  33.37
1626.7  197327.00  66166.97  33.53
1630.3  196141.50  66071.70  33.69
1634.0  195020.00  65972.67  33.83
1637.6  194007.47  65850.76  33.94
1641.2  193004.85  65674.39  34.03
1644.8  191788.68  65359.21  34.08
1648.5  190702.53  65033.04  34.10
1652.1  189743.70  64700.20  34.10
1655.7  188831.60  64326.00  34.07
1659.3  188008.51  63972.07  34.03
1662.9  186589.17  63410.00  33.98
1666.6  185159.53  62849.87  33.94
1670.2  183728.36  62283.11  33.90
1673.8  182269.44  61689.26  33.85
1677.4  181118.55  61159.65  33.77
1681.0  180286.68  60682.02  33.66
1684.6  179900.50  60286.06  33.51
1688.2  179223.90  59741.30  33.33
1691.8  178552.68  59192.31  33.15
1695.4  178110.60  58698.07  32.96
1699.0  177745.87  58214.34  32.75
1702.6  177403.67  57725.11  32.54
1706.2  176775.84  57133.85  32.32
1709.8  175856.18  56433.22  32.09
1713.4  175110.09  55798.97  31.87
1717.0  174241.75  55140.42  31.65
1720.6  173428.95  54504.98  31.43
1724.2  172727.03  53914.08  31.21
1727.8  171991.40  53367.30  31.03
1731.4  171532.63  52947.59  30.87
1735.0  171339.67  52644.60  30.73
1738.6  171108.75  52318.85  30.58
1742.2  170560.65  51823.68  30.38
1745.8  169917.98  51270.60  30.17
1749.4  168976.50  50593.68  29.94
1753.0  167480.40  49748.09  29.70
1756.6  165837.00  48858.64  29.46
1760.1  164512.40  48096.51  29.24
1763.7  162778.67  47247.11  29.03
1767.3  161355.78  46531.61  28.84
1770.9  160118.12  45904.15  28.67
1774.5  158677.43  45262.79  28.53
1778.0  157537.58  44719.21  28.39
1781.6  156454.05  44238.00  28.28
1785.2  155298.40  43772.84  28.19
1788.8  154140.80  43352.10  28.13
1792.3  152912.20  42942.77  28.08
1795.9  152407.02  42767.33  28.06
1799.5  151998.00  42639.45  28.05
1803.1  152249.53  42717.39  28.06
1806.6  153814.50  43156.01  28.06
1810.2  155484.93  43620.42  28.05
1813.8  156488.95  43892.97  28.05
1817.3  156257.40  43813.54  28.04
1820.9  155170.17  43481.75  28.02
1824.5  153814.30  43060.34  28.00
1828.0  152747.83  42679.54  27.94
1831.6  152066.00  42374.27  27.87
1835.2  151569.17  42056.11  27.75
1838.7  151233.87  41696.14  27.57
1842.3  150930.00  41240.00  27.32
1845.8  149934.79  40461.75  26.99
1849.4  149318.28  39631.48  26.54
1852.9  148550.91  38561.79  25.96
1856.5  147580.32  37202.64  25.21
1860.0  146650.27  35594.05  24.27
1863.6  146479.95  33899.08  23.14
1867.1  146683.95  31996.19  21.81
1870.7  147107.40  29730.65  20.21
1874.2  146271.60  26863.20  18.37
1877.8  144317.00  23717.36  16.43
1881.3  142052.88  20537.17  14.46
1884.9  140517.21  17665.39  12.57
1888.4  139154.88  15048.66  10.81
1891.9  137725.93  12827.93  9.31
1895.5  136349.52  11084.59  8.13
1899.0  135543.88  9842.21  7.26
1901.3  176430.17  8659.84  4.91
1904.1  176278.50  7885.13  4.47
1906.8  175234.80  7219.20  4.12
1909.6  173105.10  6709.50  3.88
1912.4  171069.15  6339.61  3.71
1915.1  169556.20  6074.48  3.58
1917.9  167918.00  5876.00  3.50
1920.6  166493.93  5739.65  3.45
1923.3  165020.57  5640.95  3.42
1926.1  163247.63  5572.87  3.41
1928.8  161494.67  5536.67  3.43
1931.6  160079.90  5533.58  3.46
1934.3  158760.20  5556.87  3.50
1937.0  157504.17  5602.87  3.56
1939.8  156166.50  5658.46  3.62
1942.5  154539.00  5736.50  3.71
1945.2  152570.00  5794.53  3.80
1947.9  150971.57  5869.50  3.89
1950.7  149752.30  5991.85  4.00
1953.4  147929.50  6092.90  4.12
1956.1  146513.92  6219.71  4.25
1958.8  145274.78  6358.63  4.38
1961.5  143777.60  6499.80  4.52
1964.2  142260.30  6647.55  4.67
1966.9  140664.15  6796.55  4.83
1969.6  139419.00  6970.50  5.00
1972.3  138012.30  7146.70  5.18
1975.0  136944.90  7345.50  5.36
1977.7  135820.75  7538.25  5.55
1980.4  134664.77  7736.59  5.75
1983.1  133556.77  7940.88  5.95
1985.8  132614.10  8169.30  6.16
1988.4  131577.33  8385.00  6.37
1991.1  130630.97  8616.07  6.60
1993.8  129758.38  8836.39  6.81
1996.5  129103.52  9073.35  7.03
1999.1  128422.80  9306.00  7.25
2001.8  127747.43  9557.10  7.48
2004.5  127051.20  9787.48  7.70
2007.1  126324.60  9995.08  7.91
2009.8  125580.47  10208.92  8.13
2012.4  124984.75  10434.79  8.35
2015.1  124432.23  10649.22  8.56
2017.8  123637.97  10826.20  8.76
2020.4  123140.78  11020.72  8.95
2023.1  122783.27  11223.34  9.14
2025.7  122546.67  11409.67  9.31
2028.3  122226.00  11591.67  9.48
2031.0  121827.17  11748.55  9.64
2033.6  121547.70  11901.60  9.79
2036.2  121286.70  12045.15  9.93
2038.9  120677.70  12145.20  10.06
2041.5  120316.15  12255.63  10.19
2044.1  119764.20  12345.30  10.31
2046.8  119372.70  12441.00  10.42
2049.4  118746.30  12493.20  10.52
2052.0  118458.93  12589.10  10.63
2054.6  118063.75  12661.25  10.72
2057.2  117480.80  12733.20  10.84
2059.8  117140.20  12824.90  10.95
2062.4  116254.18  12852.73  11.06
2065.0  115725.40  12920.97  11.17
2067.6  114833.37  12944.25  11.27
2070.2  114223.20  13005.27  11.39
2072.8  113586.88  13053.21  11.49
2075.4  113137.50  13125.00  11.60
2078.0  112514.50  13166.22  11.70
2080.6  111953.60  13222.00  11.81
2083.2  111257.77  13250.82  11.91
2085.8  110757.83  13311.15  12.02
2088.4  110081.00  13338.34  12.12
2090.9  109291.40  13361.66  12.23
2093.5  108408.60  13360.40  12.32
2096.1  107648.53  13372.63  12.42
2098.7  106875.60  13377.02  12.52
2101.2  105900.40  13353.27  12.61
2103.8  105210.47  13370.73  12.71
2106.4  104546.73  13401.30  12.82
2108.9  103883.00  13427.50  12.93
2111.5  103035.87  13410.03  13.01
2114.0  102398.33  13427.50  13.11
2116.6  101885.00  13457.50  13.21
2119.1  101325.13  13487.52  13.31
2121.7  100817.50  13501.25  13.39
2124.2  100404.63  13540.12  13.49
2126.8  99594.22  13517.55  13.57
2129.3  99193.60  13538.80  13.65
2131.9  98612.80  13534.40  13.72
2134.4  98173.05  13549.35  13.80
2136.9  97778.85  13573.73  13.88
2139.4  97231.87  13574.87  13.96
2142.0  96779.67  13583.74  14.04
2144.5  96511.60  13621.45  14.11
2147.0  96274.53  13654.60  14.18
2149.5  95756.40  13663.53  14.27
2152.1  95582.67  13717.55  14.35
2154.6  95517.33  13767.74  14.41
2157.1  94993.50  13752.17  14.48
2159.6  94584.75  13747.63  14.53
2162.1  94412.50  13777.40  14.59
2164.6  94146.40  13800.47  14.66
2167.1  93816.93  13807.15  14.72
2169.6  93493.87  13811.18  14.77
2172.1  93025.83  13794.60  14.83
2174.6  92703.73  13802.70  14.89
2177.1  92257.77  13799.68  14.96
2179.5  91834.38  13793.33  15.02
2182.0  91349.50  13786.58  15.09
2184.5  90830.67  13755.97  15.14
2187.0  90210.97  13725.50  15.21
2189.5  89522.67  13689.20  15.29
2191.9  88739.50  13627.75  15.36
2194.4  88108.30  13589.65  15.42
2196.9  87360.00  13536.00  15.49
2199.3  86690.67  13480.17  15.55
2201.8  85789.60  13388.20  15.61
2204.3  85316.65  13360.48  15.66
2206.7  84690.30  13312.28  15.72
2209.2  84215.88  13263.43  15.75
2211.6  83585.70  13201.65  15.79
2214.1  83281.50  13178.78  15.82
2216.5  82714.87  13092.13  15.83
2219.0  82377.13  13042.47  15.83
2221.4  82000.92  12980.92  15.83
2223.9  81515.00  12881.75  15.80
2226.3  80999.33  12772.67  15.77
2228.7  80430.57  12630.90  15.70
2231.1  79833.60  12469.05  15.62
2233.6  79228.27  12297.47  15.52
2236.0  78668.92  12118.17  15.40
2238.4  78163.17  11939.67  15.28
2240.9  77698.53  11746.17  15.12
2243.3  77162.13  11547.50  14.97
2245.7  76595.10  11328.08  14.79
2248.1  76095.50  11112.84  14.60
2250.5  75573.83  10901.80  14.43
2252.9  74939.37  10679.28  14.25
2255.3  74366.30  10457.45  14.06
2257.7  73910.00  10245.00  13.86
2260.1  73413.90  10033.33  13.67
2262.5  72790.00  9830.00  13.50
2264.9  72249.38  9628.93  13.33
2267.3  71640.00  9440.00  13.18
2269.7  71136.33  9280.84  13.05
2272.1  70557.40  9110.16  12.91
2274.5  69973.18  8935.09  12.77
2276.8  69505.65  8794.63  12.65
2279.2  68932.95  8643.00  12.54
2281.6  68493.60  8526.47  12.45
2284.0  68013.40  8398.15  12.35
2286.3  67538.67  8263.74  12.24
2288.7  67128.53  8151.76  12.14
2291.1  66567.83  8012.70  12.04
2293.4  66107.07  7874.54  11.91
2295.8  65497.70  7725.00  11.79
2298.2  64894.50  7571.03  11.67
2300.5  64211.40  7420.95  11.56
2302.9  63457.00  7243.67  11.42
2305.2  62737.30  7086.40  11.30
2307.6  62065.07  6943.12  11.19
2309.9  61287.00  6794.17  11.09
2312.2  60687.67  6680.50  11.01
2314.6  60081.75  6572.25  10.94
2316.9  59357.25  6479.10  10.92
2319.2  58779.00  6391.05  10.87
2321.6  58157.05  6281.92  10.80
2323.9  57593.75  6171.88  10.72
2326.2  57039.03  6072.20  10.65
2328.6  56503.15  5961.73  10.55
2330.9  56007.00  5859.00  10.46
2333.2  55530.75  5752.05  10.36
2335.5  55072.90  5654.95  10.27
2337.8  54606.80  5553.42  10.17
2340.1  54046.07  5445.59  10.08
2342.4  53592.50  5351.67  9.99
2344.8  53153.25  5261.84  9.90
2347.1  52574.20  5165.30  9.82
2349.4  52031.72  5067.67  9.74
2351.6  51447.83  4968.52  9.66
2353.9  50962.97  4882.25  9.58
2356.2  50425.20  4802.40  9.52
2358.5  49840.00  4709.60  9.45
2360.8  49280.00  4620.00  9.38
2363.1  48814.93  4542.75  9.31
2365.4  48341.40  4463.50  9.23
2367.7  47880.00  4366.20  9.12
2369.9  47322.85  4276.58  9.04
2372.2  46703.73  4185.34  8.96
2374.5  46096.05  4106.03  8.91
2376.7  45467.63  4001.94  8.80
2379.0  44834.87  3902.99  8.71
2381.3  44228.33  3809.17  8.61
2383.5  43718.40  3719.47  8.51
2385.8  43089.53  3630.02  8.42
2388.0  42539.00  3534.10  8.31
2390.3  42043.60  3441.33  8.19
2392.5  41544.00  3378.00  8.13
2394.8  41067.40  3297.25  8.03
2397.0  40586.00  3209.27  7.91
2399.3  40119.72  3137.21  7.82
2401.5  39665.50  3062.50  7.72
2403.8  39130.05  2962.16  7.57
2406.0  38615.83  2886.88  7.48
2408.2  38197.87  2829.94  7.41
2410.4  37787.05  2746.33  7.27
2412.7  37360.70  2670.42  7.15
2414.9  36988.60  2612.23  7.06
2417.1  36588.70  2546.35  6.96
2419.3  36172.80  2470.40  6.83
2421.6  35779.17  2408.96  6.73
2423.8  35386.03  2340.49  6.61
2426.0  35016.05  2285.07  6.53
2428.2  34652.80  2234.40  6.45
2430.4  34327.27  2163.65  6.30
2432.6  34053.33  2106.67  6.19
2434.8  33750.83  2045.10  6.06
2437.0  33395.27  2001.57  5.99
2439.2  33021.22  1953.16  5.91
2441.4  32679.10  1901.85  5.82
2443.6  32455.35  1865.25  5.75
2445.7  32167.68  1804.84  5.61
2447.9  31883.08  1746.55  5.48
2450.1  31584.40  1707.08  5.40
2452.3  31211.95  1658.71  5.31
2454.5  30834.57  1616.90  5.24
2456.6  30445.07  1569.34  5.15
2458.8  30101.50  1522.95  5.06
2461.0  29784.83  1492.13  5.01
2463.1  29478.30  1447.73  4.91
2465.3  29193.50  1412.12  4.84
2467.5  28954.25  1379.13  4.76
2469.6  28684.75  1342.50  4.68
2471.8  28381.50  1313.96  4.63
2473.9  28070.08  1289.63  4.59
2476.1  27724.67  1236.09  4.46
2478.2  27374.30  1218.67  4.45
2480.4  27092.75  1189.63  4.39
2482.5  26724.23  1153.51  4.32
2484.6  26367.00  1137.58  4.31
2486.8  26109.10  1114.70  4.27
2488.9  25789.97  1089.05  4.22
2491.1  25450.13  1055.14  4.15
2493.2  25035.73  1037.84  4.15
2495.3  24611.17  1010.10  4.10
2497.4  24278.80  990.15  4.08
2499.5  23983.70  954.82  3.98
2501.7  23861.20  944.92  3.96
2503.8  23737.67  944.49  3.98
2505.9  23660.42  939.58  3.97
2508.0  23647.50  945.90  4.00
2510.1  23677.53  929.93  3.93
2512.2  23781.60  935.85  3.94
2514.3  23956.97  939.68  3.92
2516.4  24211.30  945.60  3.91
