/*** Spectra Vista SIG Data ***/
name= 28_20220926_ACRU_27_avg.sig
comm= Averaged Ref/Tar of files: HR.092722.0003_moc.sig,HR.092722.0004_moc.sig,HR.092722.0005_moc.sig
data=
337.3  6317.33  427.84  6.77
338.8  6541.60  410.45  6.27
340.3  6994.85  403.31  5.77
341.8  7167.28  387.09  5.40
343.2  7638.95  390.83  5.12
344.7  8072.25  400.75  4.96
346.2  8389.50  394.80  4.71
347.7  8785.65  379.92  4.32
349.2  9072.00  383.04  4.22
350.6  9496.50  389.60  4.10
352.1  10046.50  415.07  4.13
353.6  10664.00  403.63  3.78
355.1  11176.20  399.15  3.57
356.6  11778.58  399.13  3.39
358.0  12285.05  430.61  3.51
359.5  12804.75  447.15  3.49
361.0  13520.40  458.59  3.39
362.5  14130.38  469.09  3.32
364.0  14822.65  490.32  3.31
365.4  15546.33  494.24  3.18
366.9  16198.33  512.86  3.17
368.4  16943.65  527.37  3.11
369.9  17649.00  565.33  3.20
371.3  18541.33  595.28  3.21
372.8  19273.45  616.47  3.20
374.3  20093.20  631.20  3.14
375.8  20918.70  640.94  3.06
377.2  21744.45  652.86  3.00
378.7  22544.90  667.22  2.96
380.2  23409.90  681.91  2.91
381.7  24265.00  682.23  2.81
383.1  25308.00  703.00  2.78
384.6  26287.50  701.00  2.67
386.1  27206.10  731.12  2.69
387.6  28075.05  743.06  2.65
389.0  29095.88  768.90  2.64
390.5  30070.45  804.65  2.68
392.0  31101.75  821.10  2.64
393.4  32212.13  835.70  2.59
394.9  33237.70  848.33  2.55
396.4  34357.40  883.81  2.57
397.9  35470.80  915.16  2.58
399.3  36401.85  933.89  2.57
400.8  37577.10  960.52  2.56
402.2  38758.50  976.14  2.52
403.7  40001.40  1001.60  2.50
405.2  41121.20  1020.35  2.48
406.6  42355.50  1063.04  2.51
408.1  43408.65  1097.69  2.53
409.6  44571.55  1129.26  2.53
411.0  45760.55  1173.77  2.57
412.5  47159.65  1205.69  2.56
414.0  48504.23  1244.72  2.57
415.4  49768.20  1279.68  2.57
416.9  51071.53  1320.88  2.59
418.4  52380.65  1375.51  2.63
419.8  53696.65  1423.43  2.65
421.3  55162.80  1469.16  2.66
422.7  56615.00  1514.24  2.67
424.2  58110.08  1560.09  2.68
425.7  59518.25  1614.98  2.71
427.1  61031.60  1665.99  2.73
428.6  62512.05  1721.43  2.75
430.0  63999.38  1765.50  2.76
431.5  65659.75  1808.78  2.75
432.9  67305.50  1861.40  2.77
434.4  68979.80  1925.96  2.79
435.9  70622.60  1987.33  2.81
437.3  72313.50  2034.15  2.81
438.8  73937.85  2087.99  2.82
440.2  75617.50  2145.10  2.84
441.7  77489.83  2205.35  2.85
443.1  79284.15  2264.04  2.86
444.6  81065.33  2323.15  2.87
446.0  82847.80  2390.48  2.89
447.5  84800.00  2456.67  2.90
448.9  86564.53  2519.09  2.91
450.4  88425.00  2590.00  2.93
451.8  90249.00  2659.90  2.95
453.3  92076.83  2719.59  2.95
454.7  93869.10  2786.58  2.97
456.2  95633.65  2851.38  2.98
457.6  97546.95  2913.84  2.99
459.1  99375.68  2977.24  3.00
460.5  101208.18  3037.02  3.00
462.0  103251.60  3104.16  3.01
463.4  105224.35  3163.95  3.01
464.8  107180.33  3234.42  3.02
466.3  109085.18  3299.54  3.02
467.7  111084.80  3365.55  3.03
469.2  112998.30  3424.52  3.03
470.6  115037.13  3493.70  3.04
472.0  117097.08  3550.87  3.03
473.5  119082.65  3622.12  3.04
474.9  121247.55  3695.37  3.05
476.4  123320.80  3765.97  3.05
477.8  125412.00  3834.13  3.06
479.2  127457.70  3912.29  3.07
480.7  129580.20  3983.64  3.07
482.1  131778.08  4058.43  3.08
483.6  134003.70  4136.64  3.09
485.0  136238.25  4222.36  3.10
486.4  138353.60  4312.32  3.12
487.9  140572.00  4407.00  3.14
489.3  142721.93  4513.89  3.16
490.7  144895.85  4624.07  3.19
492.2  147124.38  4744.30  3.22
493.6  149367.40  4886.47  3.27
495.0  151667.10  5044.26  3.33
496.5  153827.10  5205.06  3.38
497.9  156147.63  5379.90  3.45
499.3  158417.63  5591.77  3.53
500.7  160715.70  5833.57  3.63
502.2  163084.05  6096.60  3.74
503.6  165364.80  6403.28  3.87
505.0  167627.35  6760.23  4.03
506.5  170100.90  7164.15  4.21
507.9  172537.48  7639.02  4.43
509.3  174793.28  8157.21  4.67
510.7  177397.35  8765.25  4.94
512.2  180019.13  9451.82  5.25
513.6  182846.38  10236.07  5.60
515.0  185566.15  11099.90  5.98
516.4  188429.80  12066.96  6.40
517.8  191240.50  13119.97  6.86
519.3  194153.60  14267.31  7.35
520.7  196800.20  15465.07  7.86
522.1  199453.15  16720.90  8.38
523.5  201965.43  18004.94  8.91
524.9  204899.25  19321.38  9.43
526.3  207534.83  20590.20  9.92
527.8  210307.88  21854.23  10.39
529.2  212803.20  23089.92  10.85
530.6  215555.40  24295.32  11.27
532.0  218389.60  25446.42  11.65
533.4  220836.75  26463.80  11.98
534.8  223295.33  27409.58  12.28
536.3  226169.45  28341.39  12.53
537.7  229162.50  29203.47  12.74
539.1  232030.50  30013.71  12.94
540.5  234825.00  30779.90  13.11
541.9  237724.70  31527.32  13.26
543.3  240260.20  32227.96  13.41
544.7  243188.00  32964.80  13.56
546.1  245969.50  33684.19  13.69
547.5  248875.20  34387.20  13.82
549.0  251856.00  35090.24  13.93
550.4  254688.53  35730.24  14.03
551.8  257593.88  36303.06  14.09
553.2  260439.08  36774.99  14.12
554.6  263236.45  37124.58  14.10
556.0  266113.05  37367.68  14.04
557.4  269187.30  37520.79  13.94
558.8  272016.10  37546.67  13.80
560.2  275160.00  37525.33  13.64
561.6  278018.68  37376.97  13.44
563.0  280770.10  37127.05  13.22
564.4  283915.80  36856.68  12.98
565.8  286893.05  36485.53  12.72
567.2  290028.90  36054.44  12.43
568.6  292970.93  35527.86  12.13
570.0  295792.25  34898.50  11.80
571.4  299105.23  34292.46  11.47
572.8  302232.20  33649.36  11.13
574.2  305052.30  33002.13  10.82
575.6  308069.75  32420.20  10.52
577.0  311036.83  31898.09  10.26
578.4  314387.50  31465.00  10.01
579.8  317416.43  31055.11  9.78
581.2  320400.00  30696.10  9.58
582.5  323257.50  30372.00  9.40
583.9  326267.10  30091.12  9.22
585.3  329118.80  29843.28  9.07
586.7  332062.50  29635.76  8.92
588.1  334984.10  29472.95  8.80
589.5  338248.65  29390.40  8.69
590.9  341150.18  29317.46  8.59
592.3  344055.83  29284.83  8.51
593.7  346996.13  29293.79  8.44
595.0  349885.80  29329.76  8.38
596.4  353125.50  29408.88  8.33
597.8  355742.30  29433.93  8.27
599.2  358778.55  29487.12  8.22
600.6  361911.83  29506.73  8.15
602.0  364863.60  29460.16  8.07
603.3  367718.00  29341.87  7.98
604.7  370690.38  29176.19  7.87
606.1  373641.68  28938.94  7.75
607.5  376902.68  28667.02  7.61
608.9  379941.10  28326.25  7.46
610.2  383082.98  27958.26  7.30
611.6  385962.50  27555.00  7.14
613.0  388732.23  27133.53  6.98
614.4  391424.73  26714.92  6.83
615.8  394608.30  26346.56  6.68
617.1  397295.10  25997.11  6.54
618.5  400508.25  25726.52  6.42
619.9  403191.45  25490.86  6.32
621.3  406078.08  25322.87  6.24
622.6  408944.25  25213.50  6.17
624.0  411580.13  25145.70  6.11
625.4  414644.03  25158.74  6.07
626.8  417557.40  25218.01  6.04
628.1  420306.95  25306.26  6.02
629.5  422987.95  25416.02  6.01
630.9  425698.15  25527.10  6.00
632.2  428589.28  25608.29  5.98
633.6  430926.60  25590.37  5.94
635.0  433753.15  25509.46  5.88
636.3  436715.70  25328.01  5.80
637.7  439390.13  25024.85  5.70
639.1  442323.20  24625.70  5.57
640.4  444948.13  24141.58  5.43
641.8  447712.20  23616.24  5.27
643.2  450255.60  23033.33  5.12
644.5  453075.00  22451.33  4.96
645.9  455590.80  21855.73  4.80
647.2  457845.85  21320.79  4.66
648.6  460323.20  20900.27  4.54
650.0  463017.60  20573.04  4.44
651.3  465993.95  20328.86  4.36
652.7  470067.75  20142.60  4.29
654.0  472922.25  19907.90  4.21
655.4  475054.65  19637.80  4.13
656.8  476579.78  19329.87  4.06
658.1  479194.28  19033.56  3.97
659.5  482371.20  18673.92  3.87
660.8  485173.50  18281.90  3.77
662.2  487842.63  17885.42  3.67
663.5  490560.28  17513.04  3.57
664.9  492282.08  17178.31  3.49
666.2  494423.48  16910.79  3.42
667.6  496883.25  16723.80  3.37
668.9  499478.40  16629.12  3.33
670.3  502623.63  16595.48  3.30
671.6  504560.00  16620.80  3.29
673.0  506807.20  16705.60  3.30
674.3  509174.05  16849.65  3.31
675.7  511660.80  17066.64  3.34
677.0  513836.03  17306.62  3.37
678.4  515979.40  17622.72  3.42
679.7  518227.43  18004.74  3.47
681.1  520682.15  18464.99  3.55
682.4  522822.75  19040.50  3.64
683.8  525026.25  19769.35  3.77
685.1  527186.55  20692.96  3.93
686.4  529292.40  21894.90  4.14
687.8  531645.15  23522.46  4.42
689.1  534006.20  25694.01  4.81
690.5  535967.80  28589.52  5.33
691.8  538435.43  32461.84  6.03
693.1  540792.00  37427.40  6.92
694.5  543059.90  43472.76  8.01
695.8  545419.70  50534.68  9.27
697.1  547648.40  58505.56  10.68
698.5  549893.13  67263.93  12.23
699.8  552150.40  76608.11  13.87
701.1  553968.98  86266.88  15.57
702.5  555937.38  96095.87  17.29
703.8  558242.63  105978.73  18.98
705.1  560043.85  115572.96  20.64
706.5  562257.98  125015.14  22.23
707.8  564014.73  134134.74  23.78
709.1  566209.00  143066.73  25.27
710.5  568274.20  151734.83  26.70
711.8  570137.00  160114.80  28.08
713.1  571943.00  168290.53  29.42
714.4  573953.50  176322.19  30.72
715.8  576171.20  184251.88  31.98
717.1  578339.45  191988.73  33.20
718.4  580490.85  199538.14  34.37
719.7  582589.80  206870.91  35.51
721.0  584236.08  213841.23  36.60
722.4  586001.25  220647.84  37.65
723.7  587853.10  227254.09  38.66
725.0  589484.88  233524.84  39.62
726.3  591661.20  239758.48  40.52
727.6  593304.00  245504.90  41.38
729.0  595096.60  251029.89  42.18
730.3  596947.35  256339.19  42.94
731.6  598382.30  261156.36  43.64
732.9  600240.23  265912.10  44.30
734.2  601763.25  270253.50  44.91
735.5  603493.00  274405.19  45.47
736.8  605412.85  278389.88  45.98
738.1  607192.58  282034.97  46.45
739.5  608847.60  285418.44  46.88
740.8  610672.70  288634.35  47.26
742.1  612063.38  291484.44  47.62
743.4  613671.10  294228.71  47.95
744.7  615440.00  296848.53  48.23
746.0  616858.45  299106.80  48.49
747.3  618367.40  301235.01  48.71
748.6  619854.00  303186.84  48.91
749.9  621478.20  305077.01  49.09
751.2  622557.68  306604.43  49.25
752.5  623934.00  308147.27  49.39
753.8  625099.05  309493.44  49.51
755.1  626555.20  310883.38  49.62
756.4  627609.88  311968.81  49.71
757.7  629527.25  313417.13  49.79
759.0  632983.58  315565.52  49.85
760.3  635559.95  317211.21  49.91
761.6  638262.10  318840.27  49.95
762.9  639540.00  319721.23  49.99
764.2  640164.10  320253.71  50.03
765.5  640925.73  320809.75  50.05
766.8  641361.05  321188.99  50.08
768.1  642332.25  321778.38  50.10
769.3  643465.25  322447.89  50.11
770.6  644706.05  323134.52  50.12
771.9  645809.45  323708.82  50.12
773.2  647115.30  324402.39  50.13
774.5  647845.05  324838.24  50.14
775.8  648831.08  325354.07  50.14
777.1  649856.90  325916.88  50.15
778.4  651047.25  326495.57  50.15
779.6  652189.20  327099.52  50.15
780.9  652728.38  327411.45  50.16
782.2  653547.88  327869.60  50.17
783.5  654382.00  328282.43  50.17
784.8  655068.75  328609.05  50.16
786.0  655774.65  328957.30  50.16
787.3  656468.70  329328.05  50.17
788.6  657245.38  329730.88  50.17
789.9  657754.40  330038.24  50.18
791.2  658995.85  330657.87  50.18
792.4  660015.13  331147.12  50.17
793.7  661409.35  331862.28  50.18
795.0  662239.35  332325.03  50.18
796.2  663509.15  332929.70  50.18
797.5  664559.38  333458.25  50.18
798.8  665812.00  334104.17  50.18
800.0  666820.00  334590.67  50.18
801.3  667855.13  335163.15  50.19
802.6  668808.00  335616.00  50.18
803.8  669764.55  336122.85  50.19
805.1  670711.13  336544.95  50.18
806.4  671554.38  336981.87  50.18
807.7  672541.93  337477.64  50.18
808.9  673573.05  338005.82  50.18
810.2  674358.30  338399.04  50.18
811.4  675316.00  338892.53  50.18
812.7  676489.20  339490.26  50.18
814.0  677684.70  340076.66  50.18
815.2  679045.80  340726.30  50.18
816.5  680128.75  341278.00  50.18
817.7  680824.25  341650.60  50.18
819.0  681406.60  341964.37  50.19
820.2  682100.55  342334.10  50.19
821.5  683171.80  342829.73  50.18
822.7  684185.08  343330.68  50.18
824.0  685124.05  343775.73  50.18
825.2  685725.30  344115.20  50.18
826.5  686429.85  344483.51  50.18
827.7  687291.28  344965.84  50.19
829.0  688261.88  345381.16  50.18
830.2  689202.40  345860.91  50.18
831.5  690140.93  346305.15  50.18
832.7  691110.45  346769.46  50.18
834.0  691764.98  347102.19  50.18
835.2  692645.95  347610.45  50.19
836.4  693373.20  347973.55  50.19
837.7  694260.00  348369.75  50.18
838.9  695468.65  348954.83  50.18
840.1  696465.00  349396.96  50.17
841.4  697383.00  349881.88  50.17
842.6  698177.90  350347.85  50.18
843.8  699059.40  350756.12  50.18
845.1  699854.10  351231.32  50.19
846.3  700865.55  351694.42  50.18
847.5  701779.00  352156.13  50.18
848.8  702763.90  352643.13  50.18
850.0  704050.60  353242.67  50.17
851.2  704843.05  353704.27  50.18
852.5  706040.50  354270.07  50.18
853.7  706766.85  354664.08  50.18
854.9  707992.35  355246.06  50.18
856.1  709131.30  355774.45  50.17
857.4  710054.10  356225.68  50.17
858.6  711184.60  356737.55  50.16
859.8  712312.40  357291.21  50.16
861.0  713369.30  357786.99  50.15
862.2  714474.60  358316.00  50.15
863.5  715391.75  358805.23  50.16
864.7  716450.00  359298.33  50.15
865.9  717425.63  359774.05  50.15
867.1  718218.75  360059.17  50.13
868.3  719524.58  360647.29  50.12
869.5  720809.65  361259.54  50.12
870.8  721854.00  361816.68  50.12
872.0  722844.90  362321.66  50.12
873.2  723654.68  362731.07  50.12
874.4  724669.95  363133.38  50.11
875.6  725936.30  363706.53  50.10
876.8  727427.25  364337.82  50.09
878.0  728576.80  364850.17  50.08
879.2  729530.35  365350.29  50.08
880.4  730566.00  365886.13  50.08
881.6  731540.30  366290.64  50.07
882.8  732915.50  366877.21  50.06
884.0  733947.83  367300.57  50.04
885.2  735335.00  367899.83  50.03
886.5  736670.90  368500.25  50.02
887.7  737528.85  368967.21  50.03
888.8  738864.40  369601.55  50.02
890.0  739777.50  369999.00  50.01
891.2  740803.05  370463.60  50.01
892.4  742286.33  371099.08  49.99
893.6  743893.00  371920.94  50.00
894.8  745617.15  372665.96  49.98
896.0  747253.63  373291.19  49.96
897.2  748774.13  374059.62  49.96
898.4  750838.20  374970.96  49.94
899.6  751874.60  375509.71  49.94
900.8  752460.80  375698.53  49.93
902.0  753131.75  375990.64  49.92
903.2  753108.50  375956.37  49.92
904.3  754430.63  376418.25  49.89
905.5  755568.00  376863.30  49.88
906.7  756722.63  377494.12  49.89
907.9  757662.03  377951.17  49.88
909.1  758636.73  378332.31  49.87
910.2  758835.00  378472.50  49.88
911.4  759141.45  378374.85  49.84
912.6  759752.50  378494.00  49.82
913.8  760540.55  378884.19  49.82
915.0  760919.40  379021.49  49.81
916.2  761201.78  379057.74  49.80
917.3  761554.73  379331.43  49.81
918.5  761913.45  379388.36  49.79
919.7  761712.25  379305.90  49.80
920.8  762242.70  379314.08  49.76
922.0  762175.98  379176.49  49.75
923.2  762678.90  379375.47  49.74
924.4  763208.38  379529.50  49.73
925.5  763793.20  379782.75  49.72
926.7  764352.38  379984.19  49.71
927.9  765759.68  380538.33  49.69
929.0  768711.60  381883.68  49.68
930.2  773315.20  383895.76  49.64
931.4  778087.35  386243.62  49.64
932.5  782687.95  388308.36  49.61
933.7  785164.13  389407.43  49.60
934.9  786388.75  389881.33  49.58
936.0  785233.80  389290.38  49.58
937.2  782281.00  387516.37  49.54
938.3  778293.75  385408.83  49.52
939.5  775979.10  384178.08  49.51
940.7  775982.90  383856.55  49.47
941.8  778904.75  384986.42  49.43
943.0  780520.35  385736.46  49.42
944.2  782508.00  386447.20  49.39
945.3  781797.00  385859.84  49.36
946.5  779966.25  384778.33  49.33
947.6  780810.00  384995.47  49.31
948.8  779706.30  384198.59  49.27
949.9  779773.23  384144.25  49.26
951.1  779772.40  383764.02  49.21
952.2  778982.28  383003.03  49.17
953.4  778948.50  382503.98  49.11
954.5  777630.00  381433.15  49.05
955.7  777168.80  380847.10  49.00
956.8  777577.20  380674.24  48.96
958.0  776167.20  379954.02  48.95
959.1  775656.00  379330.56  48.90
960.3  775612.50  378880.00  48.85
961.4  775988.90  378784.60  48.81
962.6  775216.80  378265.92  48.79
963.7  775399.80  378293.63  48.79
964.9  775812.98  378139.24  48.74
966.0  775979.75  378076.02  48.72
967.2  776630.40  378073.92  48.68
968.3  777330.25  378612.02  48.71
969.5  777272.30  378589.77  48.71
970.6  777930.15  378292.19  48.63
971.8  777821.45  378111.02  48.61
972.9  778571.50  378495.13  48.61
974.0  779276.45  378745.11  48.60
975.2  777667.50  378040.50  48.61
976.3  778472.53  378385.71  48.61
977.5  777756.08  378052.41  48.61
978.6  777825.68  377561.08  48.54
979.7  777884.80  377271.25  48.50
980.9  778257.08  377670.10  48.53
982.0  776856.20  377237.21  48.56
983.2  777029.40  377107.17  48.53
984.3  775551.35  376159.00  48.50
985.4  774268.60  375759.53  48.53
986.6  775635.50  375974.71  48.47
987.7  774905.63  375133.80  48.41
988.9  776259.93  375636.81  48.39
990.0  775336.60  375436.53  48.42
993.1  858958.80  413657.40  48.16
996.9  858032.50  413852.32  48.23
1000.7  857073.43  413985.60  48.30
1004.5  855819.20  413877.67  48.36
1008.4  856416.11  414779.52  48.43
1012.2  857447.33  415756.02  48.49
1016.0  856986.48  416070.60  48.55
1019.8  855340.35  415676.88  48.60
1023.7  853575.10  415137.69  48.64
1027.5  850636.47  414048.89  48.68
1031.3  848599.63  413271.50  48.70
1035.1  847197.23  412728.76  48.72
1038.9  846539.49  412497.57  48.73
1042.7  845968.43  412371.82  48.75
1046.5  845137.13  412043.13  48.75
1050.3  843436.98  411229.55  48.76
1054.2  841300.90  410263.90  48.77
1058.0  840430.80  409745.31  48.75
1061.8  839135.25  409180.64  48.76
1065.6  837090.46  408026.55  48.74
1069.4  834507.17  406676.66  48.73
1073.2  832212.88  405413.13  48.72
1077.0  830649.60  404491.58  48.70
1080.8  830347.83  404034.71  48.66
1084.6  830144.33  403666.48  48.63
1088.4  829599.32  403210.56  48.60
1092.2  828303.70  402298.33  48.57
1096.0  826811.27  401275.76  48.53
1099.8  825216.25  400110.36  48.49
1103.6  823212.42  398778.15  48.44
1107.4  821535.38  397536.07  48.39
1111.2  820002.12  396366.45  48.34
1114.9  818934.00  395383.50  48.28
1118.7  818516.67  394537.25  48.20
1122.5  818474.37  393806.96  48.11
1126.3  815994.90  391820.85  48.02
1130.1  815386.90  390410.55  47.88
1133.9  811890.13  387174.10  47.69
1137.7  809257.80  384014.94  47.45
1141.4  805380.73  379980.66  47.18
1145.2  804328.35  376985.03  46.87
1149.0  802267.05  373706.04  46.58
1152.8  798923.60  370017.85  46.31
1156.6  795323.47  366675.11  46.10
1160.3  792059.40  363935.55  45.95
1164.1  787391.53  360881.58  45.83
1167.9  784351.71  358805.87  45.75
1171.7  781805.50  357106.01  45.68
1175.4  779257.92  355533.10  45.62
1179.2  777077.25  354097.29  45.57
1183.0  777308.50  353704.77  45.50
1186.7  777576.33  353410.33  45.45
1190.5  776422.13  352520.93  45.40
1194.3  773649.45  350975.82  45.37
1198.0  770411.23  349321.73  45.34
1201.8  767844.00  348040.00  45.33
1205.6  766260.46  347361.12  45.33
1209.3  765257.25  347141.36  45.36
1213.1  764081.79  346844.22  45.39
1216.8  762228.80  346404.23  45.45
1220.6  759917.67  345737.05  45.50
1224.3  757533.33  345020.24  45.55
1228.1  755227.27  344376.39  45.60
1231.9  752718.20  343534.84  45.64
1235.6  750208.80  342587.46  45.67
1239.4  747724.32  341747.16  45.70
1243.1  745495.20  340907.79  45.73
1246.9  743409.52  340052.61  45.74
1250.6  741303.63  339139.00  45.75
1254.3  739255.20  338243.66  45.75
1258.1  737042.67  337231.24  45.75
1261.8  734511.87  336029.43  45.75
1265.6  732279.95  334880.32  45.73
1269.3  730345.40  333812.92  45.71
1273.1  730938.94  333815.54  45.67
1276.8  730709.80  333428.58  45.63
1280.6  729580.31  332602.07  45.59
1284.3  726770.48  330912.56  45.53
1288.0  724974.79  329591.45  45.46
1291.8  723643.20  328395.60  45.38
1295.5  722209.19  327047.24  45.28
1299.2  719881.50  325230.19  45.18
1302.9  716915.83  322939.65  45.05
1306.7  713704.95  320415.30  44.89
1310.4  710608.83  317708.16  44.71
1314.1  708046.88  315118.39  44.51
1317.9  705491.15  312302.47  44.27
1321.6  702604.18  309166.00  44.00
1325.3  699723.23  305830.25  43.71
1329.0  697070.73  302522.73  43.40
1332.8  693426.25  298539.46  43.05
1336.5  689968.50  294658.00  42.71
1340.2  688151.95  291479.49  42.36
1343.9  687634.80  288826.42  42.00
1347.6  687665.18  286396.31  41.65
1351.4  688315.00  284339.82  41.31
1355.1  690725.84  283054.92  40.98
1358.8  690920.06  280735.14  40.63
1362.5  691278.58  278236.82  40.25
1366.2  688551.71  274048.80  39.80
1369.9  683057.00  268128.43  39.25
1373.6  678285.94  261620.88  38.57
1377.3  676082.87  254777.06  37.68
1381.0  674119.90  246310.75  36.54
1384.8  670364.90  235279.46  35.10
1388.4  665160.70  222387.19  33.43
1392.2  660613.63  208691.33  31.59
1395.9  658752.42  195393.81  29.66
1399.6  654546.10  181809.41  27.78
1403.3  651892.80  169653.25  26.02
1407.0  649093.50  158863.18  24.47
1410.7  647172.19  149935.55  23.17
1414.3  644517.00  142506.43  22.11
1418.1  641848.96  136625.00  21.29
1421.7  639471.47  132010.83  20.64
1425.4  637687.01  128528.65  20.16
1429.1  633900.75  125490.75  19.80
1432.8  632420.40  123623.27  19.55
1436.5  629133.38  121863.86  19.37
1440.2  625849.50  120558.05  19.26
1443.9  623804.87  119812.37  19.21
1447.6  620264.00  119048.00  19.19
1451.2  617077.60  118542.54  19.21
1454.9  615220.20  118480.63  19.26
1458.6  611392.83  118365.20  19.36
1462.3  610464.40  119159.11  19.52
1466.0  610428.67  120537.47  19.75
1469.7  608602.87  122019.33  20.05
1473.3  606375.00  123754.40  20.41
1477.0  602117.13  125339.40  20.82
1480.7  598866.17  127300.73  21.26
1484.4  595104.90  129177.09  21.71
1488.0  592003.75  131289.37  22.18
1491.7  588525.98  133292.95  22.65
1495.4  585030.53  135318.50  23.13
1499.0  582068.18  137378.15  23.60
1502.7  579267.28  139486.52  24.08
1506.4  576534.18  141500.43  24.54
1510.0  573790.21  143453.84  25.00
1513.7  571086.50  145305.15  25.44
1517.4  568595.53  147134.40  25.88
1521.0  566156.98  148929.55  26.31
1524.7  563670.20  150556.87  26.71
1528.3  561229.57  152133.65  27.11
1532.0  558715.20  153559.06  27.48
1535.7  555977.25  154815.11  27.85
1539.3  553421.57  156038.47  28.20
1543.0  551758.38  157446.92  28.54
1546.6  550391.42  158850.88  28.86
1550.3  548811.03  160087.95  29.17
1553.9  546500.13  161004.31  29.46
1557.6  544258.80  161887.67  29.74
1561.2  541778.14  162549.83  30.00
1564.9  539101.73  163125.04  30.26
1568.5  536362.67  163592.00  30.50
1572.2  534054.27  164115.23  30.73
1575.8  532199.20  164745.01  30.96
1579.5  530331.80  165281.09  31.17
1583.1  528029.02  165655.97  31.37
1586.8  525779.73  165979.89  31.57
1590.4  523463.63  166250.69  31.76
1594.0  521148.47  166489.63  31.95
1597.7  519274.57  166829.49  32.13
1601.3  517270.73  167094.80  32.30
1604.9  514863.07  167168.41  32.47
1608.6  511929.90  167021.65  32.63
1612.2  509004.38  166770.67  32.76
1615.8  506432.40  166592.40  32.90
1619.5  504132.38  166448.53  33.02
1623.1  501368.18  166099.02  33.13
1626.7  498582.97  165670.03  33.23
1630.3  496060.20  165257.32  33.31
1634.0  493708.37  164812.16  33.38
1637.6  491490.00  164311.19  33.43
1641.2  489291.48  163646.35  33.45
1644.8  486760.65  162742.23  33.43
1648.5  484115.58  161769.30  33.42
1652.1  482011.05  160896.74  33.38
1655.7  480141.40  160202.74  33.37
1659.3  478351.13  159659.10  33.38
1662.9  475129.95  158718.67  33.41
1666.6  471567.25  157671.13  33.44
1670.2  468288.98  156616.12  33.44
1673.8  465012.43  155416.04  33.42
1677.4  462481.50  154344.31  33.37
1681.0  460833.33  153392.34  33.29
1684.6  459954.46  152519.85  33.16
1688.2  458494.40  151247.20  32.99
1691.8  456829.13  150003.29  32.84
1695.4  455992.09  149027.44  32.68
1699.0  455046.40  148018.88  32.53
1702.6  454464.67  147052.71  32.36
1706.2  452989.53  145652.85  32.15
1709.8  450810.38  144077.37  31.96
1713.4  449195.50  142780.67  31.79
1717.0  447527.78  141625.20  31.65
1720.6  445797.42  140560.90  31.53
1724.2  444340.53  139617.86  31.42
1727.8  442978.63  138780.51  31.33
1731.4  442175.10  138186.73  31.25
1735.0  442151.98  137862.36  31.18
1738.6  441655.88  137273.36  31.08
1742.2  440832.90  136402.19  30.94
1745.8  439219.20  135161.29  30.77
1749.4  436888.58  133664.04  30.59
1753.0  433209.20  131709.77  30.40
1756.6  429467.50  129823.50  30.23
1760.1  426220.00  128137.26  30.06
1763.7  422407.98  126340.60  29.91
1767.3  419307.56  124833.10  29.77
1770.9  416650.54  123494.28  29.64
1774.5  413591.53  122092.08  29.52
1778.0  411415.01  121076.18  29.43
1781.6  409145.79  120172.87  29.37
1785.2  406547.50  119265.24  29.34
1788.8  403805.83  118431.37  29.33
1792.3  401571.59  117770.11  29.33
1795.9  400978.93  117647.52  29.34
1799.5  401645.24  117923.96  29.36
1803.1  404501.00  118862.50  29.38
1806.6  407377.32  119786.31  29.40
1810.2  409540.43  120451.50  29.41
1813.8  409058.07  120324.83  29.42
1817.3  408098.63  120072.15  29.42
1820.9  406828.13  119713.39  29.43
1824.5  405690.98  119321.46  29.41
1828.0  406019.74  119293.97  29.38
1831.6  407157.88  119405.92  29.33
1835.2  407080.71  119022.47  29.24
1838.7  407561.00  118578.83  29.09
1842.3  406001.75  117369.00  28.91
1845.8  404051.36  115760.75  28.65
1849.4  403466.00  114178.13  28.30
1852.9  401543.75  111786.01  27.84
1856.5  399953.99  108902.59  27.23
1860.0  399426.10  105708.68  26.47
1863.6  398985.18  101794.88  25.51
1867.1  399570.13  97349.96  24.36
1870.7  401086.05  92027.87  22.94
1874.2  399575.86  84981.66  21.27
1877.8  394693.36  76689.63  19.43
1881.3  389967.35  68078.95  17.46
1884.9  386691.17  59817.00  15.47
1888.4  383858.47  51892.39  13.52
1891.9  381544.29  44871.67  11.76
1895.5  379581.53  39010.22  10.28
1899.0  378582.98  34520.61  9.12
1901.3  401956.00  26909.78  6.69
1904.1  402029.67  24178.55  6.01
1906.8  400178.30  21974.86  5.49
1909.6  396303.80  20168.71  5.09
1912.4  392422.65  18827.97  4.80
1915.1  388455.67  17720.67  4.56
1917.9  384639.10  16929.18  4.40
1920.6  381690.67  16308.11  4.27
1923.3  379105.93  15873.80  4.19
1926.1  375743.85  15558.90  4.14
1928.8  371935.20  15345.20  4.13
1931.6  370720.98  15314.64  4.13
1934.3  366983.77  15278.48  4.16
1937.0  363159.60  15293.80  4.21
1939.8  359851.43  15414.07  4.28
1942.5  355281.40  15523.97  4.37
1945.2  351568.50  15718.39  4.47
1947.9  348677.33  15988.77  4.59
1950.7  344399.70  16240.46  4.72
1953.4  340855.67  16554.38  4.86
1956.1  338145.17  16963.49  5.02
1958.8  335923.00  17403.36  5.18
1961.5  332974.60  17834.37  5.36
1964.2  329574.33  18273.29  5.54
1966.9  326575.47  18735.29  5.74
1969.6  323893.07  19240.41  5.94
1972.3  321372.68  19778.81  6.15
1975.0  318886.67  20322.22  6.37
1977.7  316672.00  20905.30  6.60
1980.4  314468.00  21498.40  6.84
1983.1  312119.17  22088.43  7.08
1985.8  310039.20  22698.40  7.32
1988.4  308037.95  23327.88  7.57
1991.1  306266.10  23967.53  7.83
1993.8  304804.50  24617.13  8.08
1996.5  303282.00  25280.27  8.34
1999.1  301925.98  25930.84  8.59
2001.8  300715.32  26600.25  8.85
2004.5  299510.70  27280.30  9.11
2007.1  298015.13  27882.42  9.36
2009.8  296062.08  28447.22  9.61
2012.4  294783.77  29059.84  9.86
2015.1  293586.13  29655.58  10.10
2017.8  292461.03  30240.23  10.34
2020.4  291351.15  30811.33  10.58
2023.1  290885.30  31397.34  10.79
2025.7  290612.53  31990.19  11.01
2028.3  289787.87  32512.48  11.22
2031.0  289215.05  33031.28  11.42
2033.6  288943.75  33566.58  11.62
2036.2  288552.83  34050.41  11.80
2038.9  287601.60  34417.07  11.97
2041.5  286666.67  34770.83  12.13
2044.1  285875.00  35131.95  12.29
2046.8  284751.18  35423.03  12.44
2049.4  283911.87  35716.78  12.58
2052.0  283673.68  36091.33  12.72
2054.6  283304.53  36438.31  12.86
2057.2  282259.45  36718.22  13.01
2059.8  280791.00  36932.00  13.15
2062.4  279416.58  37178.49  13.31
2065.0  278049.45  37419.88  13.46
2067.6  276188.70  37579.55  13.61
2070.2  274716.37  37775.87  13.75
2072.8  273809.25  38055.42  13.90
2075.4  272774.83  38311.67  14.05
2078.0  272128.57  38604.48  14.19
2080.6  270886.60  38808.99  14.33
2083.2  269570.57  39009.50  14.47
2085.8  268284.10  39155.90  14.59
2088.4  267215.48  39339.64  14.72
2090.9  265568.00  39445.33  14.85
2093.5  263690.80  39504.40  14.98
2096.1  261904.50  39560.95  15.11
2098.7  260420.97  39629.59  15.22
2101.2  258554.80  39654.20  15.34
2103.8  257107.08  39735.06  15.45
2106.4  255656.80  39794.56  15.57
2108.9  254598.98  39880.23  15.66
2111.5  253668.92  39993.92  15.77
2114.0  253066.67  40148.33  15.86
2116.6  250903.40  40036.09  15.96
2119.1  249810.40  40058.20  16.04
2121.7  249242.18  40168.59  16.12
2124.2  249096.50  40326.17  16.19
2126.8  247925.25  40336.78  16.27
2129.3  246850.85  40354.07  16.35
2131.9  247052.27  40577.78  16.42
2134.4  246208.55  40652.23  16.51
2136.9  245959.07  40783.80  16.58
2139.4  244902.08  40783.39  16.65
2142.0  244483.77  40904.68  16.73
2144.5  243922.58  40981.22  16.80
2147.0  243482.90  41079.52  16.87
2149.5  243125.23  41177.31  16.94
2152.1  243538.53  41378.28  16.99
2154.6  243600.00  41535.73  17.05
2157.1  243504.03  41647.19  17.10
2159.6  242452.53  41569.30  17.15
2162.1  242253.80  41648.84  17.19
2164.6  241586.72  41624.50  17.23
2167.1  240658.23  41555.28  17.27
2169.6  240810.32  41679.17  17.31
2172.1  239979.90  41649.73  17.36
2174.6  239660.40  41721.87  17.41
2177.1  238593.58  41672.19  17.47
2179.5  238140.97  41697.49  17.51
2182.0  237793.92  41776.92  17.57
2184.5  236833.85  41743.18  17.63
2187.0  236051.10  41773.11  17.70
2189.5  235043.20  41755.48  17.77
2191.9  233811.05  41693.67  17.83
2194.4  232148.50  41527.83  17.89
2196.9  231031.90  41478.37  17.95
2199.3  229603.80  41359.87  18.01
2201.8  228426.33  41279.78  18.07
2204.3  227731.70  41238.40  18.11
2206.7  226491.35  41147.38  18.17
2209.2  225303.30  41046.30  18.22
2211.6  223372.53  40770.98  18.25
2214.1  222683.42  40742.92  18.30
2216.5  222310.17  40761.33  18.34
2219.0  220958.83  40560.42  18.36
2221.4  220975.50  40597.20  18.37
2223.9  219823.07  40380.60  18.37
2226.3  218615.27  40100.97  18.34
2228.7  217673.73  39843.27  18.30
2231.1  216942.50  39621.86  18.26
2233.6  215913.60  39285.87  18.20
2236.0  214875.58  38865.40  18.09
2238.4  214037.75  38460.40  17.97
2240.9  213309.00  38058.60  17.84
2243.3  212446.17  37606.36  17.70
2245.7  211643.70  37111.57  17.53
2248.1  210690.13  36626.49  17.38
2250.5  209863.87  36133.78  17.22
2252.9  209190.67  35676.14  17.05
2255.3  208455.87  35191.18  16.88
2257.7  207599.70  34708.18  16.72
2260.1  206723.60  34222.00  16.55
2262.5  205616.00  33710.80  16.40
2264.9  204663.13  33257.52  16.25
2267.3  203775.00  32813.73  16.10
2269.7  202862.53  32362.50  15.95
2272.1  202006.33  31976.17  15.83
2274.5  201287.27  31628.24  15.71
2276.8  200589.07  31295.11  15.60
2279.2  199855.30  30931.03  15.48
2281.6  199258.70  30618.18  15.37
2284.0  198871.20  30303.90  15.24
2286.3  198368.20  29993.20  15.12
2288.7  197821.57  29660.16  14.99
2291.1  197304.50  29290.17  14.85
2293.4  196602.80  28919.40  14.71
2295.8  195938.60  28535.65  14.56
2298.2  195092.90  28096.97  14.40
2300.5  194015.05  27676.00  14.26
2302.9  192612.75  27196.10  14.12
2305.2  191142.33  26740.55  13.99
2307.6  189606.67  26306.94  13.87
2309.9  188578.17  25976.19  13.77
2312.2  187628.17  25636.83  13.66
2314.6  186561.47  25397.04  13.61
2316.9  185499.73  25141.47  13.55
2319.2  184790.65  24929.73  13.49
2321.6  184161.78  24716.07  13.42
2323.9  183399.40  24426.53  13.32
2326.2  182538.50  24125.56  13.22
2328.6  181842.20  23875.53  13.13
2330.9  181510.53  23678.26  13.05
2333.2  181082.25  23479.42  12.97
2335.5  180503.48  23214.82  12.86
2337.8  180074.00  22995.53  12.77
2340.1  179539.87  22758.07  12.68
2342.4  179078.85  22550.40  12.59
2344.8  178367.80  22252.94  12.48
2347.1  177585.30  21994.57  12.39
2349.4  176893.87  21784.71  12.32
2351.6  176168.00  21546.00  12.23
2353.9  175070.60  21315.60  12.18
2356.2  174302.43  21100.58  12.11
2358.5  173475.20  20846.35  12.02
2360.8  172781.25  20622.92  11.94
2363.1  172400.08  20450.64  11.86
2365.4  172003.50  20263.50  11.78
2367.7  171402.60  20073.07  11.71
2369.9  170669.95  19837.28  11.62
2372.2  169519.95  19520.73  11.52
2374.5  168257.50  19224.17  11.43
2376.7  167228.00  18964.00  11.34
2379.0  166109.35  18669.02  11.24
2381.3  164706.85  18300.76  11.11
2383.5  163723.00  17999.33  10.99
2385.8  163092.42  17742.08  10.88
2388.0  162231.20  17451.04  10.76
2390.3  161493.47  17213.09  10.66
2392.5  161018.00  16983.84  10.55
2394.8  160117.92  16670.03  10.41
2397.0  159562.00  16413.47  10.29
2399.3  159011.20  16125.22  10.14
2401.5  158302.30  15874.60  10.03
2403.8  157655.03  15643.76  9.92
2406.0  157232.17  15408.92  9.80
2408.2  156408.00  15160.60  9.69
2410.4  155501.82  14871.38  9.56
2412.7  155012.20  14622.80  9.43
2414.9  154473.33  14346.49  9.29
2417.1  154414.40  14129.42  9.15
2419.3  153961.63  13924.89  9.04
2421.6  153191.03  13625.65  8.89
2423.8  152528.20  13340.11  8.75
2426.0  152150.60  13087.00  8.60
2428.2  151882.50  12916.75  8.50
2430.4  151967.92  12688.58  8.35
2432.6  151786.60  12479.17  8.22
2434.8  151176.75  12251.05  8.10
2437.0  150550.40  11955.23  7.94
2439.2  150145.23  11753.01  7.83
2441.4  149464.00  11513.33  7.70
2443.6  149339.40  11275.74  7.55
2445.7  149358.37  11109.30  7.44
2447.9  149353.75  10897.90  7.30
2450.1  148614.00  10653.33  7.17
2452.3  147754.20  10428.92  7.06
2454.5  147099.87  10242.71  6.96
2456.6  146387.58  9994.06  6.83
2458.8  145255.13  9665.14  6.65
2461.0  144939.60  9511.95  6.56
2463.1  144528.67  9338.33  6.46
2465.3  143952.67  9156.00  6.36
2467.5  143502.67  9011.89  6.28
2469.6  143090.83  8815.19  6.16
2471.8  142866.63  8693.14  6.08
2473.9  142218.92  8537.75  6.00
2476.1  141418.75  8337.08  5.90
2478.2  140549.47  8167.21  5.81
2480.4  139599.35  8061.48  5.77
2482.5  138862.57  7831.61  5.64
2484.6  137842.00  7735.33  5.61
2486.8  137088.03  7666.74  5.59
2488.9  136825.00  7493.80  5.48
2491.1  135521.83  7363.78  5.43
2493.2  134298.03  7226.80  5.38
2495.3  132655.87  7090.03  5.34
2497.4  131362.52  7001.33  5.33
2499.5  130468.27  6883.86  5.28
2501.7  130410.50  6817.67  5.23
2503.8  130798.27  6731.35  5.15
2505.9  131583.00  6706.28  5.10
2508.0  132468.83  6790.75  5.13
2510.1  133249.80  6773.70  5.08
2512.2  134156.42  6789.22  5.06
2514.3  135357.95  6855.84  5.06
2516.4  136955.62  6980.30  5.10
