/*** Spectra Vista SIG Data ***/
name= 30_20220926_ACRU_28_avg.sig
comm= Averaged Ref/Tar of files: HR.092722.0009_moc.sig,HR.092722.0010_moc.sig,HR.092722.0011_moc.sig
data=
337.3  6317.33  425.93  6.74
338.8  6541.60  404.96  6.19
340.3  6994.85  385.30  5.51
341.8  7258.00  394.01  5.43
343.2  7727.78  385.75  4.99
344.7  8072.25  384.39  4.76
346.2  8471.75  390.10  4.60
347.7  8864.80  390.47  4.40
349.2  9147.60  393.12  4.30
350.6  9642.60  386.82  4.01
352.1  10188.00  381.38  3.74
353.6  10801.60  377.42  3.49
355.1  11309.25  395.35  3.50
356.6  11973.80  425.16  3.55
358.0  12475.03  428.20  3.43
359.5  12926.70  420.44  3.25
361.0  13698.30  430.35  3.14
362.5  14361.08  450.41  3.14
364.0  15105.53  465.53  3.08
365.4  15767.63  467.89  2.97
366.9  16415.03  497.38  3.03
368.4  17157.45  515.16  3.00
369.9  17861.00  535.05  3.00
371.3  18751.43  561.27  2.99
372.8  19533.20  590.75  3.02
374.3  20461.40  596.13  2.91
375.8  21288.48  612.77  2.88
377.2  22060.35  629.79  2.85
378.7  22913.63  642.13  2.80
380.2  23726.25  635.71  2.68
381.7  24687.00  648.07  2.63
383.1  25677.08  664.84  2.59
384.6  26602.95  691.99  2.60
386.1  27575.18  713.04  2.59
387.6  28495.65  711.01  2.50
389.0  29515.28  734.95  2.49
390.5  30486.65  739.25  2.42
392.0  31619.25  777.73  2.46
393.4  32725.88  805.36  2.46
394.9  33695.80  823.13  2.44
396.4  34914.00  852.97  2.44
397.9  35971.80  869.35  2.42
399.3  36895.10  883.15  2.39
400.8  38063.85  922.51  2.42
402.2  39284.85  936.04  2.38
403.7  40517.85  961.36  2.37
405.2  41674.40  986.10  2.37
406.6  42989.70  1012.13  2.35
408.1  44025.00  1023.90  2.33
409.6  45170.40  1059.19  2.34
411.0  46424.95  1089.14  2.35
412.5  47767.90  1133.86  2.37
414.0  49179.55  1174.35  2.39
415.4  50464.80  1202.28  2.38
416.9  51784.50  1227.25  2.37
418.4  53107.15  1264.11  2.38
419.8  54439.00  1290.11  2.37
421.3  55925.10  1332.54  2.38
422.7  57426.20  1366.16  2.38
424.2  58896.68  1407.14  2.39
425.7  60372.13  1448.73  2.40
427.1  61891.20  1470.68  2.38
428.6  63382.78  1500.11  2.37
430.0  64882.13  1539.63  2.37
431.5  66556.43  1588.95  2.39
432.9  68241.88  1627.37  2.38
434.4  69950.18  1666.14  2.38
435.9  71625.30  1702.91  2.38
437.3  73325.25  1734.94  2.37
438.8  74962.58  1770.68  2.36
440.2  76686.58  1817.80  2.37
441.7  78578.68  1866.60  2.38
443.1  80387.10  1913.73  2.38
444.6  82204.95  1962.33  2.39
446.0  84026.33  2011.73  2.39
447.5  86000.00  2060.48  2.40
448.9  87736.00  2113.17  2.41
450.4  89650.00  2177.62  2.43
451.8  91455.00  2226.31  2.43
453.3  93290.03  2276.68  2.44
454.7  95114.93  2328.45  2.45
456.2  96936.70  2379.31  2.45
457.6  98855.10  2427.22  2.46
459.1  100687.65  2478.91  2.46
460.5  102551.08  2526.42  2.46
462.0  104608.80  2578.18  2.46
463.4  106598.45  2630.92  2.47
464.8  108572.63  2685.15  2.47
466.3  110493.08  2737.41  2.48
467.7  112553.60  2783.73  2.47
469.2  114410.10  2836.53  2.48
470.6  116447.63  2883.52  2.48
472.0  118510.18  2935.94  2.48
473.5  120528.23  2990.38  2.48
474.9  122735.25  3054.64  2.49
476.4  124822.00  3115.19  2.50
477.8  126896.00  3174.40  2.50
479.2  128971.05  3228.48  2.50
480.7  131090.85  3290.39  2.51
482.1  133313.95  3354.72  2.52
483.6  135538.20  3420.27  2.52
485.0  137776.88  3493.41  2.54
486.4  139869.65  3562.05  2.55
487.9  142125.75  3640.75  2.56
489.3  144256.88  3717.99  2.58
490.7  146432.15  3804.17  2.60
492.2  148685.00  3902.78  2.62
493.6  150952.20  4007.28  2.65
495.0  153250.50  4122.23  2.69
496.5  155414.70  4240.08  2.73
497.9  157708.25  4376.78  2.78
499.3  160006.63  4522.70  2.83
500.7  162300.50  4705.35  2.90
502.2  164692.88  4907.39  2.98
503.6  167028.60  5144.22  3.08
505.0  169298.53  5399.01  3.19
506.5  171728.25  5717.07  3.33
507.9  174143.28  6078.55  3.49
509.3  176450.63  6485.16  3.68
510.7  179065.58  6976.65  3.90
512.2  181725.60  7532.47  4.14
513.6  184565.33  8172.80  4.43
515.0  187324.55  8896.67  4.75
516.4  190156.00  9712.13  5.11
517.8  192984.50  10609.33  5.50
519.3  195921.60  11591.86  5.92
520.7  198615.90  12628.60  6.36
522.1  201260.48  13713.58  6.81
523.5  203816.35  14815.58  7.27
524.9  206757.08  15941.65  7.71
526.3  209444.40  17026.71  8.13
527.8  212254.38  18107.36  8.53
529.2  214732.80  19138.01  8.91
530.6  217424.70  20144.33  9.26
532.0  220331.80  21099.07  9.58
533.4  222850.30  21931.63  9.84
534.8  225366.90  22706.22  10.08
536.3  228313.00  23464.16  10.28
537.7  231248.00  24161.78  10.45
539.1  234189.48  24815.45  10.60
540.5  237057.00  25437.27  10.73
541.9  240037.55  26043.43  10.85
543.3  242557.10  26608.36  10.97
544.7  245542.00  27233.90  11.09
546.1  248356.50  27837.59  11.21
547.5  251272.80  28434.24  11.32
549.0  254315.20  29027.04  11.41
550.4  257186.48  29559.66  11.49
551.8  260168.80  30039.83  11.55
553.2  263061.83  30423.90  11.57
554.6  265903.10  30699.80  11.55
556.0  268826.25  30860.18  11.48
557.4  271913.60  30937.11  11.38
558.8  274805.60  30889.44  11.24
560.2  278040.00  30779.43  11.07
561.6  280969.70  30550.71  10.87
563.0  283772.45  30227.69  10.65
564.4  286940.50  29873.87  10.41
565.8  289940.10  29428.52  10.15
567.2  293109.48  28920.98  9.87
568.6  296130.60  28336.04  9.57
570.0  299003.25  27678.98  9.26
571.4  302402.85  27033.84  8.94
572.8  305549.20  26374.58  8.63
574.2  308410.20  25722.58  8.34
575.6  311486.50  25145.14  8.07
577.0  314491.10  24618.77  7.83
578.4  317909.38  24176.25  7.60
579.8  320970.50  23755.22  7.40
581.2  324026.75  23391.32  7.22
582.5  326925.00  23061.00  7.05
583.9  329967.20  22773.94  6.90
585.3  332851.50  22512.66  6.76
586.7  335850.90  22295.68  6.64
588.1  338851.90  22115.03  6.53
589.5  342181.50  21993.91  6.43
590.9  345105.13  21895.40  6.34
592.3  348052.28  21827.54  6.27
593.7  351009.75  21804.47  6.21
595.0  353944.80  21804.03  6.16
596.4  357229.88  21844.04  6.11
597.8  359883.80  21831.74  6.07
599.2  363012.00  21838.18  6.02
600.6  366157.28  21816.69  5.96
602.0  369120.60  21756.53  5.89
603.3  372034.00  21648.34  5.82
604.7  375043.73  21490.01  5.73
606.1  378036.53  21278.34  5.63
607.5  381365.75  21027.23  5.51
608.9  384414.80  20738.67  5.39
610.2  387547.88  20420.82  5.27
611.6  390472.50  20087.05  5.14
613.0  393251.40  19748.65  5.02
614.4  395976.50  19425.16  4.91
615.8  399244.80  19132.09  4.79
617.1  401924.00  18858.06  4.69
618.5  405169.95  18634.35  4.60
619.9  407861.40  18447.33  4.52
621.3  410792.85  18313.11  4.46
622.6  413712.00  18230.27  4.41
624.0  416409.00  18178.46  4.37
625.4  419456.03  18182.49  4.33
626.8  422384.30  18220.60  4.31
628.1  425135.20  18259.83  4.30
629.5  427865.90  18331.08  4.28
630.9  430649.25  18402.66  4.27
632.2  433638.40  18459.17  4.26
633.6  436014.48  18440.15  4.23
635.0  438864.28  18366.13  4.18
636.3  441824.65  18208.34  4.12
637.7  444522.18  17979.00  4.04
639.1  447422.80  17679.89  3.95
640.4  450131.00  17331.10  3.85
641.8  452910.60  16948.87  3.74
643.2  455507.20  16551.10  3.63
644.5  458360.00  16160.67  3.53
645.9  460893.30  15777.55  3.42
647.2  463185.80  15443.71  3.33
648.6  465794.00  15194.08  3.26
650.0  468482.40  15001.78  3.20
651.3  471299.80  14863.06  3.15
652.7  475245.00  14765.17  3.11
654.0  478052.70  14650.08  3.06
655.4  480283.65  14526.66  3.02
656.8  481895.93  14392.20  2.99
658.1  484554.00  14253.59  2.94
659.5  487684.80  14069.21  2.88
660.8  490554.75  13895.72  2.83
662.2  493294.10  13709.84  2.78
663.5  496075.53  13545.29  2.73
664.9  497911.30  13406.14  2.69
666.2  500043.38  13319.08  2.66
667.6  502569.00  13271.23  2.64
668.9  505094.40  13294.90  2.63
670.3  508240.25  13353.32  2.63
671.6  510199.20  13431.51  2.63
673.0  512446.40  13570.42  2.65
674.3  514848.95  13718.17  2.66
675.7  517329.00  13915.49  2.69
677.0  519536.40  14163.47  2.73
678.4  521634.20  14442.85  2.77
679.7  523970.03  14765.88  2.82
681.1  526480.68  15139.45  2.88
682.4  528628.13  15553.64  2.94
683.8  530831.63  16082.32  3.03
685.1  533044.65  16698.62  3.13
686.4  535167.75  17489.81  3.27
687.8  537534.30  18549.40  3.45
689.1  539856.10  19973.84  3.70
690.5  541838.25  21940.83  4.05
691.8  544393.58  24718.30  4.54
693.1  546751.50  28474.69  5.21
694.5  549046.80  33277.76  6.06
695.8  551406.60  39133.56  7.10
697.1  553591.60  46008.19  8.31
698.5  555826.13  53802.50  9.68
699.8  558123.60  62348.00  11.17
701.1  559982.33  71400.75  12.75
702.5  561966.50  80807.21  14.38
703.8  564308.13  90433.72  16.03
705.1  566084.85  99941.98  17.65
706.5  568331.55  109435.93  19.26
707.8  570081.25  118703.11  20.82
709.1  572318.55  127865.38  22.34
710.5  574383.75  136860.48  23.83
711.8  576200.00  145624.21  25.27
713.1  578049.00  154223.39  26.68
714.4  580106.08  162705.80  28.05
715.8  582330.93  171093.90  29.38
717.1  584509.90  179310.85  30.68
718.4  586679.18  187354.37  31.93
719.7  588799.58  195243.76  33.16
721.0  590416.63  202789.19  34.35
722.4  592243.20  210161.86  35.49
723.7  594123.65  217313.08  36.58
725.0  595817.28  224130.10  37.62
726.3  597981.80  230889.01  38.61
727.6  599631.75  237172.41  39.55
729.0  601408.50  243214.31  40.44
730.3  603246.53  249008.24  41.28
731.6  604713.20  254315.31  42.06
732.9  606609.90  259505.85  42.78
734.2  608115.75  264272.64  43.46
735.5  609884.00  268849.81  44.08
736.8  611856.35  273217.55  44.65
738.1  613599.23  277246.56  45.18
739.5  615279.75  280975.63  45.67
740.8  617095.33  284520.25  46.11
742.1  618518.83  287695.59  46.51
743.4  620190.20  290724.06  46.88
744.7  622006.00  293619.20  47.21
746.0  623468.00  296133.21  47.50
747.3  624977.50  298472.64  47.76
748.6  626523.95  300616.29  47.98
749.9  628217.98  302717.97  48.19
751.2  629388.33  304438.24  48.37
752.5  630764.65  306171.39  48.54
753.8  631912.95  307694.80  48.69
755.1  633403.08  309216.70  48.82
756.4  634451.00  310457.25  48.93
757.7  636344.50  311995.54  49.03
759.0  639892.20  314241.79  49.11
760.3  642467.65  315966.15  49.18
761.6  645116.20  317689.02  49.25
762.9  646437.00  318654.34  49.29
764.2  647153.25  319289.80  49.34
765.5  647898.63  319883.05  49.37
766.8  648376.85  320298.10  49.40
768.1  649347.30  320941.98  49.43
769.3  650491.75  321632.50  49.44
770.6  651755.90  322373.58  49.46
771.9  652803.98  322993.37  49.48
773.2  654117.75  323715.38  49.49
774.5  655006.65  324193.48  49.49
775.8  655997.05  324701.69  49.50
777.1  657099.08  325295.58  49.50
778.4  658192.75  325908.34  49.52
779.6  659347.80  326528.61  49.52
780.9  659892.83  326842.10  49.53
782.2  660832.55  327290.89  49.53
783.5  661611.75  327717.94  49.53
784.8  662313.75  328075.45  49.53
786.0  663036.63  328442.36  49.54
787.3  663684.68  328798.24  49.54
788.6  664480.88  329192.68  49.54
789.9  665074.00  329497.38  49.54
791.2  666338.60  330116.66  49.54
792.4  667447.00  330627.65  49.54
793.7  668879.20  331330.59  49.54
795.0  669803.25  331804.34  49.54
796.2  671029.95  332398.90  49.54
797.5  672053.13  332921.04  49.54
798.8  673346.63  333556.43  49.54
800.0  674380.00  334056.00  49.54
801.3  675509.63  334597.50  49.53
802.6  676512.00  335081.14  49.53
803.8  677499.90  335565.46  49.53
805.1  678394.13  336003.20  49.53
806.4  679186.53  336440.28  49.54
807.7  680250.58  336940.70  49.53
808.9  681302.08  337457.76  49.53
810.2  682050.60  337860.32  49.54
811.4  683038.40  338338.68  49.53
812.7  684314.50  338959.45  49.53
814.0  685527.15  339554.60  49.53
815.2  686840.55  340187.11  49.53
816.5  687942.50  340719.08  49.53
817.7  688575.25  341117.82  49.54
819.0  689263.40  341417.81  49.53
820.2  689976.60  341798.31  49.54
821.5  690986.00  342301.26  49.54
822.7  692023.68  342774.17  49.53
824.0  692894.15  343225.02  49.53
825.2  693515.55  343544.35  49.54
826.5  694246.05  343932.30  49.54
827.7  695136.85  344425.69  49.55
829.0  696127.73  344862.25  49.54
830.2  697091.80  345304.34  49.53
831.5  698042.93  345761.42  49.53
832.7  698937.75  346220.88  49.54
834.0  699613.20  346554.71  49.54
835.2  700619.30  347038.46  49.53
836.4  701263.20  347408.47  49.54
837.7  702061.88  347816.04  49.54
838.9  703291.45  348402.26  49.54
840.1  704203.50  348862.11  49.54
841.4  705131.70  349325.73  49.54
842.6  706050.80  349811.04  49.54
843.8  706811.30  350209.58  49.55
845.1  707703.15  350664.54  49.55
846.3  708577.80  351131.68  49.55
847.5  709475.00  351604.13  49.56
848.8  710453.05  352129.36  49.56
850.0  711726.20  352705.02  49.56
851.2  712740.10  353188.55  49.55
852.5  713793.60  353747.14  49.56
853.7  714502.35  354138.56  49.56
854.9  715700.70  354678.67  49.56
856.1  716675.25  355197.15  49.56
857.4  717567.90  355691.54  49.57
858.6  718789.40  356209.87  49.56
859.8  720001.20  356786.47  49.55
861.0  721011.55  357278.83  49.55
862.2  721931.70  357788.04  49.56
863.5  722929.68  358266.13  49.56
864.7  723925.00  358780.83  49.56
865.9  724839.75  359256.24  49.56
867.1  725709.38  359650.71  49.56
868.3  726940.83  360215.03  49.55
869.5  728007.25  360773.99  49.56
870.8  729133.20  361293.85  49.55
872.0  730202.10  361772.79  49.54
873.2  731091.08  362196.94  49.54
874.4  732027.80  362614.53  49.54
875.6  733214.65  363194.19  49.53
876.8  734469.45  363883.58  49.54
878.0  735544.95  364356.31  49.54
879.2  736584.50  364850.32  49.53
880.4  737870.00  365345.45  49.51
881.6  738760.00  365788.54  49.51
882.8  740057.60  366368.68  49.51
884.0  740996.75  366783.16  49.50
885.2  742305.00  367418.57  49.50
886.5  743733.90  368019.30  49.48
887.7  744685.85  368435.54  49.48
888.8  746122.40  369107.32  49.47
890.0  746943.75  369502.00  49.47
891.2  748065.83  370009.57  49.46
892.4  749465.48  370660.05  49.46
893.6  750986.83  371431.58  49.46
894.8  752618.25  372054.75  49.43
896.0  754163.50  372700.80  49.42
897.2  755991.23  373620.48  49.42
898.4  757764.00  374536.40  49.43
899.6  759116.10  375107.73  49.41
900.8  759599.10  375274.63  49.40
902.0  760162.40  375422.51  49.39
903.2  760455.90  375491.24  49.38
904.3  761450.63  375966.96  49.38
905.5  762473.25  376536.60  49.38
906.7  763961.83  377054.59  49.36
907.9  764777.30  377474.63  49.36
909.1  765624.48  377857.59  49.35
910.2  765922.50  377946.00  49.35
911.4  766077.53  377960.28  49.34
912.6  766542.50  378124.48  49.33
913.8  767429.95  378570.19  49.33
915.0  767902.60  378669.96  49.31
916.2  768032.10  378691.53  49.31
917.3  768484.95  378920.75  49.31
918.5  768932.10  379101.18  49.30
919.7  769069.25  378945.56  49.27
920.8  769152.85  378924.28  49.27
922.0  769175.83  378873.93  49.26
923.2  769771.05  379022.16  49.24
924.4  770124.00  379165.94  49.23
925.5  770808.20  379435.34  49.23
926.7  771753.93  379718.49  49.20
927.9  772986.55  380307.07  49.20
929.0  776069.10  381642.63  49.18
930.2  780219.80  383575.55  49.16
931.4  785138.58  385840.70  49.14
932.5  789572.85  387932.82  49.13
933.7  792171.68  389067.67  49.11
934.9  793511.25  389622.33  49.10
936.0  792784.13  388921.46  49.06
937.2  789241.98  387289.08  49.07
938.3  785323.50  385134.66  49.04
939.5  783104.40  383874.33  49.02
940.7  783218.98  383607.14  48.98
941.8  785586.10  384818.97  48.98
943.0  787700.85  385613.37  48.95
944.2  789462.00  386203.20  48.92
945.3  788853.60  385605.17  48.88
946.5  787115.00  384635.00  48.87
947.6  788082.25  384754.88  48.82
948.8  786709.65  383828.05  48.79
949.9  787297.70  383789.71  48.75
951.1  787022.35  383449.47  48.72
952.2  786358.23  382792.29  48.68
953.4  786029.85  382305.62  48.64
954.5  784392.00  381062.85  48.58
955.7  784046.40  380560.53  48.54
956.8  784582.40  380399.04  48.48
958.0  783733.05  379614.93  48.44
959.1  782913.60  378889.92  48.39
960.3  782550.00  378545.24  48.37
961.4  782601.10  378406.76  48.35
962.6  781970.40  378100.53  48.35
963.7  782318.60  377917.09  48.31
964.9  782898.03  377772.94  48.25
966.0  783246.45  377739.87  48.23
967.2  783564.60  377637.04  48.19
968.3  785021.15  378141.15  48.17
969.5  784637.13  378136.55  48.19
970.6  784954.35  378225.30  48.18
971.8  785102.15  377914.56  48.14
972.9  785540.00  378036.60  48.12
974.0  786553.23  378278.90  48.09
975.2  785278.13  377487.00  48.07
976.3  785754.78  377858.61  48.09
977.5  785433.83  377057.96  48.01
978.6  785140.65  376910.86  48.01
979.7  785646.40  376515.63  47.92
980.9  786507.15  376500.25  47.87
982.0  786615.70  376010.30  47.80
983.2  786391.20  375938.19  47.81
984.3  783295.80  375400.36  47.93
985.4  783682.20  374661.28  47.81
986.6  785643.70  374902.41  47.72
987.7  782853.38  373771.33  47.74
988.9  784682.28  373952.34  47.66
990.0  784214.50  374140.07  47.71
993.1  859662.00  411723.60  47.89
996.9  859119.60  411789.05  47.93
1000.7  858485.18  411867.98  47.98
1004.5  857364.00  411670.81  48.02
1008.4  858278.64  412467.98  48.06
1012.2  859578.17  413290.34  48.08
1016.0  859447.10  413370.94  48.10
1019.8  858156.96  412821.33  48.11
1023.7  856649.20  412161.18  48.11
1027.5  853871.13  411022.16  48.14
1031.3  851850.08  410253.22  48.16
1035.1  850388.18  409765.74  48.19
1038.9  849652.04  409533.24  48.20
1042.7  849043.88  409432.36  48.22
1046.5  848187.38  409107.00  48.23
1050.3  846419.33  408277.63  48.24
1054.2  844362.20  407292.05  48.24
1058.0  843440.40  406813.89  48.23
1061.8  842101.58  406223.94  48.24
1065.6  839991.17  405077.65  48.22
1069.4  837489.92  403741.25  48.21
1073.2  835277.63  402443.55  48.18
1077.0  833820.53  401436.30  48.14
1080.8  833468.17  400885.31  48.10
1084.6  833196.83  400488.00  48.07
1088.4  832615.07  400022.48  48.04
1092.2  831254.20  399113.67  48.01
1096.0  829725.77  398083.69  47.98
1099.8  828079.38  396938.19  47.93
1103.6  826164.80  395619.37  47.89
1107.4  824339.25  394367.24  47.84
1111.2  822735.25  393207.37  47.79
1114.9  821640.00  392220.64  47.74
1118.7  821143.25  391334.74  47.66
1122.5  821069.06  390608.85  47.57
1126.3  818628.30  388597.50  47.47
1130.1  817995.00  387116.56  47.33
1133.9  814508.76  383823.92  47.12
1137.7  811743.20  380571.71  46.88
1141.4  807881.03  376449.39  46.60
1145.2  806813.98  373337.29  46.27
1149.0  804784.80  369973.37  45.97
1152.8  801307.95  366294.78  45.71
1156.6  797693.13  363037.96  45.51
1160.3  794371.50  360412.35  45.37
1164.1  789695.93  357464.17  45.27
1167.9  786686.25  355509.59  45.19
1171.7  784055.30  353876.70  45.13
1175.4  781545.16  352402.39  45.09
1179.2  779367.00  351008.79  45.04
1183.0  779625.13  350656.98  44.98
1186.7  779830.33  350374.33  44.93
1190.5  778593.42  349525.00  44.89
1194.3  775797.17  348019.90  44.86
1198.0  772592.08  346421.35  44.84
1201.8  770102.67  345158.00  44.82
1205.6  768451.67  344507.45  44.83
1209.3  767317.50  344284.28  44.87
1213.1  766010.67  344039.23  44.91
1216.8  763999.87  343675.83  44.98
1220.6  761603.67  343080.93  45.05
1224.3  759137.50  342433.93  45.11
1228.1  756779.23  341829.91  45.17
1231.9  754242.45  341008.94  45.21
1235.6  751676.75  340095.64  45.24
1239.4  749221.73  339284.06  45.28
1243.1  746933.40  338418.13  45.31
1246.9  744917.62  337575.02  45.32
1250.6  742791.03  336624.59  45.32
1254.3  740764.80  335731.54  45.32
1258.1  738547.33  334704.09  45.32
1261.8  736086.17  333492.10  45.31
1265.6  733949.10  332291.43  45.27
1269.3  731989.00  331168.63  45.24
1273.1  732513.00  331144.58  45.21
1276.8  732378.87  330751.57  45.16
1280.6  731287.68  329870.27  45.11
1284.3  728561.97  328135.49  45.04
1288.0  726751.78  326739.61  44.96
1291.8  725457.60  325490.40  44.87
1295.5  723936.88  324149.88  44.78
1299.2  721585.80  322319.12  44.67
1302.9  718553.46  320028.32  44.54
1306.7  715298.85  317496.60  44.39
1310.4  712193.57  314744.50  44.19
1314.1  709543.13  312125.89  43.99
1317.9  706988.10  309267.83  43.74
1321.6  704136.77  306075.36  43.47
1325.3  701297.33  302702.50  43.16
1329.0  698651.80  299314.40  42.84
1332.8  694948.75  295271.78  42.49
1336.5  691478.75  291339.55  42.13
1340.2  689613.60  288097.84  41.78
1343.9  689028.08  285396.82  41.42
1347.6  688971.08  282882.82  41.06
1351.4  689511.25  280730.36  40.71
1355.1  691791.83  279321.32  40.38
1358.8  691959.09  276881.18  40.01
1362.5  692291.31  274266.29  39.62
1366.2  689602.88  269972.85  39.15
1369.9  684130.00  263921.00  38.58
1373.6  679320.31  257182.61  37.86
1377.3  677088.17  250016.51  36.93
1381.0  675103.13  241173.09  35.72
1384.8  671354.20  229778.51  34.23
1388.4  666137.00  216561.58  32.51
1392.2  661597.08  202552.88  30.62
1395.9  659810.35  189003.03  28.65
1399.6  655636.26  175322.17  26.74
1403.3  653008.80  163201.72  24.99
1407.0  650244.38  152594.36  23.47
1410.7  648325.13  143963.63  22.21
1414.3  645721.50  136906.29  21.20
1418.1  643125.00  131442.71  20.44
1421.7  640826.90  127258.97  19.86
1425.4  639076.23  124193.88  19.43
1429.1  635297.25  121563.75  19.13
1432.8  633862.43  120052.54  18.94
1436.5  630553.63  118660.29  18.82
1440.2  627299.00  117674.97  18.76
1443.9  625174.48  117194.77  18.75
1447.6  621588.80  116682.29  18.77
1451.2  618386.20  116377.12  18.82
1454.9  616526.40  116485.05  18.89
1458.6  612656.04  116539.99  19.02
1462.3  611654.60  117505.20  19.21
1466.0  611687.21  119058.04  19.46
1469.7  609860.53  120710.33  19.79
1473.3  607596.73  122609.67  20.18
1477.0  603334.61  124357.23  20.61
1480.7  600118.88  126446.85  21.07
1484.4  596359.94  128465.04  21.54
1488.0  593218.12  130697.49  22.03
1491.7  589734.96  132820.53  22.52
1495.4  586238.10  134948.11  23.02
1499.0  583308.05  137114.99  23.51
1502.7  580500.73  139310.31  24.00
1506.4  577693.86  141415.09  24.48
1510.0  574916.88  143448.81  24.95
1513.7  572174.08  145380.32  25.41
1517.4  569652.53  147290.43  25.86
1521.0  567210.23  149155.24  26.30
1524.7  564745.64  150854.24  26.71
1528.3  562309.66  152496.99  27.12
1532.0  559725.85  153987.21  27.51
1535.7  557023.50  155303.36  27.88
1539.3  554437.53  156563.97  28.24
1543.0  552764.92  158032.00  28.59
1546.6  551404.00  159489.36  28.92
1550.3  549857.78  160775.82  29.24
1553.9  547476.40  161741.49  29.54
1557.6  545299.05  162645.56  29.83
1561.2  542751.38  163339.34  30.09
1564.9  540104.17  163954.64  30.36
1568.5  537402.67  164453.71  30.60
1572.2  535072.65  165003.18  30.84
1575.8  533145.55  165641.29  31.07
1579.5  531269.15  166193.64  31.28
1583.1  528935.98  166572.90  31.49
1586.8  526729.68  166909.73  31.69
1590.4  524417.18  167163.87  31.88
1594.0  522150.40  167363.76  32.05
1597.7  520252.42  167683.17  32.23
1601.3  518236.65  167938.07  32.41
1604.9  515787.80  168001.69  32.57
1608.6  512813.03  167849.26  32.73
1612.2  509819.92  167586.21  32.87
1615.8  507246.60  167406.60  33.00
1619.5  504944.48  167245.49  33.12
1623.1  502148.63  166889.61  33.24
1626.7  499364.33  166451.39  33.33
1630.3  496803.60  166031.06  33.42
1634.0  494421.20  165581.00  33.49
1637.6  492242.50  165094.41  33.54
1641.2  490007.82  164444.55  33.56
1644.8  487516.83  163570.43  33.55
1648.5  484835.08  162627.56  33.54
1652.1  482767.40  161802.30  33.52
1655.7  480867.57  161089.70  33.50
1659.3  479039.40  160502.63  33.51
1662.9  475819.18  159495.99  33.52
1666.6  472287.75  158391.63  33.54
1670.2  468973.45  157254.27  33.53
1673.8  465730.27  156026.20  33.50
1677.4  463203.00  154921.51  33.45
1681.0  461556.83  153965.97  33.36
1684.6  460678.63  153099.18  33.23
1688.2  459186.00  151850.40  33.07
1691.8  457520.42  150611.41  32.92
1695.4  456650.14  149633.26  32.77
1699.0  455742.75  148631.46  32.61
1702.6  455166.40  147659.47  32.44
1706.2  453620.80  146273.50  32.25
1709.8  451480.73  144694.52  32.05
1713.4  449874.10  143373.10  31.87
1717.0  448175.77  142175.17  31.72
1720.6  446447.10  141024.96  31.59
1724.2  444958.79  139971.16  31.46
1727.8  443602.77  139025.70  31.34
1731.4  442881.45  138349.30  31.24
1735.0  442863.28  137992.20  31.16
1738.6  442378.13  137388.00  31.06
1742.2  441478.10  136523.17  30.92
1745.8  439786.67  135288.69  30.76
1749.4  437459.19  133774.67  30.58
1753.0  433774.80  131796.34  30.38
1756.6  429950.50  129829.25  30.20
1760.1  426745.20  128096.86  30.02
1763.7  422968.10  126266.30  29.85
1767.3  419823.12  124736.79  29.71
1770.9  417164.58  123364.35  29.57
1774.5  414108.17  121933.11  29.44
1778.0  411933.82  120870.94  29.34
1781.6  409703.81  119916.65  29.27
1785.2  407061.87  118926.09  29.22
1788.8  404283.33  118027.77  29.19
1792.3  401974.01  117310.21  29.18
1795.9  401430.12  117126.02  29.18
1799.5  402144.54  117323.61  29.17
1803.1  404748.25  118167.84  29.20
1806.6  407337.80  119086.30  29.24
1810.2  409204.95  119785.88  29.27
1813.8  408599.60  119690.03  29.29
1817.3  407609.68  119418.56  29.30
1820.9  406450.00  119001.34  29.28
1824.5  405415.05  118547.86  29.24
1828.0  405772.23  118415.06  29.18
1831.6  406901.63  118433.19  29.11
1835.2  406852.76  117953.27  28.99
1838.7  407326.50  117406.33  28.82
1842.3  405800.50  116098.25  28.61
1845.8  403927.88  114379.01  28.32
1849.4  403382.47  112668.57  27.93
1852.9  401543.75  110132.59  27.43
1856.5  399866.68  107100.13  26.78
1860.0  399426.10  103708.85  25.96
1863.6  398985.18  99587.72  24.96
1867.1  399616.73  94893.91  23.75
1870.7  401086.05  89304.37  22.27
1874.2  399726.43  82034.70  20.52
1877.8  394945.82  73595.21  18.63
1881.3  390326.63  64867.47  16.62
1884.9  387119.63  56572.90  14.61
1888.4  384472.91  48724.43  12.67
1891.9  382253.59  41865.59  10.95
1895.5  380538.78  36256.98  9.53
1899.0  379847.03  31982.47  8.42
1901.3  399081.87  24599.20  6.16
1904.1  399313.25  22049.47  5.52
1906.8  397605.63  20023.92  5.04
1909.6  393801.67  18443.76  4.68
1912.4  390020.17  17192.24  4.41
1915.1  386263.90  16259.49  4.21
1917.9  382654.20  15548.38  4.06
1920.6  380032.90  15095.11  3.97
1923.3  377773.60  14757.18  3.91
1926.1  374775.90  14495.35  3.87
1928.8  371360.60  14331.20  3.86
1931.6  370560.90  14343.47  3.87
1934.3  367193.88  14357.97  3.91
1937.0  363695.40  14429.00  3.97
1939.8  360651.93  14560.20  4.04
1942.5  356318.02  14706.47  4.13
1945.2  352772.67  14907.58  4.23
1947.9  349998.78  15208.27  4.35
1950.7  345726.22  15483.52  4.48
1953.4  342155.63  15805.25  4.62
1956.1  339429.40  16208.91  4.78
1958.8  337196.42  16662.33  4.94
1961.5  334191.55  17101.35  5.12
1964.2  330800.07  17547.71  5.30
1966.9  327776.27  18033.07  5.50
1969.6  325025.27  18548.51  5.71
1972.3  322453.42  19079.10  5.92
1975.0  319982.00  19640.22  6.14
1977.7  317805.92  20238.69  6.37
1980.4  315638.40  20841.33  6.60
1983.1  313283.87  21427.76  6.84
1985.8  311181.60  22045.60  7.08
1988.4  309157.20  22683.47  7.34
1991.1  307342.00  23345.00  7.60
1993.8  305860.10  24021.67  7.85
1996.5  304337.60  24684.80  8.11
1999.1  302962.13  25368.74  8.37
2001.8  301714.10  26036.31  8.63
2004.5  300492.30  26728.15  8.89
2007.1  298997.53  27336.65  9.14
2009.8  297042.08  27923.19  9.40
2012.4  295701.02  28550.26  9.66
2015.1  294546.50  29178.80  9.91
2017.8  293423.75  29775.94  10.15
2020.4  292271.40  30388.70  10.40
2023.1  291788.03  31014.36  10.63
2025.7  291478.43  31619.10  10.85
2028.3  290653.77  32148.26  11.06
2031.0  290063.07  32693.45  11.27
2033.6  289773.75  33255.33  11.48
2036.2  289383.50  33752.76  11.66
2038.9  288392.00  34153.60  11.84
2041.5  287437.50  34541.67  12.02
2044.1  286708.33  34937.50  12.19
2046.8  285563.03  35263.43  12.35
2049.4  284704.80  35584.62  12.50
2052.0  284471.05  35993.41  12.65
2054.6  284105.07  36375.11  12.80
2057.2  282996.20  36690.15  12.96
2059.8  281526.00  36981.00  13.14
2062.4  280131.15  37262.55  13.30
2065.0  278744.10  37539.17  13.47
2067.6  276882.80  37726.79  13.63
2070.2  275431.50  37972.18  13.79
2072.8  274547.17  38308.42  13.95
2075.4  273494.50  38579.78  14.11
2078.0  272832.02  38895.81  14.26
2080.6  271591.70  39136.61  14.41
2083.2  270274.02  39357.67  14.56
2085.8  268924.60  39554.43  14.71
2088.4  267817.95  39805.83  14.86
2090.9  266170.00  39932.67  15.00
2093.5  264268.60  39982.33  15.13
2096.1  262483.65  40075.75  15.27
2098.7  261001.02  40173.83  15.39
2101.2  259068.40  40217.73  15.52
2103.8  257599.67  40320.44  15.65
2106.4  256128.33  40416.12  15.78
2108.9  255114.58  40531.89  15.89
2111.5  254186.92  40663.00  16.00
2114.0  253565.00  40827.22  16.10
2116.6  251422.60  40735.57  16.20
2119.1  250309.50  40788.77  16.30
2121.7  249698.23  40928.68  16.39
2124.2  249533.17  41104.89  16.47
2126.8  248408.15  41126.98  16.56
2129.3  247290.52  41145.47  16.64
2131.9  247472.80  41389.33  16.72
2134.4  246609.65  41439.57  16.80
2136.9  246385.30  41576.44  16.87
2139.4  245305.58  41575.44  16.95
2142.0  244910.95  41691.59  17.02
2144.5  244374.25  41771.64  17.09
2147.0  243936.57  41850.75  17.16
2149.5  243489.50  41951.38  17.23
2152.1  243860.07  42166.80  17.29
2154.6  243901.60  42285.87  17.34
2157.1  243877.90  42379.34  17.38
2159.6  242779.67  42309.24  17.43
2162.1  242605.30  42344.03  17.45
2164.6  241915.95  42314.32  17.49
2167.1  240965.47  42240.64  17.53
2169.6  241119.93  42353.97  17.57
2172.1  240290.60  42318.93  17.61
2174.6  239924.77  42362.76  17.66
2177.1  238834.42  42282.30  17.70
2179.5  238383.30  42327.56  17.76
2182.0  238086.92  42395.47  17.81
2184.5  237103.90  42348.75  17.86
2187.0  236298.77  42334.49  17.92
2189.5  235268.05  42305.11  17.98
2191.9  234011.98  42221.12  18.04
2194.4  232350.50  42058.08  18.10
2196.9  231261.25  41971.05  18.15
2199.3  229835.10  41831.03  18.20
2201.8  228660.48  41730.73  18.25
2204.3  227863.20  41685.50  18.29
2206.7  226623.60  41552.95  18.34
2209.2  225436.05  41426.85  18.38
2211.6  223478.80  41151.77  18.41
2214.1  222817.00  41081.33  18.44
2216.5  222471.07  41065.26  18.46
2219.0  221119.43  40845.93  18.47
2221.4  221109.75  40865.70  18.48
2223.9  219957.40  40631.36  18.47
2226.3  218695.92  40351.88  18.45
2228.7  217727.47  40111.93  18.42
2231.1  217077.67  39856.15  18.36
2233.6  216022.40  39485.33  18.28
2236.0  214984.45  39092.21  18.18
2238.4  214119.60  38705.95  18.08
2240.9  213418.60  38323.47  17.96
2243.3  212528.62  37862.87  17.82
2245.7  211754.23  37378.69  17.65
2248.1  210773.33  36894.58  17.50
2250.5  209947.47  36421.73  17.35
2252.9  209274.57  35974.45  17.19
2255.3  208483.90  35527.58  17.04
2257.7  207571.47  35037.57  16.88
2260.1  206723.60  34553.33  16.71
2262.5  205644.40  34061.07  16.56
2264.9  204691.57  33617.68  16.42
2267.3  203775.00  33128.33  16.26
2269.7  202833.77  32688.52  16.12
2272.1  202035.17  32312.56  15.99
2274.5  201287.27  31945.78  15.87
2276.8  200618.13  31595.47  15.75
2279.2  199826.00  31253.33  15.64
2281.6  199258.70  30922.50  15.52
2284.0  198871.20  30620.70  15.40
2286.3  198368.20  30292.53  15.27
2288.7  197821.57  29921.74  15.13
2291.1  197243.50  29534.17  14.97
2293.4  196541.40  29144.53  14.83
2295.8  195814.67  28752.53  14.68
2298.2  195030.30  28316.07  14.52
2300.5  193889.25  27864.70  14.37
2302.9  192486.55  27353.85  14.21
2305.2  191047.58  26887.94  14.07
2307.6  189543.20  26455.02  13.96
2309.9  188514.13  26104.26  13.85
2312.2  187499.50  25808.39  13.76
2314.6  186496.73  25548.09  13.70
2316.9  185369.47  25326.01  13.66
2319.2  184692.20  25126.63  13.60
2321.6  184062.43  24892.69  13.52
2323.9  183265.80  24604.67  13.43
2326.2  182404.03  24327.26  13.34
2328.6  181740.65  24033.50  13.22
2330.9  181373.47  23826.76  13.14
2333.2  180943.25  23606.83  13.05
2335.5  180397.53  23379.64  12.96
2337.8  179930.80  23114.87  12.85
2340.1  179323.47  22842.22  12.74
2342.4  178896.60  22599.00  12.63
2344.8  178146.50  22302.12  12.52
2347.1  177398.80  22007.00  12.41
2349.4  176780.67  21772.13  12.32
2351.6  176016.00  21533.33  12.23
2353.9  174956.00  21277.40  12.16
2356.2  174147.57  21061.87  12.09
2358.5  173318.07  20793.98  12.00
2360.8  172583.33  20570.14  11.92
2363.1  172160.58  20357.50  11.82
2365.4  171679.50  20169.00  11.75
2367.7  171155.80  19949.67  11.66
2369.9  170461.87  19712.43  11.56
2372.2  169268.25  19394.88  11.46
2374.5  168045.00  19082.50  11.36
2376.7  167098.70  18791.60  11.25
2379.0  165848.65  18466.25  11.13
2381.3  164400.13  18110.89  11.02
2383.5  163457.00  17777.67  10.88
2385.8  162867.83  17532.47  10.76
2388.0  162049.73  17269.58  10.66
2390.3  161309.53  16983.18  10.53
2392.5  160830.33  16717.97  10.39
2394.8  159832.42  16447.97  10.29
2397.0  159369.47  16204.89  10.17
2399.3  158767.62  15962.83  10.05
2401.5  158006.50  15677.40  9.92
2403.8  157304.80  15410.27  9.80
2406.0  156875.40  15137.10  9.65
2408.2  156047.85  14886.20  9.54
2410.4  155190.92  14577.75  9.39
2412.7  154749.20  14394.87  9.30
2414.9  154153.73  14151.18  9.18
2417.1  154144.07  13949.20  9.05
2419.3  153686.80  13686.70  8.91
2421.6  152912.20  13365.41  8.74
2423.8  152302.73  13133.44  8.62
2426.0  151866.10  12935.27  8.52
2428.2  151536.00  12685.75  8.37
2430.4  151554.80  12452.51  8.22
2432.6  151367.30  12259.53  8.10
2434.8  150814.65  12009.65  7.96
2437.0  150306.00  11710.83  7.79
2439.2  149835.40  11463.83  7.65
2441.4  149024.40  11262.13  7.56
2443.6  149019.07  11104.89  7.45
2445.7  149098.50  10871.09  7.29
2447.9  149091.15  10635.30  7.13
2450.1  148214.50  10453.58  7.05
2452.3  147215.93  10182.21  6.92
2454.5  146691.07  9992.89  6.81
2456.6  145973.08  9763.78  6.69
2458.8  144768.40  9526.07  6.58
2461.0  144374.53  9347.14  6.47
2463.1  144097.67  9122.83  6.33
2465.3  143589.33  8913.78  6.21
2467.5  143134.33  8741.78  6.11
2469.6  142716.25  8615.41  6.04
2471.8  142410.43  8465.05  5.94
2473.9  141911.25  8332.64  5.87
2476.1  141029.17  8129.31  5.76
2478.2  139997.98  7957.12  5.68
2480.4  139359.90  7795.43  5.59
2482.5  138376.47  7723.59  5.58
2484.6  137514.00  7598.67  5.53
2486.8  136921.97  7417.65  5.42
2488.9  136404.00  7297.33  5.35
2491.1  134842.10  7165.52  5.31
2493.2  133609.77  7054.73  5.28
2495.3  132221.78  6916.39  5.23
2497.4  130924.93  6651.27  5.08
2499.5  130113.73  6588.41  5.06
2501.7  129958.00  6576.33  5.06
2503.8  130242.47  6484.33  4.98
2505.9  131010.90  6547.37  5.00
2508.0  131976.75  6528.30  4.95
2510.1  132744.30  6537.80  4.93
2512.2  133532.92  6546.75  4.90
2514.3  134819.53  6532.79  4.85
2516.4  136619.67  6607.01  4.84
