/*** Spectra Vista SIG Data ***/
name= 8_20220926_BENI_QUPA_34_avg.sig
comm= Averaged Ref/Tar of files: HR.092622.0020_moc.sig,HR.092622.0021_moc.sig,HR.092622.0022_moc.sig
data=
337.3  6417.60  445.03  6.93
338.8  6541.60  402.21  6.15
340.3  6900.33  395.21  5.73
341.8  7167.28  376.72  5.26
343.2  7550.13  397.60  5.27
344.7  7814.63  392.57  5.02
346.2  8142.75  381.48  4.68
347.7  8548.20  367.10  4.29
349.2  8920.80  362.88  4.07
350.6  9350.40  357.60  3.82
352.1  9834.25  351.05  3.57
353.6  10388.80  357.11  3.44
355.1  10777.05  356.07  3.30
356.6  11453.20  369.38  3.23
358.0  12031.75  375.73  3.12
359.5  12499.88  393.14  3.15
361.0  13164.60  387.99  2.95
362.5  13784.33  392.19  2.85
364.0  14426.63  401.41  2.78
365.4  15103.73  419.42  2.78
366.9  15764.93  428.24  2.72
368.4  16409.15  429.64  2.62
369.9  17172.00  461.86  2.69
371.3  18068.60  494.74  2.74
372.8  18857.85  517.52  2.74
374.3  19619.80  512.47  2.61
375.8  20496.10  518.19  2.53
377.2  21217.95  506.44  2.39
378.7  22070.83  522.24  2.37
380.2  22935.38  536.29  2.34
381.7  23843.00  558.65  2.34
383.1  24833.48  568.43  2.29
384.6  25761.75  565.31  2.19
386.1  26731.58  573.95  2.15
387.6  27654.45  594.35  2.15
389.0  28676.48  604.64  2.11
390.5  29706.28  633.72  2.13
392.0  30843.00  647.12  2.10
393.4  31903.88  665.43  2.09
394.9  32932.30  682.54  2.07
396.4  34155.00  703.10  2.06
397.9  35220.30  736.71  2.09
399.3  36155.23  744.57  2.06
400.8  37333.73  766.28  2.05
402.2  38567.10  793.40  2.06
403.7  39813.60  825.42  2.07
405.2  40982.90  855.26  2.09
406.6  42219.60  883.13  2.09
408.1  43320.60  896.85  2.07
409.6  44528.78  925.16  2.08
411.0  45760.55  957.45  2.09
412.5  47159.65  988.65  2.10
414.0  48504.23  1032.85  2.13
415.4  49845.60  1060.01  2.13
416.9  51184.10  1094.66  2.14
418.4  52525.95  1127.80  2.15
419.8  53873.40  1164.87  2.16
421.3  55336.05  1214.73  2.20
422.7  56817.80  1253.82  2.21
424.2  58339.50  1295.08  2.22
425.7  59771.25  1329.45  2.22
427.1  61338.60  1376.82  2.24
428.6  62812.30  1421.47  2.26
430.0  64352.48  1460.60  2.27
431.5  66006.85  1506.86  2.28
432.9  67674.38  1552.52  2.29
434.4  69395.68  1592.21  2.29
435.9  71056.20  1642.26  2.31
437.3  72766.13  1694.36  2.33
438.8  74410.80  1740.91  2.34
440.2  76112.93  1794.21  2.36
441.7  78008.33  1852.53  2.37
443.1  79822.80  1900.05  2.38
444.6  81622.48  1954.61  2.39
446.0  83474.68  2005.04  2.40
447.5  85450.00  2067.62  2.42
448.9  87212.58  2133.11  2.45
450.4  89100.00  2194.28  2.46
451.8  90927.38  2252.40  2.48
453.3  92759.25  2314.95  2.50
454.7  94581.00  2373.73  2.51
456.2  96425.70  2429.20  2.52
457.6  98342.10  2490.74  2.53
459.1  100198.88  2552.17  2.55
460.5  102034.58  2606.36  2.55
462.0  104086.80  2666.18  2.56
463.4  106069.95  2727.56  2.57
464.8  108063.90  2787.92  2.58
466.3  110032.80  2843.65  2.58
467.7  112064.00  2906.00  2.59
469.2  113948.55  2960.38  2.60
470.6  115986.50  3024.31  2.61
472.0  118048.20  3089.67  2.62
473.5  120064.55  3150.39  2.62
474.9  122266.90  3216.79  2.63
476.4  124349.40  3291.78  2.65
477.8  126476.00  3361.60  2.66
479.2  128550.68  3436.13  2.67
480.7  130727.18  3497.14  2.68
482.1  132923.00  3564.83  2.68
483.6  135147.60  3641.88  2.69
485.0  137413.20  3723.87  2.71
486.4  139532.75  3807.77  2.73
487.9  141843.25  3899.84  2.75
489.3  144029.48  3993.85  2.77
490.7  146233.00  4094.63  2.80
492.2  148458.00  4209.23  2.84
493.6  150725.80  4325.86  2.87
495.0  153052.58  4460.45  2.91
496.5  155272.95  4609.17  2.97
497.9  157594.75  4772.14  3.03
499.3  159893.13  4949.41  3.10
500.7  162215.60  5147.64  3.17
502.2  164579.98  5372.97  3.26
503.6  166887.60  5631.14  3.37
505.0  169185.23  5925.59  3.50
506.5  171671.15  6271.75  3.65
507.9  174143.28  6662.98  3.83
509.3  176450.63  7090.68  4.02
510.7  179093.85  7590.63  4.24
512.2  181753.58  8143.92  4.48
513.6  184620.78  8783.81  4.76
515.0  187406.98  9483.85  5.06
516.4  190265.60  10267.43  5.40
517.8  193066.25  11105.28  5.75
519.3  196030.40  12012.04  6.13
520.7  198697.20  12962.06  6.52
522.1  201368.38  13943.76  6.92
523.5  203950.48  14956.09  7.33
524.9  206837.85  15992.94  7.73
526.3  209499.75  16997.46  8.11
527.8  212283.00  18000.76  8.48
529.2  214905.60  18986.06  8.83
530.6  217703.70  19964.18  9.17
532.0  220682.48  20929.77  9.48
533.4  223164.10  21806.61  9.77
534.8  225699.38  22629.00  10.03
536.3  228761.65  23456.09  10.25
537.7  231757.25  24234.99  10.46
539.1  234687.70  24982.20  10.64
540.5  237591.75  25704.98  10.82
541.9  240536.40  26425.88  10.99
543.3  243114.60  27094.92  11.14
544.7  246070.00  27811.98  11.30
546.1  248899.00  28496.65  11.45
547.5  251834.40  29181.19  11.59
549.0  255014.80  29861.92  11.71
550.4  257903.10  30472.07  11.82
551.8  260817.60  31033.30  11.90
553.2  263707.43  31530.84  11.96
554.6  266584.80  31937.93  11.98
556.0  269524.50  32264.09  11.97
557.4  272649.90  32522.67  11.93
558.8  275542.83  32686.11  11.86
560.2  278760.00  32828.95  11.78
561.6  281712.48  32874.06  11.67
563.0  284518.00  32839.51  11.54
564.4  287711.90  32801.13  11.40
565.8  290737.65  32694.68  11.25
567.2  293915.80  32531.42  11.07
568.6  296988.53  32293.45  10.87
570.0  299869.38  31955.28  10.66
571.4  303317.68  31614.45  10.42
572.8  306469.40  31222.19  10.19
574.2  309378.83  30812.12  9.96
575.6  312438.00  30446.15  9.74
577.0  315490.45  30111.68  9.54
578.4  318937.50  29852.08  9.36
579.8  322030.10  29599.84  9.19
581.2  325117.00  29387.17  9.04
582.5  328027.50  29192.57  8.90
583.9  331102.20  29042.16  8.77
585.3  334019.40  28912.45  8.66
586.7  337029.00  28828.58  8.55
588.1  340040.20  28770.17  8.46
589.5  343382.55  28781.01  8.38
590.9  346344.03  28801.02  8.32
592.3  349328.25  28856.53  8.26
593.7  352274.65  28953.70  8.22
595.0  355224.00  29067.36  8.18
596.4  358573.13  29223.39  8.15
597.8  361264.30  29317.52  8.12
599.2  364380.90  29416.38  8.07
600.6  367589.48  29493.58  8.02
602.0  370591.20  29490.38  7.96
603.3  373490.00  29423.58  7.88
604.7  376512.33  29296.07  7.78
606.1  379545.60  29103.09  7.67
607.5  382915.80  28875.47  7.54
608.9  385977.90  28572.13  7.40
610.2  389181.38  28246.07  7.26
611.6  392122.50  27886.31  7.11
613.0  394914.90  27506.10  6.97
614.4  397735.78  27137.52  6.82
615.8  401015.10  26837.37  6.69
617.1  403730.40  26534.19  6.57
618.5  406989.15  26321.82  6.47
619.9  409723.65  26122.80  6.38
621.3  412701.90  26008.53  6.30
622.6  415642.50  25947.26  6.24
624.0  418364.25  25922.72  6.20
625.4  421501.13  25975.64  6.16
626.8  424461.70  26075.73  6.14
628.1  427315.70  26199.23  6.13
629.5  430083.15  26350.58  6.13
630.9  432996.20  26512.12  6.12
632.2  436048.95  26670.24  6.12
633.6  438542.00  26755.50  6.10
635.0  441469.30  26792.03  6.07
636.3  444511.83  26744.74  6.02
637.7  447254.83  26568.28  5.94
639.1  450274.55  26304.80  5.84
640.4  452976.50  25943.41  5.73
641.8  455851.80  25497.89  5.59
643.2  458478.50  24986.23  5.45
644.5  461370.00  24466.00  5.30
645.9  464039.45  23931.61  5.16
647.2  466989.60  23439.35  5.02
648.6  469829.20  23008.40  4.90
650.0  472622.40  22620.96  4.79
651.3  475070.90  22260.76  4.69
652.7  478342.50  21952.64  4.59
654.0  481297.60  21633.08  4.49
655.4  483682.50  21264.19  4.40
656.8  485294.78  20818.48  4.29
658.1  487865.70  20349.11  4.17
659.5  491140.80  19880.23  4.05
660.8  494343.15  19381.11  3.92
662.2  497114.43  18875.55  3.80
663.5  499893.78  18398.31  3.68
664.9  501932.18  17963.14  3.58
666.2  504002.85  17596.05  3.49
667.6  506630.25  17349.17  3.42
668.9  509371.20  17205.94  3.38
670.3  512227.63  17100.18  3.34
671.6  514566.40  17062.57  3.32
673.0  516898.40  17096.89  3.31
674.3  519338.05  17182.00  3.31
675.7  521897.40  17334.94  3.32
677.0  524223.38  17529.81  3.34
678.4  526487.20  17773.03  3.38
679.7  528910.35  18098.04  3.42
681.1  531475.03  18507.71  3.48
682.4  533713.13  19043.73  3.57
683.8  536086.13  19758.05  3.69
685.1  538308.45  20707.11  3.85
686.4  540532.20  21991.81  4.07
687.8  543082.05  23727.71  4.37
689.1  545449.80  26044.97  4.77
690.5  547408.75  29016.39  5.30
691.8  550135.85  32871.80  5.98
693.1  552580.50  37588.97  6.80
694.5  554946.30  43148.97  7.78
695.8  557349.80  49409.72  8.87
697.1  559665.90  56256.47  10.05
698.5  561977.25  63597.36  11.32
699.8  564358.40  71266.90  12.63
701.1  566257.13  79072.86  13.96
702.5  568386.00  86911.52  15.29
703.8  570850.20  94738.16  16.60
705.1  572686.80  102302.48  17.86
706.5  575051.25  109706.28  19.08
707.8  576922.23  116803.04  20.25
709.1  579202.55  123707.94  21.36
710.5  581396.83  130354.28  22.42
711.8  583381.00  136697.41  23.43
713.1  585359.00  142823.48  24.40
714.4  587506.38  148768.57  25.32
715.8  589782.90  154539.56  26.20
717.1  592061.15  160098.01  27.04
718.4  594338.85  165418.07  27.83
719.7  596529.23  170520.46  28.59
721.0  598294.65  175271.45  29.30
722.4  600187.50  179835.50  29.96
723.7  602192.05  184208.42  30.59
725.0  603952.65  188289.22  31.18
726.3  606291.40  192339.04  31.72
727.6  607950.75  195996.31  32.24
729.0  609809.55  199487.79  32.71
730.3  611824.13  202816.42  33.15
731.6  613423.80  205813.05  33.55
732.9  615464.20  208760.99  33.92
734.2  617100.00  211443.61  34.26
735.5  618922.70  214015.89  34.58
736.8  620923.28  216510.37  34.87
738.1  622791.38  218777.59  35.13
739.5  624622.80  220896.17  35.36
740.8  626610.33  222945.97  35.58
742.1  628202.00  224782.26  35.78
743.4  630017.50  226595.95  35.97
744.7  631855.00  228374.07  36.14
746.0  633333.00  229911.34  36.30
747.3  634967.20  231354.92  36.44
748.6  636553.95  232740.90  36.56
749.9  638403.65  234130.57  36.67
751.2  639685.28  235290.89  36.78
752.5  641265.50  236473.03  36.88
753.8  642642.30  237522.77  36.96
755.1  644308.95  238600.26  37.03
756.4  645447.48  239461.09  37.10
757.7  647537.00  240610.65  37.16
759.0  651201.88  242311.19  37.21
760.3  653963.30  243647.39  37.26
761.6  656851.25  245004.41  37.30
762.9  658245.50  245806.39  37.34
764.2  659134.65  246348.90  37.37
765.5  660048.38  246905.06  37.41
766.8  660654.50  247318.09  37.44
768.1  661717.35  247914.57  37.47
769.3  663031.35  248552.27  37.49
770.6  664434.70  249236.79  37.51
771.9  665636.45  249835.41  37.53
773.2  667177.88  250519.93  37.55
774.5  668154.90  251007.15  37.57
775.8  669256.93  251549.64  37.59
777.1  670556.98  252127.62  37.60
778.4  671849.88  252735.57  37.62
779.6  673257.60  253350.70  37.63
780.9  673928.10  253716.05  37.65
782.2  674928.10  254192.01  37.66
783.5  675892.00  254644.26  37.68
784.8  676743.38  255062.53  37.69
786.0  677621.60  255472.73  37.70
787.3  678548.35  255887.81  37.71
788.6  679450.88  256326.20  37.73
789.9  680218.00  256705.82  37.74
791.2  681598.75  257306.38  37.75
792.4  682827.75  257829.13  37.76
793.7  684474.15  258497.37  37.77
795.0  685594.55  258985.53  37.78
796.2  686944.50  259592.95  37.79
797.5  688266.88  260142.13  37.80
798.8  689660.13  260766.49  37.81
800.0  690830.00  261284.00  37.82
801.3  692165.25  261820.35  37.83
802.6  693216.00  262295.31  37.84
803.8  694357.13  262805.22  37.85
805.1  695459.25  263277.13  37.86
806.4  696545.93  263737.46  37.86
807.7  697708.40  264228.92  37.87
808.9  698979.35  264740.06  37.88
810.2  699843.90  265149.40  37.89
811.4  700926.00  265643.05  37.90
812.7  702200.90  266229.79  37.91
814.0  703556.70  266802.69  37.92
815.2  705055.65  267404.86  37.93
816.5  706230.00  267911.88  37.94
817.7  707194.50  268295.33  37.94
819.0  707880.60  268631.80  37.95
820.2  708671.40  269034.49  37.96
821.5  709687.40  269529.27  37.98
822.7  710818.50  269969.36  37.98
824.0  711777.30  270408.09  37.99
825.2  712487.10  270744.57  38.00
826.5  713321.30  271098.96  38.01
827.7  714419.95  271551.42  38.01
829.0  715312.73  271948.29  38.02
830.2  716279.60  272365.65  38.03
831.5  717205.28  272782.68  38.03
832.7  718104.60  273205.26  38.05
834.0  718775.10  273507.49  38.05
835.2  719776.05  273947.93  38.06
836.4  720514.80  274324.53  38.07
837.7  721299.38  274670.79  38.08
838.9  722522.50  275164.92  38.08
840.1  723439.20  275571.67  38.09
841.4  724447.30  276007.73  38.10
842.6  725333.70  276442.57  38.11
843.8  726133.20  276833.74  38.12
845.1  727032.90  277186.94  38.13
846.3  728036.40  277573.20  38.13
847.5  728835.25  277972.19  38.14
848.8  729736.95  278394.89  38.15
850.0  730915.20  278878.95  38.15
851.2  731918.65  279270.25  38.16
852.5  732985.70  279793.10  38.17
853.7  733712.18  280101.23  38.18
854.9  734906.25  280605.09  38.18
856.1  735866.00  281054.68  38.19
857.4  736754.93  281413.53  38.20
858.6  737665.60  281836.73  38.21
859.8  738811.30  282307.11  38.21
861.0  739908.75  282740.75  38.21
862.2  741066.90  283191.58  38.21
863.5  741987.83  283573.62  38.22
864.7  742900.00  283991.13  38.23
865.9  744029.25  284383.96  38.22
867.1  744656.25  284656.34  38.23
868.3  745926.43  285182.36  38.23
869.5  747050.90  285641.90  38.24
870.8  748241.10  286117.33  38.24
872.0  749208.20  286527.90  38.24
873.2  750146.85  286938.81  38.25
874.4  750970.35  287255.83  38.25
875.6  752201.65  287720.86  38.25
876.8  753675.45  288297.30  38.25
878.0  754666.85  288728.34  38.26
879.2  755778.35  289170.15  38.26
880.4  756960.00  289571.98  38.25
881.6  757900.60  289972.89  38.26
882.8  759273.25  290539.33  38.27
884.0  760252.35  290862.72  38.26
885.2  761472.50  291369.23  38.26
886.5  762980.58  291920.52  38.26
887.7  764009.75  292349.82  38.27
888.8  765537.55  292894.86  38.26
890.0  766421.25  293270.25  38.26
891.2  767433.23  293671.50  38.27
892.4  769113.68  294262.38  38.26
893.6  770734.50  294920.53  38.26
894.8  772454.70  295550.14  38.26
896.0  773906.00  296182.63  38.27
897.2  775838.25  296924.48  38.27
898.4  777726.60  297656.14  38.27
899.6  779185.40  298123.20  38.26
900.8  779754.30  298334.95  38.26
902.0  780402.15  298610.88  38.26
903.2  780769.30  298703.71  38.26
904.3  781852.50  299127.22  38.26
905.5  782966.25  299634.82  38.27
906.7  784548.30  300120.86  38.25
907.9  785664.08  300522.55  38.25
909.1  786587.73  300983.47  38.26
910.2  787185.00  301126.50  38.25
911.4  787364.10  301223.83  38.26
912.6  787882.50  301404.40  38.25
913.8  789082.35  301797.90  38.25
915.0  789600.40  301907.01  38.24
916.2  790040.93  301989.51  38.22
917.3  790559.00  302328.93  38.24
918.5  791027.85  302500.10  38.24
919.7  791140.25  302587.90  38.25
920.8  791477.95  302644.32  38.24
922.0  791521.50  302652.49  38.24
923.2  792411.38  302834.81  38.22
924.4  793083.88  303051.91  38.21
925.5  794098.00  303355.32  38.20
926.7  795097.28  303696.71  38.20
927.9  796401.63  304170.22  38.19
929.0  799318.80  305315.23  38.20
930.2  803635.40  306878.74  38.19
931.4  809051.43  308861.17  38.18
932.5  813982.95  310583.50  38.16
933.7  816698.10  311529.58  38.15
934.9  818116.25  312048.75  38.14
936.0  817076.48  311554.86  38.13
937.2  814102.60  310367.93  38.12
938.3  810764.50  308792.53  38.09
939.5  808551.90  307938.98  38.09
940.7  808717.53  307895.81  38.07
941.8  810904.90  308882.66  38.09
943.0  813191.63  309506.90  38.06
944.2  815082.00  310047.32  38.04
945.3  815223.00  309758.21  38.00
946.5  813452.50  309012.33  37.99
947.6  814874.75  309327.61  37.96
948.8  813555.83  308695.81  37.94
949.9  814227.40  308658.11  37.91
951.1  814008.28  308464.28  37.89
952.2  813813.15  308041.53  37.85
953.4  813522.15  307759.04  37.83
954.5  812285.25  306946.50  37.79
955.7  811986.65  306593.58  37.76
956.8  812165.38  306523.37  37.74
958.0  811771.20  305897.70  37.68
959.1  811490.40  305674.56  37.67
960.3  810762.50  305351.31  37.66
961.4  811883.70  305380.18  37.61
962.6  811396.80  304991.66  37.59
963.7  811476.40  304949.64  37.58
964.9  812250.38  304999.35  37.55
966.0  812313.25  305275.55  37.58
967.2  812901.60  305516.28  37.58
968.3  814686.05  306014.11  37.56
969.5  815229.48  305961.27  37.53
970.6  815392.55  306020.98  37.53
971.8  814831.68  305806.74  37.53
972.9  815948.00  306209.77  37.53
974.0  816321.85  306506.58  37.55
975.2  815720.63  306092.09  37.52
976.3  817068.45  306561.92  37.52
977.5  816144.83  306408.03  37.54
978.6  816026.10  306524.55  37.56
979.7  815830.40  306365.55  37.55
980.9  815840.75  306640.88  37.59
982.0  815894.20  306578.43  37.58
983.2  815516.80  306759.93  37.62
984.3  814273.60  306174.46  37.60
985.4  813099.70  306233.37  37.66
986.6  814417.28  306501.13  37.63
987.7  813319.75  306215.45  37.65
988.9  814160.50  306573.54  37.66
990.0  815287.15  306484.84  37.59
993.1  843664.20  315857.35  37.44
996.9  844210.80  316905.18  37.54
1000.7  844085.33  317621.57  37.63
1004.5  843332.07  317910.65  37.70
1008.4  844076.83  318983.78  37.79
1012.2  845301.58  320098.35  37.87
1016.0  845175.48  320805.04  37.96
1019.8  844164.78  321103.73  38.04
1023.7  843413.49  321349.58  38.10
1027.5  841822.00  321218.57  38.16
1031.3  841015.24  321186.47  38.19
1035.1  840435.45  321207.11  38.22
1038.9  840166.18  321272.33  38.24
1042.7  839817.53  321366.74  38.27
1046.5  839109.25  321219.34  38.28
1050.3  837472.28  320752.76  38.30
1054.2  835526.18  320181.17  38.32
1058.0  834548.40  319858.92  38.33
1061.8  833337.42  319503.96  38.34
1065.6  831626.33  318903.49  38.35
1069.4  829867.33  318241.43  38.35
1073.2  828481.88  317697.51  38.35
1077.0  827073.87  317199.35  38.35
1080.8  826006.50  316719.65  38.34
1084.6  824853.33  316158.57  38.33
1088.4  823500.80  315615.95  38.33
1092.2  822009.30  314887.66  38.31
1096.0  820723.20  314196.05  38.28
1099.8  819299.13  313425.84  38.26
1103.6  817621.73  312536.25  38.23
1107.4  816301.48  311735.71  38.19
1111.2  814784.32  310912.55  38.16
1114.9  813583.50  310127.81  38.12
1118.7  812774.83  309368.76  38.06
1122.5  812500.54  308707.97  37.99
1126.3  809950.05  307065.56  37.91
1130.1  809281.58  305861.54  37.79
1133.9  805954.58  303261.72  37.63
1137.7  803420.00  300663.22  37.42
1141.4  799868.70  297421.24  37.18
1145.2  799131.12  294930.08  36.91
1149.0  797175.60  292228.45  36.66
1152.8  793933.10  289260.47  36.43
1156.6  790584.15  286640.48  36.26
1160.3  787490.25  284486.60  36.13
1164.1  782837.60  282108.72  36.04
1167.9  779736.92  280536.68  35.98
1171.7  777198.77  279340.22  35.94
1175.4  774949.39  278336.03  35.92
1179.2  773190.00  277426.42  35.88
1183.0  773321.75  277188.41  35.84
1186.7  773122.00  276798.87  35.80
1190.5  771338.13  275949.23  35.78
1194.3  768463.50  274762.56  35.75
1198.0  765530.28  273739.70  35.76
1201.8  763070.00  272919.53  35.77
1205.6  761368.46  272458.92  35.79
1209.3  760081.50  272211.43  35.81
1213.1  758542.46  271880.94  35.84
1216.8  756532.67  271507.94  35.89
1220.6  754344.50  271113.48  35.94
1224.3  752079.17  270670.06  35.99
1228.1  749994.95  270392.32  36.05
1231.9  747840.60  269974.54  36.10
1235.6  745502.73  269462.58  36.15
1239.4  743317.63  269016.71  36.19
1243.1  741180.60  268476.29  36.22
1246.9  739220.35  267948.08  36.25
1250.6  737213.28  267354.25  36.27
1254.3  735379.20  266792.95  36.28
1258.1  733423.33  266152.29  36.29
1261.8  730999.97  265347.40  36.30
1265.6  728464.75  264470.01  36.31
1269.3  725805.93  263420.44  36.29
1273.1  726139.98  263394.81  36.27
1276.8  726613.00  263349.46  36.24
1280.6  726469.09  263086.43  36.21
1284.3  724140.43  262041.74  36.19
1288.0  722025.74  260975.80  36.14
1291.8  719938.80  259759.98  36.08
1295.5  717927.54  258463.04  36.00
1299.2  715620.75  256974.57  35.91
1302.9  712876.36  255218.40  35.80
1306.7  709901.33  253246.39  35.67
1310.4  707043.18  251100.48  35.51
1314.1  704698.13  249050.81  35.34
1317.9  702354.68  246784.94  35.14
1321.6  699574.63  244234.52  34.91
1325.3  696789.68  241440.87  34.65
1329.0  694052.33  238621.97  34.38
1332.8  690236.25  235187.93  34.07
1336.5  686588.42  231814.64  33.76
1340.2  684622.60  228958.05  33.44
1343.9  683633.60  226398.51  33.12
1347.6  682659.23  223836.96  32.79
1351.4  681790.00  221445.04  32.48
1355.1  682087.63  219492.41  32.18
1358.8  680603.94  216878.59  31.87
1362.5  680176.12  214406.21  31.52
1366.2  677852.33  210978.81  31.12
1369.9  673955.00  206537.70  30.65
1373.6  669937.13  201331.03  30.05
1377.3  667221.33  195435.64  29.29
1381.0  664514.47  188124.95  28.31
1384.8  660928.50  179009.49  27.08
1388.4  656636.85  168680.50  25.69
1392.2  652519.08  157533.56  24.14
1395.9  650629.00  146593.40  22.53
1399.6  646802.22  135617.84  20.97
1403.3  644564.40  125898.62  19.53
1407.0  642448.13  117419.48  18.28
1410.7  641258.72  110489.00  17.23
1414.3  639443.50  104841.56  16.40
1418.1  637437.50  100470.31  15.76
1421.7  635661.60  97154.74  15.28
1425.4  634323.64  94763.38  14.94
1429.1  630887.25  92779.58  14.71
1432.8  629610.30  91703.28  14.57
1436.5  626255.50  90727.28  14.49
1440.2  622839.00  90073.95  14.46
1443.9  620584.42  89828.87  14.47
1447.6  617062.40  89594.33  14.52
1451.2  614133.25  89519.66  14.58
1454.9  612498.95  89724.02  14.65
1458.6  608830.33  89870.31  14.76
1462.3  607939.73  90682.93  14.92
1466.0  607911.58  91925.42  15.12
1469.7  606159.40  93265.48  15.39
1473.3  604003.40  94793.16  15.69
1477.0  599897.01  96232.34  16.04
1480.7  596754.46  97951.57  16.41
1484.4  593060.98  99585.77  16.79
1488.0  589967.90  101393.49  17.19
1491.7  586499.15  103088.69  17.58
1495.4  583041.60  104798.52  17.97
1499.0  580119.80  106515.89  18.36
1502.7  577328.98  108265.42  18.75
1506.4  574636.53  109938.70  19.13
1510.0  571924.17  111561.13  19.51
1513.7  569297.25  113108.67  19.87
1517.4  566728.17  114630.14  20.23
1521.0  564366.46  116104.26  20.57
1524.7  561866.23  117429.80  20.90
1528.3  559452.64  118702.57  21.22
1532.0  556972.70  119859.11  21.52
1535.7  554303.25  120860.31  21.80
1539.3  551739.97  121855.44  22.09
1543.0  550127.08  122991.95  22.36
1546.6  548750.33  124116.78  22.62
1550.3  547240.90  125112.55  22.86
1553.9  544896.27  125871.66  23.10
1557.6  542698.43  126620.72  23.33
1561.2  540144.50  127181.24  23.55
1564.9  537477.10  127686.80  23.76
1568.5  534802.67  128117.11  23.96
1572.2  532474.02  128594.22  24.15
1575.8  530657.00  129171.77  24.34
1579.5  528804.27  129684.11  24.52
1583.1  526529.03  130082.44  24.71
1586.8  524337.22  130452.76  24.88
1590.4  522227.55  130805.37  25.05
1594.0  519860.27  131081.00  25.21
1597.7  517608.60  131364.06  25.38
1601.3  515195.78  131579.43  25.54
1604.9  512515.67  131646.46  25.69
1608.6  509739.75  131618.43  25.82
1612.2  507196.00  131602.59  25.95
1615.8  504874.80  131625.29  26.07
1619.5  502684.74  131640.56  26.19
1623.1  500020.13  131458.69  26.29
1626.7  497197.82  131199.08  26.39
1630.3  494644.20  130969.88  26.48
1634.0  492282.70  130741.27  26.56
1637.6  490020.83  130498.86  26.63
1641.2  487858.82  130135.25  26.67
1644.8  485320.32  129603.77  26.70
1648.5  482676.58  128971.92  26.72
1652.1  480534.37  128346.42  26.71
1655.7  478689.07  127701.60  26.68
1659.3  476902.13  127054.01  26.64
1662.9  473642.68  126014.17  26.61
1666.6  470126.25  124897.13  26.57
1670.2  466847.98  123805.06  26.52
1673.8  463648.55  122710.53  26.47
1677.4  461074.58  121773.22  26.41
1681.0  459422.50  120959.38  26.33
1684.6  458542.33  120249.95  26.22
1688.2  457074.80  119240.16  26.09
1691.8  455373.80  118264.54  25.97
1695.4  454566.32  117465.58  25.84
1699.0  453727.00  116644.91  25.71
1702.6  453135.07  115863.56  25.57
1706.2  451652.73  114811.49  25.42
1709.8  449544.16  113596.66  25.27
1713.4  447951.40  112542.58  25.12
1717.0  446308.05  111516.84  24.99
1720.6  444612.70  110522.60  24.86
1724.2  443181.28  109621.99  24.74
1727.8  441847.39  108833.81  24.63
1731.4  441076.33  108237.49  24.54
1735.0  441006.00  107883.33  24.46
1738.6  440452.13  107327.50  24.37
1742.2  439502.18  106571.49  24.25
1745.8  437760.00  105560.96  24.11
1749.4  435421.28  104341.34  23.96
1753.0  431714.40  102763.75  23.80
1756.6  427938.00  101220.13  23.65
1760.1  424684.80  99848.60  23.51
1763.7  420887.67  98403.92  23.38
1767.3  417840.20  97229.20  23.27
1770.9  415227.04  96201.49  23.17
1774.5  412240.31  95127.93  23.08
1778.0  410058.13  94310.23  23.00
1781.6  407790.61  93550.93  22.94
1785.2  405202.23  92744.83  22.89
1788.8  402452.92  92016.52  22.86
1792.3  400163.13  91435.39  22.85
1795.9  399666.40  91306.03  22.85
1799.5  399856.08  91371.30  22.85
1803.1  400668.63  91599.65  22.86
1806.6  401805.47  91834.47  22.86
1810.2  403501.88  92170.96  22.84
1813.8  403239.07  92082.78  22.84
1817.3  402894.80  91993.95  22.83
1820.9  402050.00  91793.04  22.83
1824.5  401000.12  91514.28  22.82
1828.0  401387.80  91481.60  22.79
1831.6  401959.50  91451.28  22.75
1835.2  401192.00  90993.84  22.68
1838.7  401424.92  90581.77  22.57
1842.3  399763.00  89595.35  22.41
1845.8  398412.67  88437.50  22.20
1849.4  397952.80  87158.68  21.90
1852.9  396333.33  85277.56  21.52
1856.5  394889.63  82976.40  21.01
1860.0  394686.70  80416.83  20.37
1863.6  393820.03  77150.38  19.59
1867.1  393326.85  73335.28  18.64
1870.7  393723.54  68834.93  17.48
1874.2  392799.98  63285.24  16.11
1877.8  389846.16  57039.00  14.63
1881.3  386939.18  50604.25  13.08
1884.9  384602.39  44392.21  11.54
1888.4  382462.01  38498.36  10.07
1891.9  380775.88  33380.17  8.77
1895.5  379071.00  29169.69  7.70
1899.0  378021.18  25992.28  6.88
1901.3  396123.20  19865.34  5.01
1904.1  396156.33  18084.97  4.57
1906.8  394582.75  16700.89  4.23
1909.6  391185.80  15543.56  3.97
1912.4  387668.80  14653.44  3.78
1915.1  384025.50  13974.46  3.64
1917.9  380410.40  13448.42  3.54
1920.6  377728.20  13127.36  3.48
1923.3  375337.33  12879.22  3.43
1926.1  372302.25  12714.80  3.42
1928.8  368791.80  12607.40  3.42
1931.6  367839.48  12646.58  3.44
1934.3  364162.20  12637.02  3.47
1937.0  360424.20  12727.60  3.53
1939.8  357289.83  12852.47  3.60
1942.5  352980.62  12953.50  3.67
1945.2  349593.67  13117.39  3.75
1947.9  346961.77  13338.15  3.84
1950.7  342915.80  13534.97  3.95
1953.4  339511.63  13770.84  4.06
1956.1  336948.00  14068.52  4.18
1958.8  334843.83  14417.67  4.31
1961.5  331971.15  14731.50  4.44
1964.2  328686.73  15046.93  4.58
1966.9  325774.93  15378.67  4.72
1969.6  323117.30  15745.97  4.87
1972.3  320624.48  16148.65  5.04
1975.0  318163.33  16540.22  5.20
1977.7  316012.27  16967.51  5.37
1980.4  313769.87  17391.73  5.54
1983.1  311444.87  17838.30  5.73
1985.8  309366.00  18298.80  5.91
1988.4  307386.75  18762.70  6.10
1991.1  305616.50  19230.87  6.29
1993.8  304134.60  19711.30  6.48
1996.5  302591.80  20212.03  6.68
1999.1  301235.22  20709.46  6.87
2001.8  300042.67  21198.67  7.07
2004.5  298835.85  21677.00  7.25
2007.1  297360.20  22117.64  7.44
2009.8  295429.17  22519.58  7.62
2012.4  294151.88  22951.63  7.80
2015.1  292993.57  23368.92  7.98
2017.8  291805.57  23753.84  8.14
2020.4  290676.30  24144.63  8.31
2023.1  290228.77  24544.77  8.46
2025.7  289994.03  24953.04  8.60
2028.3  289210.60  25289.78  8.74
2031.0  288594.55  25626.65  8.88
2033.6  288321.25  25951.33  9.00
2036.2  287909.07  26235.22  9.11
2038.9  286956.80  26457.60  9.22
2041.5  286020.83  26638.89  9.31
2044.1  285229.17  26854.17  9.41
2046.8  284085.05  27020.04  9.51
2049.4  283244.13  27196.22  9.60
2052.0  283044.18  27404.23  9.68
2054.6  282651.47  27618.40  9.77
2057.2  281606.90  27771.97  9.86
2059.8  280119.00  27888.00  9.96
2062.4  278765.07  28036.23  10.06
2065.0  277396.90  28157.88  10.15
2067.6  275557.70  28254.78  10.25
2070.2  274106.40  28345.92  10.34
2072.8  273218.92  28511.69  10.44
2075.4  272161.00  28659.67  10.53
2078.0  271510.38  28841.45  10.62
2080.6  270288.33  28966.08  10.72
2083.2  268995.02  29061.72  10.80
2085.8  267729.00  29149.87  10.89
2088.4  266656.05  29298.53  10.99
2090.9  264987.50  29347.50  11.08
2093.5  263091.60  29375.07  11.17
2096.1  261325.35  29393.65  11.25
2098.7  259862.40  29446.49  11.33
2101.2  257998.40  29439.27  11.41
2103.8  256528.83  29505.03  11.50
2106.4  255078.10  29542.28  11.58
2108.9  254061.90  29639.84  11.67
2111.5  253129.33  29749.03  11.75
2114.0  252546.67  29892.78  11.84
2116.6  250384.20  29839.58  11.92
2119.1  249267.90  29888.13  11.99
2121.7  248720.98  29997.96  12.06
2124.2  248616.17  30144.55  12.12
2126.8  247442.35  30166.62  12.19
2129.3  246323.25  30190.45  12.26
2131.9  246543.20  30381.69  12.32
2134.4  245718.32  30424.18  12.38
2136.9  245443.10  30516.81  12.43
2139.4  244386.50  30501.61  12.48
2142.0  243966.65  30592.32  12.54
2144.5  243448.33  30668.17  12.60
2147.0  243051.92  30743.48  12.65
2149.5  242669.90  30826.07  12.70
2152.1  242987.33  30997.34  12.76
2154.6  243020.00  31103.47  12.80
2157.1  242943.23  31217.87  12.85
2159.6  241868.37  31194.50  12.90
2162.1  241691.40  31260.07  12.93
2164.6  241069.35  31269.33  12.97
2167.1  240114.67  31259.02  13.02
2169.6  240286.35  31366.55  13.05
2172.1  239478.00  31364.77  13.10
2174.6  239083.60  31435.60  13.15
2177.1  238039.67  31380.58  13.18
2179.5  237583.60  31454.87  13.24
2182.0  237281.17  31538.19  13.29
2184.5  236342.85  31522.20  13.34
2187.0  235531.00  31519.71  13.38
2189.5  234518.55  31512.31  13.44
2191.9  233283.60  31471.18  13.49
2194.4  231618.25  31368.92  13.54
2196.9  230573.20  31344.50  13.59
2199.3  229115.50  31251.20  13.64
2201.8  227958.03  31211.33  13.69
2204.3  227232.00  31191.80  13.73
2206.7  226068.15  31078.75  13.75
2209.2  224878.50  31010.40  13.79
2211.6  222974.03  30790.77  13.81
2214.1  222282.67  30733.07  13.83
2216.5  221934.73  30714.02  13.84
2219.0  220637.63  30531.84  13.84
2221.4  220653.30  30519.50  13.83
2223.9  219473.80  30314.56  13.81
2226.3  218238.90  30055.57  13.77
2228.7  217297.60  29795.13  13.71
2231.1  216645.13  29556.44  13.64
2233.6  215614.40  29249.07  13.57
2236.0  214576.20  28913.17  13.47
2238.4  213710.35  28538.37  13.35
2240.9  213007.60  28167.20  13.22
2243.3  212171.33  27749.00  13.08
2245.7  211339.73  27338.58  12.94
2248.1  210357.33  26873.60  12.78
2250.5  209585.20  26426.89  12.61
2252.9  208938.97  25990.36  12.44
2255.3  208203.57  25557.06  12.28
2257.7  207289.13  25137.08  12.13
2260.1  206411.20  24717.47  11.97
2262.5  205360.40  24282.00  11.82
2264.9  204435.67  23893.48  11.69
2267.3  203517.60  23509.20  11.55
2269.7  202574.87  23166.76  11.44
2272.1  201746.83  22855.22  11.33
2274.5  200998.60  22573.74  11.23
2276.8  200327.47  22303.82  11.13
2279.2  199562.30  22033.60  11.04
2281.6  198993.65  21822.45  10.97
2284.0  198633.60  21582.00  10.87
2286.3  198098.80  21352.44  10.78
2288.7  197549.92  21128.33  10.70
2291.1  197030.00  20902.67  10.61
2293.4  196326.50  20630.40  10.51
2295.8  195628.77  20376.71  10.42
2298.2  194842.50  20105.03  10.32
2300.5  193700.55  19761.08  10.20
2302.9  192297.25  19434.80  10.11
2305.2  190921.25  19128.97  10.02
2307.6  189416.27  18828.45  9.94
2309.9  188354.05  18580.34  9.86
2312.2  187403.00  18399.33  9.82
2314.6  186432.00  18233.22  9.78
2316.9  185369.47  18063.65  9.74
2319.2  184692.20  17939.78  9.71
2321.6  184029.32  17783.65  9.66
2323.9  183232.40  17612.93  9.61
2326.2  182370.42  17413.43  9.55
2328.6  181672.95  17240.93  9.49
2330.9  181373.47  17099.07  9.43
2333.2  180908.50  16911.67  9.35
2335.5  180362.22  16775.42  9.30
2337.8  179895.00  16575.40  9.21
2340.1  179323.47  16350.22  9.12
2342.4  178860.15  16195.95  9.06
2344.8  178146.50  15982.78  8.97
2347.1  177398.80  15790.33  8.90
2349.4  176780.67  15634.18  8.84
2351.6  176054.00  15453.33  8.78
2353.9  175032.40  15267.27  8.72
2356.2  174263.72  15086.59  8.66
2358.5  173396.63  14953.86  8.62
2360.8  172702.08  14817.36  8.58
2363.1  172280.33  14662.72  8.51
2365.4  171841.50  14553.00  8.47
2367.7  171320.33  14396.66  8.40
2369.9  170586.72  14177.41  8.31
2372.2  169436.05  13969.35  8.24
2374.5  168257.50  13741.67  8.17
2376.7  167271.10  13547.77  8.10
2379.0  166065.90  13310.18  8.02
2381.3  164619.22  13071.97  7.94
2383.5  163723.00  12901.00  7.88
2385.8  163047.50  12711.42  7.80
2388.0  162231.20  12475.83  7.69
2390.3  161493.47  12292.88  7.61
2392.5  161018.00  12135.78  7.54
2394.8  160117.92  11975.14  7.48
2397.0  159610.13  11760.58  7.37
2399.3  159059.92  11610.81  7.30
2401.5  158253.00  11388.30  7.20
2403.8  157605.00  11207.47  7.11
2406.0  157181.20  11042.78  7.03
2408.2  156356.55  10821.65  6.92
2410.4  155501.82  10622.42  6.83
2412.7  155012.20  10449.87  6.74
2414.9  154420.07  10280.47  6.66
2417.1  154360.33  10128.49  6.56
2419.3  153906.67  9948.97  6.46
2421.6  153135.27  9777.76  6.39
2423.8  152471.83  9544.76  6.26
2426.0  152093.70  9407.47  6.19
2428.2  151824.75  9182.25  6.05
2430.4  151849.88  9068.89  5.97
2432.6  151606.90  8885.17  5.86
2434.8  150995.70  8750.75  5.80
2437.0  150550.40  8554.00  5.68
2439.2  150021.30  8406.81  5.60
2441.4  149212.80  8184.93  5.49
2443.6  149083.13  8093.76  5.43
2445.7  149228.43  7969.25  5.34
2447.9  149222.45  7812.35  5.24
2450.1  148347.67  7634.89  5.15
2452.3  147485.07  7490.88  5.08
2454.5  146895.47  7335.69  4.99
2456.6  146249.42  7184.67  4.91
2458.8  145046.53  6999.69  4.83
2461.0  144657.07  6898.52  4.77
2463.1  144313.17  6728.39  4.66
2465.3  143734.67  6661.11  4.63
2467.5  143355.33  6531.78  4.56
2469.6  142866.08  6392.89  4.47
2471.8  142486.47  6260.08  4.39
2473.9  141911.25  6178.97  4.35
2476.1  141029.17  6103.47  4.33
2478.2  140155.55  5935.01  4.23
2480.4  139439.72  5879.83  4.22
2482.5  138538.50  5725.18  4.13
2484.6  137514.00  5630.67  4.09
2486.8  136838.93  5590.91  4.09
2488.9  136572.40  5501.07  4.03
2491.1  135097.00  5352.90  3.96
2493.2  133781.83  5190.68  3.88
2495.3  132221.78  5151.12  3.90
2497.4  130837.42  5046.79  3.86
2499.5  130025.10  5022.56  3.86
2501.7  130048.50  5007.67  3.85
2503.8  130335.10  4971.32  3.81
2505.9  130820.20  4926.42  3.77
2508.0  131681.50  4986.45  3.79
2510.1  132542.10  4987.60  3.76
2512.2  133429.00  5022.64  3.76
2514.3  134496.48  5132.91  3.82
2516.4  136395.70  5263.22  3.86
