/*** Spectra Vista SIG Data ***/
name= 1_20220824_CECA_30_avg.sig
comm= Averaged Ref/Tar of files: HR.082422.0000_moc.sig,HR.082422.0001_moc.sig,HR.082422.0002_moc.sig
data=
337.3  3324.88  282.63  8.50
338.8  3463.20  286.77  8.28
340.3  3607.45  285.56  7.92
341.8  3795.18  289.16  7.62
343.2  3996.00  292.62  7.32
344.7  4137.05  285.15  6.89
346.2  4330.10  282.45  6.52
347.7  4522.38  280.89  6.21
349.2  4725.00  278.64  5.90
350.6  4957.88  280.51  5.66
352.1  5251.58  293.97  5.60
353.6  5517.30  293.46  5.32
355.1  5758.43  300.19  5.21
356.6  6063.38  307.15  5.07
358.0  6380.00  306.24  4.80
359.5  6674.40  317.83  4.76
361.0  6972.53  329.46  4.73
362.5  7348.03  346.28  4.71
364.0  7684.90  356.12  4.63
365.4  8036.60  359.14  4.47
366.9  8398.00  371.49  4.42
368.4  8755.28  380.81  4.35
369.9  9134.45  398.43  4.36
371.3  9585.30  415.50  4.33
372.8  10009.35  432.39  4.32
374.3  10427.50  442.29  4.24
375.8  10860.85  447.11  4.12
377.2  11271.10  452.43  4.01
378.7  11701.50  463.70  3.96
380.2  12105.00  468.83  3.87
381.7  12647.70  487.99  3.86
383.1  13151.60  499.99  3.80
384.6  13676.33  513.81  3.76
386.1  14161.10  527.12  3.72
387.6  14660.80  533.35  3.64
389.0  15168.80  540.08  3.56
390.5  15664.50  554.26  3.54
392.0  16266.75  568.80  3.50
393.4  16868.55  587.56  3.48
394.9  17434.80  599.06  3.44
396.4  17983.13  620.01  3.45
397.9  18526.88  624.76  3.37
399.3  19120.38  641.57  3.36
400.8  19690.75  658.49  3.34
402.2  20351.95  677.58  3.33
403.7  20993.40  690.61  3.29
405.2  21615.28  707.09  3.27
406.6  22179.20  719.42  3.24
408.1  22780.80  737.84  3.24
409.6  23420.65  763.44  3.26
411.0  24104.15  783.24  3.25
412.5  24802.58  800.08  3.23
414.0  25448.38  818.88  3.22
415.4  26155.50  848.38  3.24
416.9  26830.80  874.53  3.26
418.4  27526.95  898.18  3.26
419.8  28264.60  930.80  3.29
421.3  29019.10  957.80  3.30
422.7  29806.20  992.63  3.33
424.2  30594.38  1022.46  3.34
425.7  31377.50  1054.38  3.36
427.1  32140.58  1083.94  3.37
428.6  32953.00  1122.20  3.41
430.0  33718.85  1153.01  3.42
431.5  34611.08  1190.30  3.44
432.9  35482.30  1227.53  3.46
434.4  36399.83  1262.78  3.47
435.9  37254.00  1299.47  3.49
437.3  38128.75  1331.26  3.49
438.8  38987.40  1365.52  3.50
440.2  39872.53  1403.71  3.52
441.7  40856.60  1443.37  3.53
443.1  41764.00  1480.72  3.55
444.6  42771.50  1519.85  3.55
446.0  43725.75  1556.01  3.56
447.5  44707.58  1593.34  3.56
448.9  45653.10  1631.30  3.57
450.4  46684.75  1671.17  3.58
451.8  47567.00  1705.35  3.59
453.3  48508.25  1744.83  3.60
454.7  49538.00  1785.78  3.60
456.2  50426.93  1819.00  3.61
457.6  51414.08  1850.66  3.60
459.1  52420.55  1885.55  3.60
460.5  53379.63  1920.40  3.60
462.0  54465.18  1959.71  3.60
463.4  55512.40  1995.76  3.60
464.8  56526.75  2030.77  3.59
466.3  57530.55  2061.54  3.58
467.7  58537.93  2095.70  3.58
469.2  59635.78  2134.04  3.58
470.6  60625.75  2168.52  3.58
472.0  61690.73  2206.16  3.58
473.5  62715.00  2246.82  3.58
474.9  63754.50  2279.19  3.57
476.4  64958.40  2319.36  3.57
477.8  66033.00  2355.90  3.57
479.2  67062.50  2393.47  3.57
480.7  68191.73  2438.69  3.58
482.1  69345.55  2481.55  3.58
483.6  70573.80  2526.96  3.58
485.0  71680.20  2566.90  3.58
486.4  72895.50  2611.79  3.58
487.9  73987.88  2654.51  3.59
489.3  75171.13  2701.55  3.59
490.7  76275.50  2753.72  3.61
492.2  77527.80  2803.08  3.62
493.6  78655.85  2860.80  3.64
495.0  79794.00  2916.36  3.65
496.5  81006.00  2978.33  3.68
497.9  82106.63  3039.54  3.70
499.3  83295.30  3106.91  3.73
500.7  84574.45  3188.96  3.77
502.2  85731.20  3270.40  3.81
503.6  87001.40  3365.23  3.87
505.0  88105.10  3462.70  3.93
506.5  89433.08  3580.90  4.00
507.9  90640.05  3706.25  4.09
509.3  92026.40  3857.02  4.19
510.7  93278.25  4022.29  4.31
512.2  94695.45  4219.53  4.46
513.6  96202.40  4444.95  4.62
515.0  97654.63  4693.71  4.81
516.4  99054.90  4973.94  5.02
517.8  100697.13  5303.74  5.27
519.3  102029.68  5654.13  5.54
520.7  103590.65  6045.25  5.84
522.1  104910.33  6457.78  6.16
523.5  106279.40  6892.02  6.48
524.9  107777.70  7348.06  6.82
526.3  109203.50  7807.22  7.15
527.8  110677.05  8262.82  7.47
529.2  111779.80  8702.45  7.79
530.6  113418.05  9170.38  8.09
532.0  115178.00  9626.93  8.36
533.4  116446.35  10020.42  8.61
534.8  117318.98  10346.48  8.82
536.3  119002.50  10719.78  9.01
537.7  121086.00  11104.80  9.17
539.1  122559.80  11419.05  9.32
540.5  123717.35  11692.40  9.45
541.9  125450.85  12015.21  9.58
543.3  126734.68  12291.11  9.70
544.7  128022.00  12563.02  9.81
546.1  129820.35  12883.14  9.92
547.5  131073.60  13143.25  10.03
549.0  132858.00  13439.49  10.12
550.4  134385.00  13692.89  10.19
551.8  135919.85  13922.47  10.24
553.2  137463.43  14112.52  10.27
554.6  138798.40  14241.66  10.26
556.0  140356.35  14340.37  10.22
557.4  141989.40  14397.38  10.14
558.8  143637.30  14413.31  10.03
560.2  145084.00  14369.67  9.90
561.6  146763.15  14305.09  9.75
563.0  148367.90  14192.53  9.57
564.4  149968.25  14053.00  9.37
565.8  151501.88  13873.82  9.16
567.2  153241.25  13679.73  8.93
568.6  154751.25  13439.22  8.68
570.0  156185.23  13170.84  8.43
571.4  157926.60  12916.50  8.18
572.8  159699.38  12669.15  7.93
574.2  161324.80  12420.27  7.70
575.6  162866.25  12191.79  7.49
577.0  164403.70  11989.41  7.29
578.4  166154.63  11823.28  7.12
579.8  167672.70  11668.44  6.96
581.2  169400.13  11545.90  6.82
582.5  170831.70  11416.97  6.68
583.9  172350.80  11315.19  6.57
585.3  174152.70  11241.75  6.46
586.7  175637.15  11161.26  6.35
588.1  177109.88  11102.11  6.27
589.5  178776.50  11064.20  6.19
590.9  180420.00  11040.96  6.12
592.3  182238.55  11040.89  6.06
593.7  183673.43  11036.18  6.01
595.0  185295.60  11051.24  5.96
596.4  186739.00  11058.81  5.92
597.8  188240.78  11069.67  5.88
599.2  189789.60  11081.71  5.84
600.6  191560.20  11094.52  5.79
602.0  192836.70  11068.34  5.74
603.3  194632.20  11057.83  5.68
604.7  196290.95  11015.54  5.61
606.1  197795.40  10947.74  5.53
607.5  199433.85  10875.03  5.45
608.9  201125.75  10784.51  5.36
610.2  202518.23  10681.47  5.27
611.6  204116.93  10583.58  5.19
613.0  205666.85  10478.59  5.09
614.4  207046.50  10368.75  5.01
615.8  208508.63  10265.64  4.92
617.1  210048.30  10182.20  4.85
618.5  211669.60  10123.20  4.78
619.9  213173.78  10076.79  4.73
621.3  214803.68  10049.71  4.68
622.6  216382.25  10039.44  4.64
624.0  217829.55  10038.97  4.61
625.4  219308.93  10045.44  4.58
626.8  220879.75  10078.86  4.56
628.1  222168.93  10103.38  4.55
629.5  223996.38  10162.40  4.54
630.9  225539.88  10204.95  4.52
632.2  226870.88  10231.56  4.51
633.6  228447.50  10247.27  4.49
635.0  229946.80  10231.87  4.45
636.3  231474.00  10183.27  4.40
637.7  232842.38  10104.64  4.34
639.1  234482.50  10014.67  4.27
640.4  235943.58  9898.34  4.20
641.8  237143.80  9764.37  4.12
643.2  238723.10  9633.59  4.04
644.5  240097.00  9504.60  3.96
645.9  241768.80  9396.15  3.89
647.2  243435.15  9307.51  3.82
648.6  245166.75  9252.13  3.77
650.0  246520.80  9192.55  3.73
651.3  247057.80  9133.04  3.70
652.7  248525.10  9101.46  3.66
654.0  250755.00  9097.19  3.63
655.4  252210.35  9072.26  3.60
656.8  252287.80  8984.44  3.56
658.1  253559.00  8942.94  3.53
659.5  256045.65  8920.35  3.48
660.8  257850.00  8877.00  3.44
662.2  258697.60  8803.84  3.40
663.5  260262.50  8747.77  3.36
664.9  261487.20  8698.98  3.33
666.2  262182.00  8645.31  3.30
667.6  263836.85  8645.09  3.28
668.9  264894.00  8659.90  3.27
670.3  266307.25  8674.25  3.26
671.6  267734.63  8705.03  3.25
673.0  268907.25  8753.07  3.26
674.3  270172.50  8817.27  3.26
675.7  271478.35  8900.64  3.28
677.0  272581.40  8991.23  3.30
678.4  273946.95  9109.96  3.33
679.7  275004.15  9232.88  3.36
681.1  276312.78  9382.09  3.40
682.4  277443.40  9546.36  3.44
683.8  278681.00  9755.99  3.50
685.1  279682.13  9996.29  3.57
686.4  280963.20  10303.76  3.67
687.8  282241.25  10697.38  3.79
689.1  283331.50  11202.98  3.95
690.5  284649.60  11898.71  4.18
691.8  285410.03  12834.72  4.50
693.1  286749.00  14131.87  4.93
694.5  287924.00  15821.87  5.50
695.8  289152.50  17959.93  6.21
697.1  290358.25  20574.23  7.09
698.5  291399.90  23677.61  8.13
699.8  292507.50  27237.64  9.31
701.1  293618.58  31232.33  10.64
702.5  294412.80  35526.34  12.07
703.8  295357.50  40098.43  13.58
705.1  296548.20  44893.57  15.14
706.5  297587.50  49801.21  16.73
707.8  298573.65  54791.56  18.35
709.1  299467.55  59811.01  19.97
710.5  300606.13  64905.37  21.59
711.8  301451.40  69948.52  23.20
713.1  302432.60  75022.72  24.81
714.4  303324.60  80051.05  26.39
715.8  304172.00  85017.79  27.95
717.1  305479.80  90058.15  29.48
718.4  306409.60  94917.55  30.98
719.7  307547.90  99736.34  32.43
721.0  308070.00  104256.86  33.84
722.4  308844.80  108725.36  35.20
723.7  309784.05  113099.43  36.51
725.0  310832.55  117354.93  37.76
726.3  311766.68  121386.39  38.94
727.6  312337.30  125078.83  40.05
729.0  313247.20  128729.77  41.10
730.3  314014.95  132115.70  42.07
731.6  314932.60  135371.50  42.98
732.9  315702.10  138382.95  43.83
734.2  316520.88  141229.52  44.62
735.5  317516.93  143985.10  45.35
736.8  318314.70  146467.81  46.01
738.1  319160.60  148800.49  46.62
739.5  320125.35  151037.11  47.18
740.8  320818.30  152994.39  47.69
742.1  321554.73  154850.36  48.16
743.4  322225.00  156571.90  48.59
744.7  323196.65  158301.36  48.98
746.0  324023.70  159860.00  49.34
747.3  324575.90  161160.47  49.65
748.6  325299.75  162435.90  49.93
749.9  325988.00  163615.77  50.19
751.2  326665.80  164702.66  50.42
752.5  327502.60  165804.95  50.63
753.8  328101.73  166690.27  50.80
755.1  328796.00  167569.26  50.96
756.4  329388.98  168318.00  51.10
757.7  330396.33  169220.29  51.22
759.0  332218.30  170489.97  51.32
760.3  333379.20  171400.37  51.41
761.6  334920.60  172466.29  51.49
762.9  335445.00  172971.61  51.56
764.2  335819.60  173366.66  51.62
765.5  336109.93  173677.06  51.67
766.8  336518.40  174047.36  51.72
768.1  337047.40  174438.84  51.75
769.3  337606.50  174847.54  51.79
770.6  338250.90  175270.99  51.82
771.9  338973.43  175722.38  51.84
773.2  339323.20  175992.37  51.87
774.5  339939.60  176354.14  51.88
775.8  340603.10  176752.14  51.89
777.1  341142.45  177092.64  51.91
778.4  341447.70  177294.87  51.92
779.6  342223.93  177721.53  51.93
780.9  342660.00  177982.86  51.94
782.2  343095.50  178237.03  51.95
783.5  343399.50  178426.16  51.96
784.8  343914.53  178707.50  51.96
786.0  344300.95  178923.82  51.97
787.3  344682.73  179136.52  51.97
788.6  345078.48  179362.06  51.98
789.9  345506.00  179604.85  51.98
791.2  346109.38  179931.89  51.99
792.4  346798.08  180280.92  51.98
793.7  347293.20  180527.32  51.98
795.0  347890.13  180847.13  51.98
796.2  348547.40  181183.89  51.98
797.5  349194.60  181544.95  51.99
798.8  349854.70  181887.14  51.99
800.0  350506.88  182219.07  51.99
801.3  350964.20  182454.90  51.99
802.6  351566.55  182756.76  51.98
803.8  352195.95  183092.19  51.99
805.1  352696.75  183339.82  51.98
806.4  353110.80  183565.80  51.99
807.7  353662.20  183838.68  51.98
808.9  354211.30  184126.67  51.98
810.2  354723.95  184381.35  51.98
811.4  355205.80  184635.68  51.98
812.7  355834.38  184966.01  51.98
814.0  356688.20  185386.63  51.97
815.2  357254.75  185709.57  51.98
816.5  357688.78  185925.45  51.98
817.7  358183.15  186171.42  51.98
819.0  358679.75  186439.40  51.98
820.2  358820.00  186527.31  51.98
821.5  359521.80  186889.59  51.98
822.7  359890.98  187077.16  51.98
824.0  360223.20  187258.01  51.98
825.2  360723.38  187521.60  51.98
826.5  361039.18  187681.75  51.98
827.7  361580.23  187976.25  51.99
829.0  362026.75  188200.08  51.99
830.2  362369.60  188377.18  51.98
831.5  362835.25  188625.14  51.99
832.7  363197.10  188815.35  51.99
834.0  363523.30  188969.65  51.98
835.2  363893.20  189175.04  51.99
836.4  364220.45  189359.98  51.99
837.7  364657.60  189610.18  52.00
838.9  365092.18  189857.69  52.00
840.1  365507.10  190068.81  52.00
841.4  365923.90  190341.88  52.02
842.6  366336.40  190544.03  52.01
843.8  366718.80  190762.53  52.02
845.1  367257.80  191057.26  52.02
846.3  367691.80  191286.28  52.02
847.5  368140.50  191524.12  52.02
848.8  368637.00  191775.41  52.02
850.0  369008.50  191975.11  52.02
851.2  369532.80  192286.13  52.03
852.5  369982.20  192524.00  52.04
853.7  370489.50  192811.89  52.04
854.9  371019.30  193061.10  52.04
856.1  371572.50  193304.42  52.02
857.4  371748.83  193429.15  52.03
858.6  372288.95  193706.76  52.03
859.8  372751.88  193923.61  52.02
861.0  373323.60  194178.55  52.01
862.2  373783.43  194450.37  52.02
863.5  374208.25  194660.80  52.02
864.7  374833.80  194949.67  52.01
865.9  375220.80  195182.48  52.02
867.1  375495.60  195339.35  52.02
868.3  376046.40  195558.10  52.00
869.5  376585.70  195815.34  52.00
870.8  377221.50  196113.94  51.99
872.0  377809.95  196390.77  51.98
873.2  378246.00  196628.38  51.98
874.4  378764.10  196868.88  51.98
875.6  379170.58  197065.52  51.97
876.8  379619.55  197334.42  51.98
878.0  380244.05  197588.33  51.96
879.2  380768.55  197832.61  51.96
880.4  381413.63  198106.83  51.94
881.6  381856.13  198327.57  51.94
882.8  382289.60  198567.54  51.94
884.0  382921.23  198865.25  51.93
885.2  383512.10  199105.73  51.92
886.5  384187.40  199414.94  51.91
887.7  384766.85  199637.73  51.89
888.8  385363.05  199973.96  51.89
890.0  385978.75  200253.74  51.88
891.2  386606.20  200534.06  51.87
892.4  387226.88  200855.70  51.87
893.6  387905.10  201129.25  51.85
894.8  388751.75  201567.95  51.85
896.0  389655.50  201989.82  51.84
897.2  390607.75  202419.22  51.82
898.4  391297.50  202762.50  51.82
899.6  392024.25  203013.30  51.79
900.8  392391.85  203229.28  51.79
902.0  392613.45  203304.82  51.78
903.2  392860.50  203452.33  51.79
904.3  393277.20  203636.77  51.78
905.5  394006.88  203930.83  51.76
906.7  394639.50  204204.88  51.74
907.9  395309.95  204462.53  51.72
909.1  395633.70  204580.90  51.71
910.2  395776.35  204656.45  51.71
911.4  395992.35  204779.36  51.71
912.6  396131.45  204896.26  51.72
913.8  396538.05  204975.99  51.69
915.0  396966.15  205146.48  51.68
916.2  397107.75  205192.56  51.67
917.3  397244.70  205188.03  51.65
918.5  397585.60  205268.06  51.63
919.7  397807.20  205355.81  51.62
920.8  397877.78  205324.72  51.60
922.0  397916.75  205335.90  51.60
923.2  398307.00  205402.60  51.57
924.4  398520.00  205488.19  51.56
925.5  398872.90  205591.61  51.54
926.7  399361.88  205828.15  51.54
927.9  400108.20  206199.60  51.54
929.0  401719.50  206867.67  51.50
930.2  403919.10  207869.92  51.46
931.4  406352.70  209068.95  51.45
932.5  409065.15  210388.29  51.43
933.7  410580.53  210997.89  51.39
934.9  411000.63  211254.58  51.40
936.0  410804.88  210930.32  51.35
937.2  408661.50  209774.84  51.33
938.3  407010.25  208822.88  51.31
939.5  405572.40  207967.75  51.28
940.7  405855.90  207959.71  51.24
941.8  407336.85  208658.85  51.23
943.0  408869.25  209288.89  51.19
944.2  409501.30  209546.52  51.17
945.3  409217.25  209177.24  51.12
946.5  408514.05  208656.08  51.08
947.6  408670.10  208604.01  51.04
948.8  408616.65  208405.02  51.00
949.9  408618.00  208217.52  50.96
951.1  408268.90  207911.96  50.93
952.2  408000.00  207582.63  50.88
953.4  407868.00  207186.84  50.80
954.5  408142.80  206993.73  50.72
955.7  407836.80  206725.44  50.69
956.8  407690.90  206394.88  50.63
958.0  407338.50  205948.59  50.56
959.1  407207.90  205702.12  50.52
960.3  406825.78  205391.77  50.49
961.4  406709.70  205211.15  50.46
962.6  406855.75  205162.07  50.43
963.7  406748.85  204993.57  50.40
964.9  406660.50  204802.93  50.36
966.0  406336.50  204677.01  50.37
967.2  406262.70  204618.14  50.37
968.3  405939.60  204396.33  50.35
969.5  405942.90  204286.78  50.32
970.6  405947.35  204241.32  50.31
971.8  406020.30  204281.99  50.31
972.9  405892.50  204284.36  50.33
974.0  406071.40  204342.40  50.32
975.2  405938.75  204148.69  50.29
976.3  405491.78  204079.26  50.33
977.5  405781.78  204056.03  50.29
978.6  405301.30  203990.03  50.33
979.7  405187.65  204054.07  50.36
980.9  404930.65  204092.95  50.40
982.0  405077.80  203745.63  50.30
983.2  404652.60  203581.72  50.31
984.3  404043.40  203453.71  50.35
985.4  404423.93  203415.95  50.30
986.6  403480.13  203491.78  50.43
987.7  404379.50  203991.13  50.45
988.9  403988.40  203589.67  50.39
990.0  405328.90  203783.72  50.28
993.1  368355.69  184011.09  49.95
996.9  368254.40  184480.43  50.10
1000.7  368954.31  185177.30  50.19
1004.5  369224.33  185685.23  50.29
1008.4  368800.25  185831.04  50.39
1012.2  368608.88  186062.28  50.48
1016.0  368401.80  186305.73  50.57
1019.8  368190.90  186521.59  50.66
1023.7  367806.52  186582.66  50.73
1027.5  367158.27  186451.51  50.78
1031.3  367105.88  186570.54  50.82
1035.1  366774.86  186498.69  50.85
1038.9  366660.62  186498.68  50.86
1042.7  366502.83  186457.58  50.87
1046.5  366346.17  186422.68  50.89
1050.3  366315.88  186446.31  50.90
1054.2  365960.58  186316.10  50.91
1058.0  365490.18  186063.57  50.91
1061.8  365358.48  186006.89  50.91
1065.6  365055.17  185779.53  50.89
1069.4  364913.87  185673.25  50.88
1073.2  364293.31  185291.61  50.86
1077.0  363662.80  184908.25  50.85
1080.8  363194.79  184578.19  50.82
1084.6  362297.83  184016.62  50.79
1088.4  361808.73  183662.47  50.76
1092.2  361091.25  183153.29  50.72
1096.0  360539.11  182683.38  50.67
1099.8  360042.58  182242.18  50.62
1103.6  359341.77  181698.31  50.56
1107.4  358387.84  181008.57  50.51
1111.2  358105.60  180648.41  50.45
1114.9  357376.25  180054.83  50.38
1118.7  356810.85  179443.86  50.29
1122.5  356171.40  178745.64  50.19
1126.3  355115.66  177763.69  50.06
1130.1  354624.83  176916.75  49.89
1133.9  353042.90  175321.62  49.66
1137.7  351627.40  173609.21  49.37
1141.4  349849.50  171538.76  49.03
1145.2  349087.64  169829.87  48.65
1149.0  347975.83  168021.39  48.29
1152.8  346351.40  166141.93  47.97
1156.6  344707.18  164500.80  47.72
1160.3  343051.33  163100.93  47.54
1164.1  340720.67  161583.25  47.42
1167.9  338962.50  160507.14  47.35
1171.7  337719.38  159762.75  47.31
1175.4  336479.23  159082.20  47.28
1179.2  335375.73  158437.78  47.24
1183.0  335025.33  158146.30  47.20
1186.7  334599.53  157793.79  47.16
1190.5  333667.27  157237.61  47.12
1194.3  332555.27  156614.97  47.09
1198.0  331327.70  155978.44  47.08
1201.8  329856.10  155266.97  47.07
1205.6  328657.33  154769.29  47.09
1209.3  327784.13  154514.36  47.14
1213.1  326945.70  154289.53  47.19
1216.8  326126.53  154090.50  47.25
1220.6  325124.80  153782.28  47.30
1224.3  323984.33  153408.61  47.35
1228.1  322757.80  153029.97  47.41
1231.9  321484.45  152591.67  47.46
1235.6  320006.18  152026.22  47.51
1239.4  318636.50  151512.01  47.55
1243.1  317366.60  151004.05  47.58
1246.9  316152.98  150497.35  47.60
1250.6  315142.47  150063.57  47.62
1254.3  314044.78  149571.53  47.63
1258.1  313012.93  149073.91  47.63
1261.8  311710.13  148437.28  47.62
1265.6  310279.45  147721.84  47.61
1269.3  308982.80  147013.24  47.58
1273.1  308998.04  146918.37  47.55
1276.8  309189.20  146851.85  47.50
1280.6  308822.63  146506.61  47.44
1284.3  307319.60  145589.05  47.37
1288.0  305846.83  144655.24  47.30
1291.8  304693.67  143815.06  47.20
1295.5  303484.13  142901.90  47.09
1299.2  302321.97  141942.99  46.95
1302.9  300897.45  140786.67  46.79
1306.7  299347.53  139501.48  46.60
1310.4  297843.08  138152.59  46.38
1314.1  296466.32  136786.24  46.14
1317.9  295208.96  135378.30  45.86
1321.6  293791.64  133800.73  45.54
1325.3  292137.30  132021.29  45.19
1329.0  290826.55  130326.56  44.81
1332.8  288811.60  128226.27  44.40
1336.5  287043.87  126215.11  43.97
1340.2  286695.50  124824.07  43.54
1343.9  286266.46  123365.90  43.09
1347.6  285639.60  121839.19  42.65
1351.4  285804.50  120691.61  42.23
1355.1  286038.87  119589.91  41.81
1358.8  286160.00  118391.11  41.37
1362.5  285634.33  116803.27  40.89
1366.2  284013.90  114543.49  40.33
1369.9  282162.25  111892.54  39.66
1373.6  280107.86  108718.93  38.81
1377.3  278250.00  104984.67  37.73
1381.0  277112.83  100699.86  36.34
1384.8  275258.75  95251.82  34.60
1388.4  272915.42  89066.74  32.64
1392.2  271052.42  82582.30  30.47
1395.9  269508.45  76022.09  28.21
1399.6  267931.59  69721.51  26.02
1403.3  266820.10  64115.66  24.03
1407.0  265738.20  59271.99  22.30
1410.7  264625.35  55288.46  20.89
1414.3  263401.08  52138.53  19.79
1418.1  262267.38  49777.53  18.98
1421.7  261345.29  48049.13  18.39
1425.4  260392.93  46802.60  17.97
1429.1  259453.13  45947.09  17.71
1432.8  257981.73  45287.05  17.55
1436.5  257178.51  44960.18  17.48
1440.2  256414.13  44806.55  17.47
1443.9  255225.21  44686.58  17.51
1447.6  253745.80  44609.89  17.58
1451.2  252703.18  44654.40  17.67
1454.9  251444.55  44722.32  17.79
1458.6  250325.48  44931.96  17.95
1462.3  249177.50  45278.49  18.17
1466.0  247836.13  45769.29  18.47
1469.7  246193.57  46378.80  18.84
1473.3  245180.17  47274.07  19.28
1477.0  243310.37  48107.22  19.77
1480.7  241778.08  49082.73  20.30
1484.4  239920.63  50009.12  20.84
1488.0  238421.33  51034.88  21.41
1491.7  236837.34  52026.24  21.97
1495.4  235175.32  53001.34  22.54
1499.0  233638.50  53957.03  23.09
1502.7  232396.67  54969.83  23.65
1506.4  231025.58  55920.92  24.21
1510.0  229651.17  56831.11  24.75
1513.7  228237.92  57684.80  25.27
1517.4  226968.33  58517.77  25.78
1521.0  225784.27  59345.94  26.28
1524.7  224586.92  60105.65  26.76
1528.3  223344.50  60811.49  27.23
1532.0  222153.98  61485.25  27.68
1535.7  220767.20  62051.81  28.11
1539.3  219539.12  62618.71  28.52
1543.0  218586.03  63221.39  28.92
1546.6  217883.25  63863.67  29.31
1550.3  216932.00  64382.90  29.68
1553.9  215874.77  64833.33  30.03
1557.6  214656.93  65181.90  30.37
1561.2  213421.05  65473.11  30.68
1564.9  212143.37  65721.27  30.98
1568.5  210846.18  65930.19  31.27
1572.2  209738.40  66153.87  31.54
1575.8  208684.00  66374.22  31.81
1579.5  207694.60  66589.48  32.06
1583.1  206691.74  66778.10  32.31
1586.8  205492.00  66862.45  32.54
1590.4  204409.53  66977.31  32.77
1594.0  203111.13  66993.23  32.98
1597.7  202050.47  67078.94  33.20
1601.3  200859.75  67083.30  33.40
1604.9  199678.92  67077.67  33.59
1608.6  198437.48  67001.92  33.76
1612.2  197387.85  66961.36  33.92
1615.8  196222.98  66866.82  34.08
1619.5  195083.83  66754.72  34.22
1623.1  193787.50  66564.03  34.35
1626.7  192575.50  66363.28  34.46
1630.3  191395.92  66156.52  34.57
1634.0  190218.00  65917.33  34.65
1637.6  189098.20  65664.98  34.73
1641.2  187946.85  65344.54  34.77
1644.8  186653.25  64916.92  34.78
1648.5  185544.98  64516.57  34.77
1652.1  184554.90  64116.28  34.74
1655.7  183648.60  63731.40  34.70
1659.3  182826.56  63401.69  34.68
1662.9  181446.67  62912.37  34.67
1666.6  180081.47  62432.33  34.67
1670.2  178751.71  61951.95  34.66
1673.8  177386.35  61425.86  34.63
1677.4  176313.45  60963.40  34.58
1681.0  175543.40  60560.25  34.50
1684.6  175154.42  60204.91  34.37
1688.2  174483.65  59670.32  34.20
1691.8  173829.37  59149.21  34.03
1695.4  173410.40  58685.90  33.84
1699.0  173091.57  58258.39  33.66
1702.6  172817.00  57813.16  33.45
1706.2  172266.03  57224.18  33.22
1709.8  171393.70  56527.44  32.98
1713.4  170727.59  55947.37  32.77
1717.0  169875.75  55398.43  32.61
1720.6  169085.10  54914.69  32.48
1724.2  168368.93  54481.23  32.36
1727.8  167657.00  54048.13  32.24
1731.4  167146.38  53692.79  32.12
1735.0  166942.05  53433.20  32.01
1738.6  166720.95  53123.97  31.86
1742.2  166171.79  52648.08  31.68
1745.8  165567.91  52121.95  31.48
1749.4  164634.53  51466.75  31.26
1753.0  163193.20  50642.37  31.03
1756.6  161570.50  49800.37  30.82
1760.1  160278.63  49066.89  30.61
1763.7  158592.67  48249.38  30.42
1767.3  157197.83  47535.57  30.24
1770.9  155993.54  46899.87  30.07
1774.5  154584.68  46219.68  29.90
1778.0  153451.03  45670.73  29.76
1781.6  152378.70  45204.95  29.67
1785.2  151241.65  44779.03  29.61
1788.8  150094.00  44392.08  29.58
1792.3  148890.60  44007.65  29.56
1795.9  148379.18  43843.14  29.55
1799.5  147877.67  43693.84  29.55
1803.1  147516.95  43587.80  29.55
1806.6  148312.56  43798.75  29.53
1810.2  149606.57  44148.41  29.51
1813.8  150499.85  44374.74  29.48
1817.3  150388.20  44306.36  29.46
1820.9  149438.18  43982.06  29.43
1824.5  148113.60  43537.05  29.39
1828.0  147112.17  43148.34  29.33
1831.6  146213.10  42764.98  29.25
1835.2  145463.33  42350.91  29.11
1838.7  145028.13  41954.50  28.93
1842.3  144675.00  41502.14  28.69
1845.8  143909.88  40805.94  28.36
1849.4  143360.40  40028.91  27.92
1852.9  142733.44  39046.84  27.36
1856.5  141891.13  37779.51  26.63
1860.0  141141.22  36284.15  25.71
1863.6  140855.07  34645.31  24.60
1867.1  140630.00  32716.21  23.26
1870.7  140564.50  30399.72  21.63
1874.2  139924.80  27553.17  19.69
1877.8  138703.13  24460.13  17.63
1881.3  137210.38  21256.45  15.49
1884.9  136068.63  18258.84  13.42
1888.4  134915.54  15447.30  11.45
1891.9  133710.60  13037.93  9.75
1895.5  132379.93  11099.35  8.38
1899.0  131539.00  9694.54  7.37
1901.3  164908.50  7978.45  4.84
1904.1  164733.00  7095.00  4.31
1906.8  163842.00  6448.40  3.94
1909.6  162046.85  5914.30  3.65
1912.4  160373.15  5526.27  3.45
1915.1  159096.30  5270.65  3.31
1917.9  157653.83  5066.17  3.21
1920.6  156478.20  4943.21  3.16
1923.3  155279.37  4859.56  3.13
1926.1  153829.80  4804.91  3.12
1928.8  152460.00  4776.44  3.13
1931.6  151320.13  4780.57  3.16
1934.3  150230.15  4816.82  3.21
1937.0  149197.73  4872.94  3.27
1939.8  148069.75  4949.94  3.34
1942.5  146707.00  5034.33  3.43
1945.2  145004.20  5117.02  3.53
1947.9  143637.20  5217.33  3.63
1950.7  142573.80  5348.88  3.75
1953.4  140919.80  5468.97  3.88
1956.1  139639.75  5609.19  4.02
1958.8  138492.25  5770.12  4.17
1961.5  137107.60  5921.73  4.32
1964.2  135690.10  6090.93  4.49
1966.9  134202.45  6262.60  4.67
1969.6  133029.00  6462.00  4.86
1972.3  131702.20  6648.30  5.05
1975.0  130696.80  6858.75  5.25
1977.7  129631.45  7082.72  5.46
1980.4  128536.87  7308.48  5.69
1983.1  127481.25  7539.92  5.91
1985.8  126585.00  7786.50  6.15
1988.4  125606.00  8031.11  6.39
1991.1  124708.50  8279.37  6.64
1993.8  123881.82  8533.37  6.89
1996.5  123287.27  8806.23  7.14
1999.1  122649.63  9070.48  7.40
2001.8  121971.73  9326.88  7.65
2004.5  121316.25  9592.85  7.91
2007.1  120615.60  9843.70  8.16
2009.8  119908.37  10095.24  8.42
2012.4  119358.07  10348.62  8.67
2015.1  118829.20  10590.22  8.91
2017.8  118086.73  10817.57  9.16
2020.4  117617.50  11058.05  9.40
2023.1  117275.20  11301.03  9.64
2025.7  117052.00  11535.33  9.85
2028.3  116731.33  11760.67  10.07
2031.0  116365.35  11965.63  10.28
2033.6  116092.80  12171.30  10.48
2036.2  115849.20  12368.50  10.68
2038.9  115275.00  12528.00  10.87
2041.5  114955.40  12691.47  11.04
2044.1  114413.70  12835.40  11.22
2046.8  114057.00  12986.20  11.39
2049.4  113456.70  13096.40  11.54
2052.0  113192.73  13236.82  11.69
2054.6  112822.50  13364.17  11.85
2057.2  112275.73  13493.00  12.02
2059.8  111952.60  13641.47  12.19
2062.4  111111.35  13728.75  12.36
2065.0  110616.40  13848.16  12.52
2067.6  109768.98  13920.52  12.68
2070.2  109184.97  14030.93  12.85
2072.8  108566.08  14132.62  13.02
2075.4  108158.75  14247.92  13.17
2078.0  107543.13  14331.47  13.33
2080.6  106990.40  14417.33  13.48
2083.2  106330.90  14485.45  13.62
2085.8  105865.52  14571.55  13.76
2088.4  105240.33  14630.94  13.90
2090.9  104477.50  14668.00  14.04
2093.5  103622.00  14684.17  14.17
2096.1  102861.62  14715.01  14.31
2098.7  102132.60  14744.29  14.44
2101.2  101219.33  14736.05  14.56
2103.8  100581.80  14768.07  14.68
2106.4  99935.53  14791.35  14.80
2108.9  99306.73  14805.91  14.91
2111.5  98485.80  14794.26  15.02
2114.0  97883.20  14811.73  15.13
2116.6  97378.75  14825.42  15.22
2119.1  96845.37  14833.20  15.32
2121.7  96390.00  14851.67  15.41
2124.2  96012.53  14871.19  15.49
2126.8  95228.90  14829.19  15.57
2129.3  94846.40  14842.67  15.65
2131.9  94283.20  14828.00  15.73
2134.4  93880.80  14826.70  15.79
2136.9  93505.97  14838.13  15.87
2139.4  93011.33  14828.02  15.94
2142.0  92594.60  14828.02  16.01
2144.5  92346.40  14860.03  16.09
2147.0  92120.53  14885.91  16.16
2149.5  91638.13  14879.95  16.24
2152.1  91477.28  14912.33  16.30
2154.6  91410.13  14953.96  16.36
2157.1  90906.00  14917.86  16.41
2159.6  90533.58  14908.78  16.47
2162.1  90372.10  14936.13  16.53
2164.6  90127.73  14942.13  16.58
2167.1  89831.37  14938.22  16.63
2169.6  89539.92  14927.93  16.67
2172.1  89092.43  14899.52  16.72
2174.6  88774.67  14903.89  16.79
2177.1  88358.77  14878.09  16.84
2179.5  87958.65  14863.19  16.90
2182.0  87516.00  14847.80  16.97
2184.5  87011.65  14819.41  17.03
2187.0  86428.20  14772.60  17.09
2189.5  85767.27  14714.97  17.16
2191.9  85025.00  14652.17  17.23
2194.4  84412.45  14605.13  17.30
2196.9  83692.80  14531.20  17.36
2199.3  83065.67  14467.78  17.42
2201.8  82217.47  14359.91  17.47
2204.3  81772.83  14325.79  17.52
2206.7  81144.30  14249.67  17.56
2209.2  80687.53  14199.06  17.60
2211.6  80071.20  14127.30  17.64
2214.1  79799.00  14105.78  17.68
2216.5  79248.13  14029.18  17.70
2219.0  78900.47  13999.38  17.74
2221.4  78540.00  13936.22  17.74
2223.9  78083.83  13850.28  17.74
2226.3  77588.00  13741.20  17.71
2228.7  77050.47  13619.24  17.68
2231.1  76477.50  13477.20  17.62
2233.6  75890.67  13317.29  17.55
2236.0  75366.67  13156.11  17.46
2238.4  74890.67  12987.53  17.34
2240.9  74450.33  12814.00  17.21
2243.3  73943.73  12628.58  17.08
2245.7  73391.20  12427.55  16.93
2248.1  72896.20  12222.45  16.77
2250.5  72409.12  12016.61  16.60
2252.9  71819.80  11783.92  16.41
2255.3  71281.80  11561.90  16.22
2257.7  70840.00  11363.33  16.04
2260.1  70373.80  11163.76  15.86
2262.5  69770.00  10933.33  15.67
2264.9  69254.38  10728.76  15.49
2267.3  68660.00  10533.33  15.34
2269.7  68186.53  10361.09  15.20
2272.1  67652.57  10183.61  15.05
2274.5  67097.98  10009.96  14.92
2276.8  66630.87  9853.06  14.79
2279.2  66078.75  9684.85  14.66
2281.6  65685.00  9529.78  14.51
2284.0  65235.90  9366.07  14.36
2286.3  64772.27  9207.82  14.22
2288.7  64368.85  9059.77  14.07
2291.1  63845.77  8879.12  13.91
2293.4  63406.93  8719.82  13.75
2295.8  62819.70  8531.83  13.58
2298.2  62244.90  8359.35  13.43
2300.5  61603.20  8176.50  13.27
2302.9  60873.67  7980.78  13.11
2305.2  60172.60  7810.83  12.98
2307.6  59516.85  7651.53  12.86
2309.9  58765.67  7495.11  12.75
2312.2  58176.67  7381.45  12.69
2314.6  57587.40  7265.70  12.62
2316.9  56904.30  7131.15  12.53
2319.2  56342.83  7011.32  12.44
2321.6  55737.73  6880.69  12.34
2323.9  55208.33  6756.94  12.24
2326.2  54670.67  6635.60  12.14
2328.6  54172.80  6524.28  12.04
2330.9  53686.50  6405.00  11.93
2333.2  53223.58  6300.61  11.84
2335.5  52804.50  6198.87  11.74
2337.8  52353.08  6092.58  11.64
2340.1  51813.92  5973.97  11.53
2342.4  51382.50  5868.06  11.42
2344.8  50959.00  5771.28  11.33
2347.1  50402.80  5658.80  11.23
2349.4  49894.48  5545.06  11.11
2351.6  49310.60  5427.54  11.01
2353.9  48822.50  5340.13  10.94
2356.2  48313.03  5243.36  10.85
2358.5  47756.80  5129.60  10.74
2360.8  47174.40  5036.27  10.68
2363.1  46739.85  4946.55  10.58
2365.4  46296.10  4859.00  10.50
2367.7  45828.00  4765.20  10.40
2369.9  45319.10  4667.78  10.30
2372.2  44708.53  4567.55  10.22
2374.5  44155.65  4462.15  10.11
2376.7  43562.50  4352.38  9.99
2379.0  42973.53  4234.53  9.85
2381.3  42373.33  4130.00  9.75
2383.5  41864.53  4040.18  9.65
2385.8  41277.47  3933.99  9.53
2388.0  40757.20  3838.93  9.42
2390.3  40251.73  3741.95  9.30
2392.5  39768.00  3640.00  9.15
2394.8  39325.00  3549.33  9.03
2397.0  38875.20  3466.09  8.92
2399.3  38414.05  3378.85  8.80
2401.5  37987.25  3287.08  8.65
2403.8  37467.30  3198.23  8.54
2406.0  36976.83  3116.58  8.43
2408.2  36589.67  3033.55  8.29
2410.4  36176.70  2958.55  8.18
2412.7  35777.30  2886.15  8.07
2414.9  35432.65  2808.30  7.93
2417.1  35039.30  2738.97  7.82
2419.3  34636.80  2662.40  7.69
2421.6  34267.92  2591.94  7.56
2423.8  33894.87  2524.18  7.45
2426.0  33535.95  2458.18  7.33
2428.2  33189.33  2395.56  7.22
2430.4  32884.83  2324.66  7.07
2432.6  32600.00  2257.78  6.93
2434.8  32320.60  2192.13  6.78
2437.0  31957.90  2126.94  6.66
2439.2  31629.00  2054.53  6.50
2441.4  31315.77  2013.19  6.43
2443.6  31073.68  1957.36  6.30
2445.7  30793.23  1902.01  6.18
2447.9  30533.17  1846.28  6.05
2450.1  30249.65  1793.72  5.93
2452.3  29884.98  1741.05  5.83
2454.5  29543.88  1687.81  5.71
2456.6  29175.33  1631.15  5.59
2458.8  28828.80  1582.53  5.49
2461.0  28530.58  1528.17  5.36
2463.1  28241.55  1498.65  5.31
2465.3  27978.93  1458.46  5.21
2467.5  27730.00  1416.00  5.11
2469.6  27476.50  1377.31  5.01
2471.8  27195.18  1346.49  4.95
2473.9  26878.50  1312.25  4.88
2476.1  26511.33  1279.06  4.82
2478.2  26186.10  1249.13  4.77
2480.4  25895.45  1212.65  4.68
2482.5  25562.98  1171.57  4.58
2484.6  25245.00  1142.78  4.53
2486.8  24978.70  1125.17  4.50
2488.9  24685.13  1089.05  4.41
2491.1  24323.60  1063.06  4.37
2493.2  23950.00  1032.51  4.31
2495.3  23552.97  1004.76  4.27
2497.4  23232.30  998.20  4.30
2499.5  22915.60  981.79  4.28
2501.7  22776.60  953.13  4.18
2503.8  22684.52  930.56  4.10
2505.9  22618.33  922.50  4.08
2508.0  22614.02  916.71  4.05
2510.1  22604.53  918.01  4.06
2512.2  22717.30  911.38  4.01
2514.3  22855.93  917.53  4.01
2516.4  23029.30  939.03  4.08
