/*** Spectra Vista SIG Data ***/
name= 47_20220722_CECA_12_avg.sig
comm= Averaged Ref/Tar of files: HR.072222.0018_moc.sig,HR.072222.0019_moc.sig,HR.072222.0020_moc.sig
data=
337.3  3275.25  284.52  8.69
338.8  3367.00  288.60  8.57
340.3  3560.60  274.85  7.72
341.8  3749.45  274.35  7.32
343.2  3951.60  254.56  6.44
344.7  4137.05  261.59  6.32
346.2  4289.25  250.55  5.84
347.7  4483.05  262.17  5.85
349.2  4649.40  257.04  5.53
350.6  4921.15  244.83  4.98
352.1  5180.13  252.46  4.87
353.6  5447.90  259.09  4.76
355.1  5724.75  269.40  4.71
356.6  5997.83  262.20  4.37
358.0  6252.40  272.21  4.35
359.5  6550.80  271.92  4.15
361.0  6852.83  279.30  4.08
362.5  7201.65  300.56  4.17
364.0  7541.53  305.87  4.06
365.4  7896.10  307.23  3.89
366.9  8259.88  313.08  3.79
368.4  8591.63  309.12  3.60
369.9  8945.28  324.30  3.63
371.3  9345.00  341.76  3.66
372.8  9743.85  361.08  3.71
374.3  10158.75  361.92  3.56
375.8  10564.40  370.11  3.50
377.2  10948.30  373.01  3.41
378.7  11351.80  376.60  3.32
380.2  11728.40  387.36  3.30
381.7  12242.33  396.37  3.24
383.1  12720.40  409.64  3.22
384.6  13217.75  420.81  3.18
386.1  13647.63  421.59  3.09
387.6  14094.85  434.79  3.08
389.0  14552.40  435.95  3.00
390.5  15027.30  449.58  2.99
392.0  15579.05  461.99  2.97
393.4  16106.58  476.45  2.96
394.9  16651.80  487.20  2.93
396.4  17155.13  493.35  2.88
397.9  17732.50  502.25  2.83
399.3  18259.33  509.88  2.79
400.8  18793.45  525.09  2.79
402.2  19394.50  540.10  2.78
403.7  19982.25  558.54  2.80
405.2  20549.90  561.89  2.73
406.6  21112.00  578.45  2.74
408.1  21696.00  590.61  2.72
409.6  22279.25  602.89  2.71
411.0  22929.90  617.73  2.69
412.5  23553.08  635.86  2.70
414.0  24185.13  657.43  2.72
415.4  24863.63  675.75  2.72
416.9  25520.10  701.61  2.75
418.4  26182.35  724.59  2.77
419.8  26863.20  754.69  2.81
421.3  27575.28  779.55  2.83
422.7  28327.20  812.00  2.87
424.2  29075.63  841.50  2.89
425.7  29812.70  875.85  2.94
427.1  30542.25  909.41  2.98
428.6  31310.00  944.47  3.02
430.0  32019.25  971.20  3.03
431.5  32849.93  1012.91  3.08
432.9  33695.00  1048.94  3.11
434.4  34551.90  1082.97  3.13
435.9  35350.00  1118.13  3.16
437.3  36162.50  1151.33  3.18
438.8  36964.73  1183.74  3.20
440.2  37810.85  1221.73  3.23
441.7  38726.00  1257.81  3.25
443.1  39604.25  1293.20  3.27
444.6  40531.40  1330.96  3.28
446.0  41429.18  1368.43  3.30
447.5  42342.30  1402.79  3.31
448.9  43240.80  1441.36  3.33
450.4  44198.35  1483.21  3.36
451.8  45032.00  1513.20  3.36
453.3  45919.40  1546.34  3.37
454.7  46889.83  1581.00  3.37
456.2  47742.25  1611.69  3.38
457.6  48666.15  1649.64  3.39
459.1  49608.98  1680.73  3.39
460.5  50504.00  1712.00  3.39
462.0  51516.73  1745.63  3.39
463.4  52512.10  1777.35  3.38
464.8  53460.38  1809.30  3.38
466.3  54417.00  1840.08  3.38
467.7  55356.98  1871.04  3.38
469.2  56384.45  1904.82  3.38
470.6  57324.00  1935.15  3.38
472.0  58326.80  1966.75  3.37
473.5  59282.63  1998.22  3.37
474.9  60263.25  2031.10  3.37
476.4  61372.80  2065.92  3.37
477.8  62393.50  2099.60  3.37
479.2  63394.00  2130.53  3.36
480.7  64442.70  2167.39  3.36
482.1  65530.75  2206.03  3.37
483.6  66672.30  2246.49  3.37
485.0  67728.53  2285.12  3.37
486.4  68850.60  2326.06  3.38
487.9  69892.88  2361.45  3.38
489.3  71018.68  2410.97  3.39
490.7  72049.43  2454.17  3.41
492.2  73250.10  2502.92  3.42
493.6  74304.80  2549.10  3.43
495.0  75362.63  2603.25  3.45
496.5  76500.78  2657.15  3.47
497.9  77542.70  2721.72  3.51
499.3  78672.68  2784.34  3.54
500.7  79857.15  2855.77  3.58
502.2  80971.60  2927.79  3.62
503.6  82168.80  3009.55  3.66
505.0  83182.70  3094.08  3.72
506.5  84424.35  3197.31  3.79
507.9  85569.90  3314.87  3.87
509.3  86890.80  3441.49  3.96
510.7  88115.63  3582.15  4.07
512.2  89455.50  3744.20  4.19
513.6  90864.20  3929.99  4.33
515.0  92206.45  4132.84  4.48
516.4  93512.48  4360.23  4.66
517.8  95061.25  4623.58  4.86
519.3  96301.15  4896.22  5.08
520.7  97802.05  5204.12  5.32
522.1  99040.83  5521.06  5.57
523.5  100344.10  5852.83  5.83
524.9  101695.50  6203.10  6.10
526.3  103004.30  6541.69  6.35
527.8  104410.35  6880.50  6.59
529.2  105551.60  7205.64  6.83
530.6  107060.05  7537.12  7.04
532.0  108696.00  7864.27  7.24
533.4  109930.35  8139.57  7.40
534.8  110785.83  8356.44  7.54
536.3  112410.60  8608.60  7.66
537.7  114332.40  8863.68  7.75
539.1  115707.10  9062.98  7.83
540.5  116836.80  9235.12  7.90
541.9  118503.60  9445.12  7.97
543.3  119720.23  9616.51  8.03
544.7  120954.00  9788.80  8.09
546.1  122626.90  9991.15  8.15
547.5  123827.20  10147.20  8.19
549.0  125510.00  10331.20  8.23
550.4  126915.63  10481.92  8.26
551.8  128362.90  10609.20  8.27
553.2  129816.68  10712.43  8.25
554.6  131092.00  10766.08  8.21
556.0  132542.10  10794.36  8.14
557.4  134070.13  10798.57  8.05
558.8  135626.40  10772.28  7.94
560.2  137001.88  10709.77  7.82
561.6  138589.95  10630.72  7.67
563.0  140092.65  10528.07  7.52
564.4  141591.55  10396.67  7.34
565.8  143044.38  10241.08  7.16
567.2  144695.00  10080.63  6.97
568.6  146116.50  9886.10  6.77
570.0  147482.05  9681.41  6.56
571.4  149119.75  9494.16  6.37
572.8  150788.25  9322.75  6.18
574.2  152331.20  9151.15  6.01
575.6  153798.75  8998.50  5.85
577.0  155239.40  8859.20  5.71
578.4  156884.00  8748.13  5.58
579.8  158309.10  8647.56  5.46
581.2  159943.35  8576.30  5.36
582.5  161284.50  8502.00  5.27
583.9  162733.80  8442.51  5.19
585.3  164433.83  8406.33  5.11
586.7  165824.75  8366.19  5.05
588.1  167252.25  8338.77  4.99
589.5  168817.25  8330.00  4.93
590.9  170351.20  8329.49  4.89
592.3  172073.05  8351.61  4.85
593.7  173432.03  8360.43  4.82
595.0  174984.30  8384.13  4.79
596.4  176353.10  8396.78  4.76
597.8  177754.63  8408.10  4.73
599.2  179229.60  8419.84  4.70
600.6  180886.88  8432.06  4.66
602.0  182110.13  8414.79  4.62
603.3  183805.75  8406.42  4.57
604.7  185391.98  8380.04  4.52
606.1  186783.00  8335.20  4.46
607.5  188349.55  8286.30  4.40
608.9  189956.00  8233.30  4.33
610.2  191249.10  8166.69  4.27
611.6  192771.53  8109.86  4.21
613.0  194236.90  8051.54  4.15
614.4  195552.00  7990.86  4.09
615.8  196911.00  7938.45  4.03
617.1  198376.50  7904.68  3.98
618.5  199918.40  7875.57  3.94
619.9  201353.18  7858.51  3.90
621.3  202879.35  7853.07  3.87
622.6  204395.75  7858.83  3.84
624.0  205778.55  7871.26  3.83
625.4  207160.80  7889.75  3.81
626.8  208665.28  7926.40  3.80
628.1  209919.05  7952.41  3.79
629.5  211652.20  8004.71  3.78
630.9  213159.93  8047.53  3.78
632.2  214445.18  8073.31  3.76
633.6  215963.38  8112.68  3.76
635.0  217408.00  8129.87  3.74
636.3  218862.30  8135.61  3.72
637.7  220158.63  8117.60  3.69
639.1  221725.00  8101.33  3.65
640.4  223111.53  8069.23  3.62
641.8  224256.33  8016.50  3.57
643.2  225763.13  7979.07  3.53
644.5  227048.25  7925.37  3.49
645.9  228669.30  7891.68  3.45
647.2  230387.85  7861.44  3.41
648.6  232146.00  7854.30  3.38
650.0  233496.00  7842.24  3.36
651.3  233910.60  7809.19  3.34
652.7  235040.85  7787.83  3.31
654.0  237015.00  7782.95  3.28
655.4  238431.48  7773.87  3.26
656.8  238622.40  7721.03  3.24
658.1  239825.50  7696.81  3.21
659.5  242139.45  7705.60  3.18
660.8  243832.50  7698.00  3.16
662.2  244652.80  7666.77  3.13
663.5  246175.10  7663.90  3.11
664.9  247431.60  7667.23  3.10
666.2  248129.40  7666.40  3.09
667.6  249772.10  7718.50  3.09
668.9  250883.45  7772.63  3.10
670.3  251964.88  7828.27  3.11
671.6  253419.75  7908.95  3.12
673.0  254526.00  8006.30  3.15
674.3  255741.20  8112.17  3.17
675.7  256975.08  8238.39  3.21
677.0  258044.90  8369.50  3.24
678.4  259322.35  8519.27  3.29
679.7  260357.53  8671.98  3.33
681.1  261588.75  8850.60  3.38
682.4  262680.60  9040.37  3.44
683.8  263896.10  9249.59  3.51
685.1  264858.38  9466.55  3.57
686.4  266089.20  9714.72  3.65
687.8  267289.25  10000.63  3.74
689.1  268290.50  10332.90  3.85
690.5  269608.05  10769.72  3.99
691.8  270374.25  11324.40  4.19
693.1  271641.45  12076.98  4.45
694.5  272749.75  13055.47  4.79
695.8  273910.00  14311.27  5.22
697.1  275047.50  15909.83  5.78
698.5  276054.70  17881.55  6.48
699.8  277111.18  20268.43  7.31
701.1  278199.58  23092.22  8.30
702.5  278943.50  26293.30  9.43
703.8  279855.00  29886.00  10.68
705.1  280962.83  33834.84  12.04
706.5  281969.75  38061.37  13.50
707.8  282928.65  42521.62  15.03
709.1  283773.08  47153.38  16.62
710.5  284889.33  51993.44  18.25
711.8  285685.30  56915.55  19.92
713.1  286666.50  61967.24  21.62
714.4  287536.20  67063.53  23.32
715.8  288339.00  72171.72  25.03
717.1  289611.30  77408.48  26.73
718.4  290505.60  82527.57  28.41
719.7  291568.18  87646.51  30.06
721.0  292072.50  92535.00  31.68
722.4  292834.30  97391.95  33.26
723.7  293747.85  102190.76  34.79
725.0  294765.98  106901.43  36.27
726.3  295652.23  111404.26  37.68
727.6  296200.03  115607.10  39.03
729.0  297108.00  119757.14  40.31
730.3  297851.40  123674.95  41.52
731.6  298727.60  127439.21  42.66
732.9  299502.70  130973.08  43.73
734.2  300275.25  134337.68  44.74
735.5  301237.63  137602.43  45.68
736.8  302009.10  140572.60  46.55
738.1  302836.90  143390.44  47.35
739.5  303783.05  146084.69  48.09
740.8  304469.00  148501.25  48.77
742.1  305178.45  150787.26  49.41
743.4  305875.00  152920.00  49.99
744.7  306807.73  155031.01  50.53
746.0  307647.60  156936.78  51.01
747.3  308214.38  158557.90  51.44
748.6  308922.75  160137.53  51.84
749.9  309634.00  161602.13  52.19
751.2  310348.20  162963.31  52.51
752.5  311185.00  164305.68  52.80
753.8  311778.78  165416.32  53.06
755.1  312494.00  166483.20  53.28
756.4  313076.68  167417.53  53.47
757.7  314021.23  168468.84  53.65
759.0  315749.00  169885.55  53.80
760.3  316879.20  170917.12  53.94
761.6  318428.60  172102.00  54.05
762.9  318967.00  172701.57  54.14
764.2  319356.80  173189.37  54.23
765.5  319678.73  173579.77  54.30
766.8  320062.40  174011.09  54.37
768.1  320607.40  174461.28  54.42
769.3  321182.40  174928.65  54.46
770.6  321788.35  175406.75  54.51
771.9  322547.40  175913.43  54.54
773.2  322964.80  176227.68  54.57
774.5  323609.00  176633.60  54.58
775.8  324274.00  177073.61  54.61
777.1  324818.45  177441.88  54.63
778.4  325175.68  177679.92  54.64
779.6  325964.35  178139.94  54.65
780.9  326430.00  178444.00  54.67
782.2  326881.50  178745.23  54.68
783.5  327204.00  178957.73  54.69
784.8  327731.40  179278.20  54.70
786.0  328134.10  179527.83  54.71
787.3  328536.05  179768.41  54.72
788.6  328975.03  180031.90  54.73
789.9  329502.60  180294.24  54.72
791.2  330147.63  180669.64  54.72
792.4  330805.20  181050.34  54.73
793.7  331261.20  181326.37  54.74
795.0  331924.73  181694.37  54.74
796.2  332564.33  182063.31  54.75
797.5  333255.83  182459.04  54.75
798.8  333897.78  182831.84  54.76
800.0  334595.83  183207.77  54.75
801.3  335116.30  183484.27  54.75
802.6  335722.95  183824.88  54.75
803.8  336359.40  184184.78  54.76
805.1  336856.63  184472.87  54.76
806.4  337261.20  184729.12  54.77
807.7  337810.50  185028.84  54.77
808.9  338397.60  185350.07  54.77
810.2  338903.95  185647.70  54.78
811.4  339446.50  185919.64  54.77
812.7  340071.88  186284.58  54.78
814.0  340886.60  186727.73  54.78
815.2  341473.25  187067.83  54.78
816.5  341877.93  187312.07  54.79
817.7  342371.50  187574.45  54.79
819.0  342863.95  187860.42  54.79
820.2  343024.00  187973.87  54.80
821.5  343715.70  188363.47  54.80
822.7  344090.00  188561.32  54.80
824.0  344433.60  188728.56  54.79
825.2  344887.88  189013.77  54.80
826.5  345202.05  189181.94  54.80
827.7  345731.98  189468.23  54.80
829.0  346142.40  189683.18  54.80
830.2  346446.70  189848.44  54.80
831.5  346937.70  190095.25  54.79
832.7  347155.73  190249.01  54.80
834.0  347488.55  190423.86  54.80
835.2  347820.55  190630.73  54.81
836.4  348108.75  190800.94  54.81
837.7  348506.00  191015.25  54.81
838.9  348955.20  191264.46  54.81
840.1  349371.90  191493.45  54.81
841.4  349764.30  191730.24  54.82
842.6  350094.60  191919.12  54.82
843.8  350369.40  192122.05  54.83
845.1  350877.20  192404.79  54.84
846.3  351224.40  192632.52  54.85
847.5  351636.60  192874.36  54.85
848.8  352012.80  193112.64  54.86
850.0  352343.60  193296.13  54.86
851.2  352845.45  193573.26  54.86
852.5  353264.20  193791.63  54.86
853.7  353785.50  194044.80  54.85
854.9  354163.80  194298.75  54.86
856.1  354567.20  194556.70  54.87
857.4  354656.93  194639.66  54.88
858.6  355195.10  194901.93  54.87
859.8  355616.25  195101.00  54.86
861.0  356054.40  195361.92  54.87
862.2  356512.20  195607.88  54.87
863.5  356826.60  195794.95  54.87
864.7  357337.20  196049.04  54.86
865.9  357678.20  196252.03  54.87
867.1  357996.20  196428.29  54.87
868.3  358456.65  196655.90  54.86
869.5  358883.60  196911.91  54.87
870.8  359473.50  197196.60  54.86
872.0  359947.88  197457.12  54.86
873.2  360349.65  197646.56  54.85
874.4  360757.80  197848.17  54.84
875.6  361061.65  198044.10  54.85
876.8  361553.95  198291.47  54.84
878.0  362117.75  198540.14  54.83
879.2  362668.20  198789.78  54.81
880.4  363183.38  199060.95  54.81
881.6  363587.93  199269.98  54.81
882.8  363971.20  199482.24  54.81
884.0  364567.33  199757.38  54.79
885.2  365007.40  200014.47  54.80
886.5  365617.75  200303.44  54.78
887.7  366221.70  200527.69  54.76
888.8  366834.23  200841.51  54.75
890.0  367396.30  201134.22  54.75
891.2  367959.90  201417.52  54.74
892.4  368506.95  201719.07  54.74
893.6  369116.85  202000.99  54.73
894.8  369983.75  202433.73  54.71
896.0  370798.00  202840.53  54.70
897.2  371666.75  203259.77  54.69
898.4  372474.30  203617.92  54.67
899.6  372911.25  203885.85  54.67
900.8  373415.35  204074.69  54.65
902.0  373576.35  204203.20  54.66
903.2  373977.15  204316.40  54.63
904.3  374450.10  204477.72  54.61
905.5  375005.13  204727.09  54.59
906.7  375571.50  205056.67  54.60
907.9  376079.90  205320.13  54.59
909.1  376482.60  205492.86  54.58
910.2  376591.50  205570.01  54.59
911.4  377044.20  205711.35  54.56
912.6  377169.65  205743.63  54.55
913.8  377561.40  205818.61  54.51
915.0  377973.75  206050.88  54.51
916.2  377968.50  206146.20  54.54
917.3  378101.93  206159.55  54.52
918.5  378460.90  206234.52  54.49
919.7  378864.00  206305.48  54.45
920.8  378855.20  206277.43  54.45
922.0  378917.00  206275.30  54.44
923.2  379333.50  206315.20  54.39
924.4  379562.63  206400.15  54.38
925.5  379792.10  206502.89  54.37
926.7  380426.00  206747.48  54.35
927.9  381310.20  207105.76  54.31
929.0  382737.15  207756.18  54.28
930.2  385006.50  208779.09  54.23
931.4  387352.80  209938.68  54.20
932.5  389809.50  211300.75  54.21
933.7  391142.88  211902.25  54.18
934.9  391899.38  212142.58  54.13
936.0  391438.13  211830.67  54.12
937.2  389634.75  210606.82  54.05
938.3  388122.30  209606.10  54.01
939.5  386960.40  208725.12  53.94
940.7  387118.80  208709.52  53.91
941.8  388390.95  209363.89  53.91
943.0  389868.75  209961.50  53.85
944.2  390688.35  210217.97  53.81
945.3  390507.00  209826.50  53.73
946.5  389749.05  209242.26  53.69
947.6  389981.50  209134.33  53.63
948.8  389990.25  208848.51  53.55
949.9  390062.40  208638.64  53.49
951.1  389820.60  208144.95  53.40
952.2  389844.00  207835.20  53.31
953.4  389630.00  207360.53  53.22
954.5  389610.00  207005.76  53.13
955.7  389415.60  206688.72  53.08
956.8  389387.30  206336.77  52.99
958.0  389175.50  205817.80  52.89
959.1  389149.90  205469.94  52.80
960.3  388887.73  205107.04  52.74
961.4  388883.90  204902.88  52.69
962.6  388874.50  204842.40  52.68
963.7  388840.13  204666.47  52.64
964.9  388586.70  204468.23  52.62
966.0  388591.43  204299.82  52.57
967.2  388828.80  204311.22  52.55
968.3  388573.20  204127.56  52.53
969.5  388888.83  204089.75  52.48
970.6  388623.85  204109.33  52.52
971.8  388953.08  204128.00  52.48
972.9  388407.90  203987.00  52.52
974.0  388798.70  204056.85  52.48
975.2  388541.38  203992.75  52.50
976.3  388641.10  203881.22  52.46
977.5  388763.90  203861.54  52.44
978.6  388897.20  203944.31  52.44
979.7  389048.10  204094.52  52.46
980.9  388697.35  203998.47  52.48
982.0  388759.50  203946.75  52.46
983.2  388303.00  203893.14  52.51
984.3  388817.00  203598.72  52.36
985.4  388223.83  203735.54  52.48
986.6  388127.00  203725.73  52.49
987.7  389378.33  204363.83  52.48
988.9  388821.60  204246.24  52.53
990.0  389319.50  204726.27  52.59
993.1  339082.39  176221.87  51.97
996.9  339623.18  177042.85  52.13
1000.7  340641.12  178041.70  52.27
1004.5  341181.25  178738.67  52.39
1008.4  340950.58  179069.86  52.52
1012.2  340940.67  179443.73  52.63
1016.0  340983.00  179845.58  52.74
1019.8  341146.58  180253.79  52.84
1023.7  341133.53  180539.70  52.92
1027.5  340927.55  180693.66  53.00
1031.3  341190.50  181054.02  53.07
1035.1  341127.21  181224.48  53.13
1038.9  341194.88  181374.59  53.16
1042.7  341023.33  181434.03  53.20
1046.5  340902.33  181454.21  53.23
1050.3  340920.17  181556.52  53.25
1054.2  340639.83  181482.31  53.28
1058.0  340204.32  181250.11  53.28
1061.8  340075.51  181203.46  53.28
1065.6  339857.20  181072.88  53.28
1069.4  339869.60  181056.21  53.27
1073.2  339558.26  180818.38  53.25
1077.0  339132.38  180482.18  53.22
1080.8  338665.63  180067.56  53.17
1084.6  337641.03  179349.83  53.12
1088.4  336968.76  178860.82  53.08
1092.2  336199.50  178282.00  53.03
1096.0  335634.49  177803.45  52.98
1099.8  335207.17  177350.78  52.91
1103.6  334631.07  176788.72  52.83
1107.4  333766.20  176080.36  52.76
1111.2  333563.40  175686.15  52.67
1114.9  332975.42  175035.40  52.57
1118.7  332417.25  174333.78  52.44
1122.5  331776.47  173481.48  52.29
1126.3  330749.94  172315.24  52.10
1130.1  330291.71  171213.63  51.84
1133.9  328852.30  169275.41  51.47
1137.7  327520.80  167116.09  51.02
1141.4  325895.16  164523.98  50.48
1145.2  325232.11  162259.07  49.89
1149.0  324200.63  159925.53  49.33
1152.8  322709.75  157629.32  48.85
1156.6  321226.03  155742.16  48.48
1160.3  319642.67  154218.49  48.25
1164.1  317432.43  152713.08  48.11
1167.9  315770.83  151681.73  48.04
1171.7  314590.50  150988.13  48.00
1175.4  313514.57  150412.24  47.98
1179.2  312583.20  149860.51  47.94
1183.0  312305.33  149584.98  47.90
1186.7  311810.57  149198.32  47.85
1190.5  310796.13  148615.28  47.82
1194.3  309683.17  148022.80  47.80
1198.0  308594.00  147501.31  47.80
1201.8  307218.48  146894.11  47.81
1205.6  306100.67  146482.92  47.85
1209.3  305239.07  146296.56  47.93
1213.1  304360.35  146151.08  48.02
1216.8  303434.54  146040.03  48.13
1220.6  302414.93  145877.27  48.24
1224.3  301290.17  145639.87  48.34
1228.1  300176.20  145422.71  48.45
1231.9  299053.98  145125.12  48.53
1235.6  297717.38  144689.25  48.60
1239.4  296491.38  144307.98  48.67
1243.1  295351.78  143906.62  48.72
1246.9  294232.02  143484.32  48.77
1250.6  293317.60  143109.99  48.79
1254.3  292337.10  142681.61  48.81
1258.1  291450.13  142251.51  48.81
1261.8  290243.60  141650.51  48.80
1265.6  288937.75  140930.34  48.78
1269.3  287572.68  140142.49  48.73
1273.1  287523.47  139947.62  48.67
1276.8  287787.20  139885.23  48.61
1280.6  287693.27  139603.25  48.53
1284.3  286442.40  138711.72  48.43
1288.0  285106.22  137707.42  48.30
1291.8  283888.09  136682.65  48.15
1295.5  282607.60  135575.83  47.97
1299.2  281450.23  134474.41  47.78
1302.9  280107.15  133188.14  47.55
1306.7  278725.88  131763.59  47.27
1310.4  277365.41  130229.28  46.95
1314.1  276106.42  128650.88  46.59
1317.9  274981.88  126985.96  46.18
1321.6  273708.26  125121.22  45.71
1325.3  272192.55  123008.82  45.19
1329.0  270973.50  120938.96  44.63
1332.8  269053.40  118449.47  44.02
1336.5  267395.67  116047.51  43.40
1340.2  267039.50  114217.28  42.77
1343.9  266662.92  112365.68  42.14
1347.6  266095.35  110458.43  41.51
1351.4  266321.00  108922.93  40.90
1355.1  266677.40  107471.86  40.30
1358.8  266848.00  105860.57  39.67
1362.5  266402.25  103881.24  38.99
1366.2  264779.25  101163.09  38.21
1369.9  263048.75  98064.41  37.28
1373.6  261232.71  94425.18  36.15
1377.3  259567.50  90143.91  34.73
1381.0  258488.83  85168.57  32.95
1384.8  256603.75  78992.80  30.78
1388.4  254422.70  72261.16  28.40
1392.2  252733.50  65354.75  25.86
1395.9  251272.00  58541.87  23.30
1399.6  249758.09  52198.58  20.90
1403.3  248650.74  46711.95  18.79
1407.0  247620.40  42130.58  17.01
1410.7  246520.73  38494.32  15.62
1414.3  245405.30  35728.31  14.56
1418.1  244330.25  33743.61  13.81
1421.7  243487.59  32358.99  13.29
1425.4  242643.38  31433.77  12.95
1429.1  241833.38  30856.40  12.76
1432.8  240477.86  30476.21  12.67
1436.5  239728.39  30355.48  12.66
1440.2  238963.90  30367.85  12.71
1443.9  237781.59  30411.86  12.79
1447.6  236313.00  30484.67  12.90
1451.2  235340.97  30641.29  13.02
1454.9  234173.55  30812.70  13.16
1458.6  233166.25  31097.93  13.34
1462.3  232099.63  31499.61  13.57
1466.0  230885.36  32038.96  13.88
1469.7  229392.80  32703.02  14.26
1473.3  228433.33  33596.56  14.71
1477.0  226712.63  34480.40  15.21
1480.7  225282.15  35477.58  15.75
1484.4  223542.63  36450.06  16.31
1488.0  222141.33  37504.76  16.88
1491.7  220655.18  38537.29  17.46
1495.4  219088.36  39563.31  18.06
1499.0  217645.00  40574.22  18.64
1502.7  216480.67  41636.25  19.23
1506.4  215188.34  42642.43  19.82
1510.0  213905.30  43622.22  20.39
1513.7  212588.54  44555.52  20.96
1517.4  211373.67  45469.20  21.51
1521.0  210262.13  46381.61  22.06
1524.7  209151.58  47230.36  22.58
1528.3  207990.63  48030.16  23.09
1532.0  206879.75  48798.40  23.59
1535.7  205600.74  49466.73  24.06
1539.3  204460.49  50142.98  24.52
1543.0  203569.10  50836.91  24.97
1546.6  202940.83  51560.43  25.41
1550.3  202039.00  52174.34  25.82
1553.9  201069.60  52725.68  26.22
1557.6  199929.40  53189.73  26.60
1561.2  198773.55  53596.56  26.96
1564.9  197605.98  53965.23  27.31
1568.5  196393.63  54287.58  27.64
1572.2  195351.20  54625.28  27.96
1575.8  194348.00  54959.56  28.28
1579.5  193456.80  55282.61  28.58
1583.1  192560.88  55588.96  28.87
1586.8  191464.00  55804.44  29.15
1590.4  190488.47  56047.13  29.42
1594.0  189274.26  56192.92  29.69
1597.7  188252.11  56369.90  29.94
1601.3  187053.30  56472.53  30.19
1604.9  185854.99  56553.44  30.43
1608.6  184663.90  56597.21  30.65
1612.2  183741.53  56691.94  30.85
1615.8  182695.18  56720.31  31.05
1619.5  181668.17  56723.23  31.22
1623.1  180491.23  56640.15  31.38
1626.7  179355.15  56549.73  31.53
1630.3  178258.58  56445.56  31.66
1634.0  177156.00  56308.67  31.78
1637.6  176100.60  56141.40  31.88
1641.2  175048.95  55912.53  31.94
1644.8  173828.78  55573.40  31.97
1648.5  172820.20  55244.92  31.97
1652.1  171893.10  54900.48  31.94
1655.7  171024.80  54553.47  31.90
1659.3  170239.80  54256.30  31.87
1662.9  168965.83  53814.67  31.85
1666.6  167702.80  53391.93  31.84
1670.2  166464.73  52967.34  31.82
1673.8  165199.61  52497.18  31.78
1677.4  164202.35  52080.45  31.72
1681.0  163495.20  51684.97  31.61
1684.6  163141.33  51327.04  31.46
1688.2  162498.60  50791.76  31.26
1691.8  161907.94  50284.62  31.06
1695.4  161525.00  49810.67  30.84
1699.0  161235.20  49360.07  30.61
1702.6  160963.33  48904.19  30.38
1706.2  160465.61  48341.79  30.13
1709.8  159667.07  47705.41  29.88
1713.4  159026.32  47150.60  29.65
1717.0  158252.75  46606.95  29.45
1720.6  157531.05  46100.34  29.26
1724.2  156891.60  45621.70  29.08
1727.8  156234.05  45143.79  28.89
1731.4  155772.38  44734.23  28.72
1735.0  155559.98  44411.90  28.55
1738.6  155318.85  44044.52  28.36
1742.2  154804.18  43541.00  28.13
1745.8  154217.18  42982.02  27.87
1749.4  153348.53  42328.47  27.60
1753.0  151993.67  41536.87  27.33
1756.6  150486.88  40736.88  27.07
1760.1  149283.22  40035.13  26.82
1763.7  147736.67  39268.43  26.58
1767.3  146423.58  38607.13  26.37
1770.9  145296.84  38005.86  26.16
1774.5  143973.85  37382.62  25.96
1778.0  142953.58  36864.87  25.79
1781.6  141940.35  36409.78  25.65
1785.2  140889.43  35996.56  25.55
1788.8  139826.00  35630.25  25.48
1792.3  138714.73  35268.31  25.43
1795.9  138278.62  35111.25  25.39
1799.5  137835.33  34945.87  25.35
1803.1  137198.37  34754.87  25.33
1806.6  137578.53  34820.65  25.31
1810.2  138575.73  35053.76  25.30
1813.8  139483.70  35245.06  25.27
1817.3  139561.00  35219.45  25.24
1820.9  138879.27  34990.06  25.19
1824.5  137810.50  34635.05  25.13
1828.0  137037.08  34329.21  25.05
1831.6  136353.43  34002.56  24.94
1835.2  135730.83  33631.44  24.78
1838.7  135378.00  33238.20  24.55
1842.3  135075.00  32761.19  24.25
1845.8  134337.29  32065.17  23.87
1849.4  133889.70  31285.29  23.37
1852.9  133295.87  30288.27  22.72
1856.5  132462.88  29026.37  21.91
1860.0  131766.17  27546.53  20.91
1863.6  131552.38  25934.06  19.71
1867.1  131454.75  24084.86  18.32
1870.7  131433.20  21908.10  16.67
1874.2  130736.70  19323.88  14.78
1877.8  129543.67  16657.52  12.86
1881.3  128214.50  14050.34  10.96
1884.9  127326.19  11737.94  9.22
1888.4  126396.68  9701.73  7.68
1891.9  125468.60  8074.95  6.44
1895.5  124463.45  6865.13  5.52
1899.0  123952.13  6072.27  4.90
1901.3  152169.63  4320.63  2.84
1904.1  152091.00  3918.38  2.58
1906.8  151391.70  3574.35  2.36
1909.6  149882.78  3342.33  2.23
1912.4  148440.43  3164.23  2.13
1915.1  147374.70  3042.33  2.06
1917.9  146165.50  2956.83  2.02
1920.6  145170.83  2900.69  2.00
1923.3  144179.70  2861.89  1.98
1926.1  142937.03  2833.14  1.98
1928.8  141790.00  2838.00  2.00
1931.6  140878.19  2835.87  2.01
1934.3  140015.51  2846.60  2.03
1937.0  139157.23  2880.95  2.07
1939.8  138226.81  2913.21  2.11
1942.5  137065.50  2948.00  2.15
1945.2  135588.75  2986.09  2.20
1947.9  134373.93  3035.09  2.26
1950.7  133424.88  3108.24  2.33
1953.4  131890.28  3163.44  2.40
1956.1  130684.50  3232.27  2.47
1958.8  129611.14  3312.08  2.56
1961.5  128326.20  3397.10  2.65
1964.2  126985.95  3492.13  2.75
1966.9  125602.69  3583.80  2.85
1969.6  124497.00  3692.25  2.97
1972.3  123247.20  3809.20  3.09
1975.0  122302.58  3938.25  3.22
1977.7  121312.93  4066.69  3.35
1980.4  120296.20  4205.81  3.50
1983.1  119335.53  4351.80  3.65
1985.8  118500.53  4500.08  3.80
1988.4  117578.50  4658.33  3.96
1991.1  116731.30  4819.56  4.13
1993.8  115937.25  4982.59  4.30
1996.5  115368.55  5167.85  4.48
1999.1  114761.08  5346.64  4.66
2001.8  114115.40  5527.49  4.84
2004.5  113498.81  5709.00  5.03
2007.1  112837.09  5884.16  5.21
2009.8  112179.38  6056.29  5.40
2012.4  111678.46  6236.31  5.58
2015.1  111188.70  6412.41  5.77
2017.8  110476.45  6576.44  5.95
2020.4  110024.06  6742.54  6.13
2023.1  109699.45  6906.67  6.30
2025.7  109466.50  7076.33  6.46
2028.3  109161.00  7236.67  6.63
2031.0  108817.36  7385.18  6.79
2033.6  108569.48  7534.20  6.94
2036.2  108328.05  7673.40  7.08
2038.9  107799.53  7782.15  7.22
2041.5  107515.73  7906.02  7.35
2044.1  107010.00  8004.00  7.48
2046.8  106670.70  8108.40  7.60
2049.4  106089.98  8191.05  7.72
2052.0  105802.15  8294.48  7.84
2054.6  105446.25  8386.88  7.95
2057.2  104963.75  8480.07  8.08
2059.8  104688.65  8589.23  8.20
2062.4  103907.03  8657.83  8.33
2065.0  103444.15  8752.98  8.46
2067.6  102651.83  8825.63  8.60
2070.2  102115.75  8904.07  8.72
2072.8  101533.91  8982.53  8.85
2075.4  101134.69  9075.94  8.97
2078.0  100551.60  9147.84  9.10
2080.6  100042.80  9218.00  9.21
2083.2  99420.58  9279.52  9.33
2085.8  98983.78  9347.66  9.44
2088.4  98387.88  9398.67  9.55
2090.9  97673.24  9442.65  9.67
2093.5  96895.78  9472.39  9.78
2096.1  96197.26  9503.57  9.88
2098.7  95492.40  9534.31  9.98
2101.2  94647.50  9538.98  10.08
2103.8  94038.35  9569.55  10.18
2106.4  93429.20  9604.48  10.28
2108.9  92833.15  9632.87  10.38
2111.5  92079.90  9635.05  10.46
2114.0  91510.05  9648.15  10.54
2116.6  91041.56  9675.31  10.63
2119.1  90564.05  9693.74  10.70
2121.7  90122.81  9714.69  10.78
2124.2  89755.33  9733.19  10.84
2126.8  89036.65  9718.76  10.92
2129.3  88684.20  9732.80  10.97
2131.9  88162.80  9728.40  11.03
2134.4  87780.94  9739.43  11.10
2136.9  87431.99  9753.90  11.16
2139.4  86962.05  9762.20  11.23
2142.0  86563.05  9779.93  11.30
2144.5  86307.75  9805.58  11.36
2147.0  86095.00  9835.60  11.42
2149.5  85646.10  9842.30  11.49
2152.1  85492.14  9879.42  11.56
2154.6  85414.80  9923.47  11.62
2157.1  84917.81  9907.65  11.67
2159.6  84556.75  9907.65  11.72
2162.1  84404.78  9932.65  11.77
2164.6  84193.35  9948.48  11.82
2167.1  83917.30  9957.03  11.87
2169.6  83620.51  9967.83  11.92
2172.1  83190.03  9960.46  11.97
2174.6  82906.55  9970.93  12.03
2177.1  82519.55  9977.26  12.09
2179.5  82152.04  9982.81  12.15
2182.0  81709.65  9981.13  12.22
2184.5  81233.86  9976.83  12.28
2187.0  80676.23  9968.68  12.36
2189.5  80065.41  9948.02  12.42
2191.9  79386.75  9906.13  12.48
2194.4  78830.48  9893.80  12.55
2196.9  78148.80  9866.40  12.63
2199.3  77553.25  9826.17  12.67
2201.8  76752.20  9752.80  12.71
2204.3  76319.68  9747.95  12.77
2206.7  75751.43  9717.03  12.83
2209.2  75348.06  9705.43  12.88
2211.6  74784.60  9657.45  12.91
2214.1  74498.14  9646.52  12.95
2216.5  73985.95  9603.05  12.98
2219.0  73695.40  9580.70  13.00
2221.4  73348.63  9547.27  13.02
2223.9  72909.81  9495.21  13.02
2226.3  72448.69  9428.27  13.01
2228.7  71953.14  9337.28  12.98
2231.1  71413.65  9234.23  12.93
2233.6  70886.75  9121.28  12.87
2236.0  70418.25  9004.33  12.79
2238.4  69979.44  8877.90  12.69
2240.9  69568.10  8746.30  12.57
2243.3  69083.85  8604.75  12.46
2245.7  68557.99  8445.06  12.32
2248.1  68119.68  8282.30  12.16
2250.5  67672.03  8121.44  12.00
2252.9  67125.50  7943.44  11.83
2255.3  66610.28  7763.49  11.66
2257.7  66180.00  7600.00  11.48
2260.1  65738.40  7434.70  11.31
2262.5  65212.50  7265.00  11.14
2264.9  64751.90  7108.13  10.98
2267.3  64200.00  6950.00  10.83
2269.7  63744.28  6810.13  10.68
2272.1  63247.74  6666.09  10.54
2274.5  62745.25  6534.09  10.41
2276.8  62316.19  6413.17  10.29
2279.2  61799.96  6281.25  10.16
2281.6  61419.25  6165.83  10.04
2284.0  61001.48  6044.85  9.91
2286.3  60587.20  5928.00  9.78
2288.7  60221.69  5807.05  9.64
2291.1  59734.53  5679.50  9.51
2293.4  59336.20  5574.80  9.40
2295.8  58779.53  5446.13  9.27
2298.2  58242.04  5317.31  9.13
2300.5  57644.33  5193.11  9.01
2302.9  56978.00  5063.33  8.89
2305.2  56322.98  4941.43  8.77
2307.6  55740.95  4838.52  8.68
2309.9  55040.50  4732.67  8.60
2312.2  54490.25  4644.83  8.52
2314.6  53926.09  4572.11  8.48
2316.9  53281.80  4486.73  8.42
2319.2  52768.93  4400.65  8.34
2321.6  52199.61  4306.49  8.25
2323.9  51687.50  4229.17  8.18
2326.2  51191.15  4144.64  8.10
2328.6  50716.46  4062.44  8.01
2330.9  50250.38  3979.50  7.92
2333.2  49823.69  3905.25  7.84
2335.5  49425.98  3830.60  7.75
2337.8  49002.16  3749.91  7.65
2340.1  48492.65  3666.33  7.56
2342.4  48108.13  3593.96  7.47
2344.8  47741.31  3520.63  7.37
2347.1  47219.73  3440.79  7.29
2349.4  46707.91  3365.59  7.21
2351.6  46187.38  3296.74  7.14
2353.9  45744.20  3232.77  7.07
2356.2  45280.96  3168.25  7.00
2358.5  44755.20  3091.20  6.91
2360.8  44217.60  3029.60  6.85
2363.1  43812.30  2964.00  6.77
2365.4  43383.53  2892.80  6.67
2367.7  42955.20  2835.75  6.60
2369.9  42482.36  2773.76  6.53
2372.2  41916.40  2700.40  6.44
2374.5  41389.43  2639.18  6.38
2376.7  40818.06  2567.28  6.29
2379.0  40257.15  2495.35  6.20
2381.3  39707.50  2426.67  6.11
2383.5  39256.80  2352.53  5.99
2385.8  38688.80  2288.62  5.92
2388.0  38205.45  2224.30  5.82
2390.3  37744.90  2165.67  5.74
2392.5  37305.00  2103.00  5.64
2394.8  36889.88  2035.83  5.52
2397.0  36454.60  1974.70  5.42
2399.3  36029.16  1937.15  5.38
2401.5  35619.94  1877.31  5.27
2403.8  35130.21  1822.87  5.19
2406.0  34661.13  1772.48  5.11
2408.2  34295.80  1720.40  5.02
2410.4  33910.98  1669.65  4.92
2412.7  33524.73  1611.68  4.81
2414.9  33187.28  1571.76  4.74
2417.1  32832.68  1527.18  4.65
2419.3  32448.00  1484.80  4.58
2421.6  32085.00  1443.44  4.50
2423.8  31752.13  1397.16  4.40
2426.0  31422.91  1353.51  4.31
2428.2  31095.40  1319.73  4.24
2430.4  30807.20  1273.71  4.13
2432.6  30570.00  1240.00  4.06
2434.8  30285.53  1203.00  3.97
2437.0  29942.90  1168.70  3.90
2439.2  29631.91  1132.02  3.82
2441.4  29325.30  1097.49  3.74
2443.6  29097.90  1067.34  3.67
2445.7  28853.04  1048.19  3.63
2447.9  28588.31  1012.44  3.54
2450.1  28335.34  972.96  3.43
2452.3  28003.94  952.88  3.40
2454.5  27657.50  921.92  3.33
2456.6  27317.10  891.67  3.26
2458.8  26994.83  865.15  3.20
2461.0  26717.69  836.17  3.13
2463.1  26440.99  814.80  3.08
2465.3  26197.33  801.18  3.06
2467.5  25963.69  770.69  2.97
2469.6  25720.06  757.02  2.94
2471.8  25430.73  739.57  2.91
2473.9  25147.69  727.77  2.89
2476.1  24831.63  701.46  2.82
2478.2  24506.63  677.88  2.77
2480.4  24245.33  660.05  2.72
2482.5  23910.14  650.30  2.72
2484.6  23597.06  638.92  2.71
2486.8  23361.60  624.08  2.67
2488.9  23071.29  623.44  2.70
2491.1  22740.90  598.97  2.63
2493.2  22393.25  582.78  2.60
2495.3  22041.83  557.16  2.53
2497.4  21722.93  551.43  2.54
2499.5  21398.41  546.19  2.55
2501.7  21285.28  542.30  2.55
2503.8  21213.45  534.93  2.52
2505.9  21140.63  529.59  2.51
2508.0  21125.10  534.26  2.53
2510.1  21111.28  532.03  2.52
2512.2  21208.01  532.15  2.51
2514.3  21356.25  536.28  2.51
2516.4  21512.40  541.75  2.52
