/*** Spectra Vista SIG Data ***/
name= 49_20220825_CECA_17_avg.sig
comm= Averaged Ref/Tar of files: HR.082522.0064_moc.sig,HR.082522.0065_moc.sig,HR.082522.0066_moc.sig
data=
337.3  3176.00  284.52  8.96
338.8  3318.90  275.77  8.31
340.3  3513.75  281.10  8.00
341.8  3658.00  280.45  7.67
343.2  3818.40  278.24  7.29
344.7  4009.10  261.59  6.52
346.2  4207.55  250.55  5.95
347.7  4404.40  251.68  5.71
349.2  4611.60  246.96  5.36
350.6  4810.98  259.52  5.39
352.1  5072.95  266.75  5.26
353.6  5378.50  263.72  4.90
355.1  5657.40  260.42  4.60
356.6  5932.28  257.83  4.35
358.0  6220.50  263.71  4.24
359.5  6519.90  276.04  4.23
361.0  6822.90  275.31  4.04
362.5  7172.38  292.75  4.08
364.0  7541.53  294.40  3.90
365.4  7924.20  303.48  3.83
366.9  8287.50  309.40  3.73
368.4  8618.90  327.30  3.80
369.9  9026.35  335.11  3.71
371.3  9451.80  352.44  3.73
372.8  9876.60  368.16  3.73
374.3  10293.13  369.08  3.59
375.8  10726.10  373.71  3.48
377.2  11163.50  383.77  3.44
378.7  11593.90  390.95  3.37
380.2  12024.30  398.12  3.31
381.7  12539.60  403.57  3.22
383.1  13016.85  409.64  3.15
384.6  13541.45  413.62  3.05
386.1  14025.98  421.59  3.01
387.6  14526.05  438.39  3.02
389.0  15008.00  446.67  2.98
390.5  15531.75  456.66  2.94
392.0  16108.05  469.05  2.91
393.4  16710.90  483.46  2.89
394.9  17278.20  483.72  2.80
396.4  17827.88  496.80  2.79
397.9  18424.38  509.08  2.76
399.3  18993.75  526.76  2.77
400.8  19566.13  531.73  2.72
402.2  20204.65  546.65  2.71
403.7  20824.88  558.54  2.68
405.2  21449.55  577.67  2.69
406.6  22063.20  590.83  2.68
408.1  22667.80  605.68  2.67
409.6  23310.90  620.45  2.66
411.0  23997.40  637.65  2.66
412.5  24677.63  652.52  2.64
414.0  25326.13  673.73  2.66
415.4  26056.13  694.30  2.66
416.9  26753.70  714.46  2.67
418.4  27470.93  739.53  2.69
419.8  28228.20  764.40  2.71
421.3  28965.63  784.30  2.71
422.7  29754.00  809.68  2.72
424.2  30543.75  839.25  2.75
425.7  31328.60  864.99  2.76
427.1  32108.93  894.64  2.79
428.6  32953.00  917.60  2.78
430.0  33703.68  944.90  2.80
431.5  34596.15  973.11  2.81
432.9  35511.60  1004.01  2.83
434.4  36414.15  1035.22  2.84
435.9  37282.00  1060.27  2.84
437.3  38156.25  1090.83  2.86
438.8  39028.13  1118.58  2.87
440.2  39912.95  1146.27  2.87
441.7  40896.80  1182.77  2.89
443.1  41830.25  1213.70  2.90
444.6  42837.00  1252.36  2.92
446.0  43803.60  1283.66  2.93
447.5  44785.13  1314.90  2.94
448.9  45756.30  1348.48  2.95
450.4  46788.35  1389.97  2.97
451.8  47684.00  1421.33  2.98
453.3  48652.08  1453.94  2.99
454.7  49696.10  1487.90  2.99
456.2  50572.40  1518.23  3.00
457.6  51573.38  1548.75  3.00
459.1  52593.78  1584.79  3.01
460.5  53566.88  1621.05  3.03
462.0  54654.53  1655.46  3.03
463.4  55745.30  1689.67  3.03
464.8  56748.75  1718.65  3.03
466.3  57740.93  1757.80  3.04
467.7  58749.05  1792.22  3.05
469.2  59846.90  1827.87  3.05
470.6  60864.60  1865.84  3.07
472.0  61944.08  1899.19  3.07
473.5  62997.50  1936.07  3.07
474.9  64068.00  1977.90  3.09
476.4  65246.40  2023.68  3.10
477.8  66337.50  2064.80  3.11
479.2  67367.00  2105.40  3.13
480.7  68510.18  2151.95  3.14
482.1  69692.35  2196.40  3.15
483.6  70935.05  2250.35  3.17
485.0  72056.55  2302.49  3.20
486.4  73302.90  2360.98  3.22
487.9  74412.00  2425.80  3.26
489.3  75612.88  2495.40  3.30
490.7  76717.25  2568.04  3.35
492.2  77998.20  2647.96  3.39
493.6  79124.65  2738.57  3.46
495.0  80276.63  2839.20  3.54
496.5  81490.28  2950.65  3.62
497.9  82634.93  3073.92  3.72
499.3  83852.95  3216.76  3.84
500.7  85145.80  3379.27  3.97
502.2  86344.40  3564.35  4.13
503.6  87658.40  3786.27  4.32
505.0  88779.00  4039.49  4.55
506.5  90112.73  4341.88  4.82
507.9  91336.83  4688.65  5.13
509.3  92722.00  5091.20  5.49
510.7  94009.50  5538.00  5.89
512.2  95448.15  6052.48  6.34
513.6  96977.30  6629.70  6.84
515.0  98451.23  7264.23  7.38
516.4  99877.05  7941.78  7.95
517.8  101544.63  8676.52  8.54
519.3  102916.40  9407.73  9.14
520.7  104517.95  10168.45  9.73
522.1  105832.68  10902.36  10.30
523.5  107224.60  11620.40  10.84
524.9  108698.40  12315.06  11.33
526.3  110121.90  12955.18  11.76
527.8  111686.85  13574.88  12.15
529.2  112897.30  14123.21  12.51
530.6  114472.90  14665.79  12.81
532.0  116228.00  15189.07  13.07
533.4  117586.65  15622.11  13.29
534.8  118496.00  15959.93  13.47
536.3  120202.20  16372.68  13.62
537.7  122245.20  16816.80  13.76
539.1  123755.33  17185.98  13.89
540.5  124982.60  17507.85  14.01
541.9  126816.75  17918.41  14.13
543.3  128135.25  18251.46  14.24
544.7  129515.40  18595.68  14.36
546.1  131353.75  18994.62  14.46
547.5  132608.00  19295.36  14.55
549.0  134387.00  19644.53  14.62
550.4  135904.38  19928.25  14.66
551.8  137488.08  20177.13  14.68
553.2  139045.15  20370.38  14.65
554.6  140420.80  20482.45  14.59
556.0  141991.65  20555.10  14.48
557.4  143631.08  20572.91  14.32
558.8  145314.00  20530.26  14.13
560.2  146816.63  20382.03  13.88
561.6  148524.98  20192.53  13.60
563.0  150159.13  19919.26  13.27
564.4  151793.40  19594.87  12.91
565.8  153340.00  19214.25  12.53
567.2  155144.00  18829.70  12.14
568.6  156676.13  18396.15  11.74
570.0  158149.75  17955.10  11.35
571.4  159915.60  17560.66  10.98
572.8  161724.13  17202.22  10.64
574.2  163396.80  16862.72  10.32
575.6  164992.50  16552.50  10.03
577.0  166550.70  16285.56  9.78
578.4  168327.25  16078.18  9.55
579.8  169887.38  15885.99  9.35
581.2  171645.68  15748.17  9.17
582.5  173101.50  15615.60  9.02
583.9  174663.60  15519.36  8.89
585.3  176501.93  15477.06  8.77
586.7  178030.13  15430.48  8.67
588.1  179559.13  15411.68  8.58
589.5  181251.00  15420.30  8.51
590.9  182924.80  15442.13  8.44
592.3  184761.10  15485.03  8.38
593.7  186259.13  15492.23  8.32
595.0  187924.73  15492.60  8.24
596.4  189406.70  15453.67  8.16
597.8  190934.23  15384.92  8.06
599.2  192508.80  15289.12  7.94
600.6  194318.48  15172.73  7.81
602.0  195642.53  14978.72  7.66
603.3  197477.70  14789.37  7.49
604.7  199190.05  14562.96  7.31
606.1  200734.80  14307.84  7.13
607.5  202413.80  14056.82  6.94
608.9  204146.50  13810.21  6.76
610.2  205565.85  13553.19  6.59
611.6  207196.80  13322.25  6.43
613.0  208816.95  13112.89  6.28
614.4  210218.40  12916.52  6.14
615.8  211711.50  12749.10  6.02
617.1  213297.00  12622.40  5.92
618.5  214970.00  12534.61  5.83
619.9  216546.83  12473.32  5.76
621.3  218240.78  12451.95  5.71
622.6  219889.75  12460.27  5.67
624.0  221413.95  12487.72  5.64
625.4  222929.85  12552.54  5.63
626.8  224574.35  12638.08  5.63
628.1  225933.13  12731.22  5.63
629.5  227813.65  12852.04  5.64
630.9  229414.90  12948.06  5.64
632.2  230775.13  13002.85  5.63
633.6  232403.38  13030.98  5.61
635.0  233937.20  12996.32  5.56
636.3  235504.90  12896.57  5.48
637.7  236942.88  12709.23  5.36
639.1  238647.50  12462.33  5.22
640.4  240203.25  12150.97  5.06
641.8  241457.45  11778.76  4.88
643.2  243085.15  11418.24  4.70
644.5  244477.00  11057.07  4.52
645.9  246215.25  10735.44  4.36
647.2  247898.70  10453.10  4.22
648.6  249743.25  10230.30  4.10
650.0  251272.80  10031.04  3.99
651.3  251851.05  9826.92  3.90
652.7  253250.35  9665.63  3.82
654.0  255380.80  9550.83  3.74
655.4  256924.78  9428.85  3.67
656.8  257191.00  9288.84  3.61
658.1  258394.10  9191.99  3.56
659.5  260831.55  9144.38  3.51
660.8  262575.00  9099.00  3.47
662.2  263491.20  9049.60  3.43
663.5  265224.10  9072.64  3.42
664.9  266526.00  9111.09  3.42
666.2  267376.80  9176.00  3.43
667.6  269217.18  9316.97  3.46
668.9  270367.58  9478.52  3.51
670.3  271654.88  9660.03  3.56
671.6  273199.50  9891.35  3.62
673.0  274416.38  10142.10  3.70
674.3  275719.60  10422.36  3.78
675.7  277107.48  10740.22  3.88
677.0  278285.88  11085.92  3.98
678.4  279695.48  11491.18  4.11
679.7  280840.78  11943.42  4.25
681.1  282184.73  12473.85  4.42
682.4  283366.20  13089.09  4.62
683.8  284648.00  13869.96  4.87
685.1  285700.13  14850.30  5.20
686.4  287046.00  16123.12  5.62
687.8  288360.00  17779.23  6.17
689.1  289494.75  19909.30  6.88
690.5  290907.60  22671.84  7.79
691.8  291770.45  26103.96  8.95
693.1  293158.95  30323.82  10.34
694.5  294362.25  35168.47  11.95
695.8  295613.50  40549.60  13.72
697.1  296864.75  46358.43  15.62
698.5  297982.90  52479.37  17.61
699.8  299128.60  58812.90  19.66
701.1  300330.38  65231.44  21.72
702.5  301177.80  71510.56  23.74
703.8  302197.50  77673.00  25.70
705.1  303432.68  83651.23  27.57
706.5  304523.75  89321.00  29.33
707.8  305569.20  94680.56  30.98
709.1  306522.25  99676.66  32.52
710.5  307727.80  104442.30  33.94
711.8  308632.00  108815.08  35.26
713.1  309680.10  112965.85  36.48
714.4  310661.30  116807.40  37.60
715.8  311553.30  120378.37  38.64
717.1  312944.70  123911.38  39.60
718.4  313958.40  127064.75  40.47
719.7  315121.98  130079.31  41.28
721.0  315697.50  132654.00  42.02
722.4  316534.35  135149.67  42.70
723.7  317575.65  137564.02  43.32
725.0  318695.40  139876.92  43.89
726.3  319686.95  141995.85  44.42
727.6  320280.40  143806.63  44.90
729.0  321248.03  145650.17  45.34
730.3  322096.73  147317.02  45.74
731.6  323081.40  148937.84  46.10
732.9  323941.45  150412.36  46.43
734.2  324819.00  151809.72  46.74
735.5  325915.35  153216.76  47.01
736.8  326775.60  154432.36  47.26
738.1  327669.00  155589.00  47.48
739.5  328731.65  156731.36  47.68
740.8  329482.45  157664.69  47.85
742.1  330250.75  158556.70  48.01
743.4  331025.00  159380.00  48.15
744.7  332007.90  160277.48  48.28
746.0  332972.25  161097.56  48.38
747.3  333611.75  161709.38  48.47
748.6  334415.25  162365.77  48.55
749.9  335166.00  162950.67  48.62
751.2  335896.75  163489.80  48.67
752.5  336785.85  164075.56  48.72
753.8  337410.50  164536.73  48.76
755.1  338156.00  165020.27  48.80
756.4  338843.88  165436.51  48.82
757.7  339939.78  166038.65  48.84
759.0  341842.88  167025.28  48.86
760.3  343147.20  167682.24  48.87
761.6  344815.80  168519.87  48.87
762.9  345422.75  168824.60  48.87
764.2  345853.30  169036.01  48.88
765.5  346190.25  169198.12  48.87
766.8  346691.20  169430.61  48.87
768.1  347267.60  169697.33  48.87
769.3  347947.60  169988.51  48.85
770.6  348676.25  170331.03  48.85
771.9  349482.70  170691.66  48.84
773.2  349944.80  170888.48  48.83
774.5  350607.40  171195.79  48.83
775.8  351364.15  171542.10  48.82
777.1  351986.25  171833.42  48.82
778.4  352393.80  172010.70  48.81
779.6  353251.90  172397.07  48.80
780.9  353790.00  172636.00  48.80
782.2  354288.00  172884.80  48.80
783.5  354654.00  173057.00  48.80
784.8  355288.95  173347.47  48.79
786.0  355764.15  173563.65  48.79
787.3  356202.58  173762.98  48.78
788.6  356694.60  173997.88  48.78
789.9  357226.80  174244.93  48.78
791.2  357934.10  174588.97  48.78
792.4  358702.05  174943.37  48.77
793.7  359250.40  175211.95  48.77
795.0  359931.83  175542.73  48.77
796.2  360663.05  175879.99  48.77
797.5  361452.53  176254.84  48.76
798.8  362183.45  176622.85  48.77
800.0  362921.78  176981.30  48.77
801.3  363454.80  177231.75  48.76
802.6  364146.08  177546.12  48.76
803.8  364835.45  177879.90  48.76
805.1  365414.00  178136.82  48.75
806.4  365912.40  178404.52  48.76
807.7  366512.85  178698.42  48.76
808.9  367103.75  178993.43  48.76
810.2  367696.35  179282.79  48.76
811.4  368238.30  179541.07  48.76
812.7  368996.88  179860.42  48.74
814.0  369856.20  180302.84  48.75
815.2  370531.25  180627.20  48.75
816.5  371005.40  180858.09  48.75
817.7  371509.50  181101.24  48.75
819.0  372018.90  181366.09  48.75
820.2  372240.00  181467.73  48.75
821.5  373006.10  181820.75  48.74
822.7  373428.20  182029.65  48.75
824.0  373763.70  182186.28  48.74
825.2  374323.28  182437.38  48.74
826.5  374607.10  182588.66  48.74
827.7  375171.30  182859.99  48.74
829.0  375621.03  183056.58  48.73
830.2  375968.35  183228.73  48.74
831.5  376526.20  183475.45  48.73
832.7  376845.00  183608.39  48.72
834.0  377178.70  183754.79  48.72
835.2  377549.70  183914.54  48.71
836.4  377824.70  184085.95  48.72
837.7  378261.80  184294.45  48.72
838.9  378695.70  184508.59  48.72
840.1  379121.18  184680.81  48.71
841.4  379523.00  184902.24  48.72
842.6  379919.40  185075.60  48.71
843.8  380196.80  185246.32  48.72
845.1  380730.25  185480.62  48.72
846.3  381154.20  185676.95  48.71
847.5  381538.50  185883.04  48.72
848.8  381985.80  186075.68  48.71
850.0  382290.30  186254.27  48.72
851.2  382793.85  186500.70  48.72
852.5  383228.00  186675.76  48.71
853.7  383670.00  186910.80  48.72
854.9  384173.20  187142.32  48.71
856.1  384627.75  187361.81  48.71
857.4  384839.05  187441.17  48.71
858.6  385263.80  187661.64  48.71
859.8  385655.63  187830.50  48.70
861.0  386100.00  188051.76  48.71
862.2  386505.85  188263.46  48.71
863.5  386921.28  188440.07  48.70
864.7  387393.60  188682.56  48.71
865.9  387845.60  188863.09  48.70
867.1  388175.25  188993.52  48.69
868.3  388621.20  189180.88  48.68
869.5  389067.95  189407.43  48.68
870.8  389614.50  189658.80  48.68
872.0  390104.63  189910.20  48.68
873.2  390515.55  190112.90  48.68
874.4  390926.25  190308.69  48.68
875.6  391376.15  190481.43  48.67
876.8  391878.35  190699.61  48.66
878.0  392409.90  190919.47  48.65
879.2  392918.10  191163.94  48.65
880.4  393455.63  191400.90  48.65
881.6  393865.78  191601.84  48.65
882.8  394359.20  191801.07  48.64
884.0  394955.15  192057.98  48.63
885.2  395439.30  192285.17  48.63
886.5  396093.30  192579.41  48.62
887.7  396560.13  192785.54  48.61
888.8  397228.80  193101.39  48.61
890.0  397719.90  193343.77  48.61
891.2  398506.10  193621.68  48.59
892.4  399105.00  193901.68  48.58
893.6  399659.80  194151.67  48.58
894.8  400579.50  194561.60  48.57
896.0  401565.50  194979.93  48.55
897.2  402294.75  195387.83  48.57
898.4  403062.00  195734.00  48.56
899.6  403762.13  196005.20  48.54
900.8  404199.45  196160.78  48.53
902.0  404377.95  196260.38  48.53
903.2  404689.73  196372.37  48.52
904.3  405168.00  196506.48  48.50
905.5  405743.25  196798.52  48.50
906.7  406443.50  197036.00  48.48
907.9  406940.10  197321.04  48.49
909.1  407194.43  197443.17  48.49
910.2  407382.00  197532.90  48.49
911.4  407745.00  197636.40  48.47
912.6  408043.35  197640.30  48.44
913.8  408367.65  197767.91  48.43
915.0  408836.40  197954.12  48.42
916.2  409022.25  198051.10  48.42
917.3  408935.93  198022.80  48.42
918.5  409164.50  198046.89  48.40
919.7  409383.60  198131.84  48.40
920.8  409717.00  198171.78  48.37
922.0  409774.75  198190.30  48.37
923.2  410046.00  198270.80  48.35
924.4  410281.88  198300.60  48.33
925.5  410517.80  198384.20  48.33
926.7  411179.00  198622.62  48.31
927.9  412110.00  198969.60  48.28
929.0  413785.80  199672.74  48.26
930.2  416077.20  200793.77  48.26
931.4  418610.70  201909.69  48.23
932.5  421432.60  203160.15  48.21
933.7  422848.55  203766.05  48.19
934.9  423626.88  203984.08  48.15
936.0  423114.25  203711.95  48.15
937.2  421235.70  202643.16  48.11
938.3  419546.50  201716.62  48.08
939.5  417924.00  200896.80  48.07
940.7  418060.80  200893.80  48.05
941.8  419441.18  201575.02  48.06
943.0  421058.25  202170.10  48.01
944.2  422104.15  202449.26  47.96
945.3  421814.25  202169.50  47.93
946.5  421086.60  201711.24  47.90
947.6  421065.60  201684.32  47.90
948.8  421034.25  201449.69  47.85
949.9  421251.60  201348.00  47.80
951.1  420901.98  200979.52  47.75
952.2  420852.00  200708.80  47.69
953.4  420510.25  200341.67  47.64
954.5  420568.20  200182.32  47.60
955.7  420474.60  199977.12  47.56
956.8  420329.10  199596.40  47.49
958.0  420185.50  199261.40  47.42
959.1  420074.23  199029.26  47.38
960.3  419704.38  198759.73  47.36
961.4  419609.95  198616.94  47.33
962.6  419802.25  198544.97  47.29
963.7  419751.08  198386.15  47.26
964.9  419462.78  198276.28  47.27
966.0  419452.43  198196.20  47.25
967.2  419470.20  198182.94  47.25
968.3  419235.75  198013.14  47.23
969.5  419362.50  197827.27  47.17
970.6  419517.43  197834.37  47.16
971.8  419793.85  198019.73  47.17
972.9  419942.63  197909.02  47.13
974.0  419759.20  198103.75  47.19
975.2  419924.88  198034.43  47.16
976.3  419832.78  197905.80  47.14
977.5  420152.43  197962.01  47.12
978.6  420105.00  198022.83  47.14
979.7  420053.03  198091.74  47.16
980.9  419811.18  197986.14  47.16
982.0  419956.25  197931.38  47.13
983.2  419980.35  197830.16  47.10
984.3  419813.60  197725.68  47.10
985.4  419466.88  197795.51  47.15
986.6  418833.25  197666.37  47.19
987.7  420032.90  198102.47  47.16
988.9  420534.00  197903.76  47.06
990.0  420610.60  198225.48  47.13
993.1  373155.88  174891.61  46.87
996.9  373731.08  175559.51  46.97
1000.7  374881.79  176410.19  47.06
1004.5  375500.92  176974.61  47.13
1008.4  375347.00  177191.11  47.21
1012.2  375490.33  177462.53  47.26
1016.0  375585.00  177771.68  47.33
1019.8  375790.80  178092.66  47.39
1023.7  375888.09  178293.91  47.43
1027.5  375698.50  178348.71  47.47
1031.3  376064.70  178605.51  47.49
1035.1  375963.58  178655.76  47.52
1038.9  375980.55  178741.97  47.54
1042.7  375871.25  178757.33  47.56
1046.5  375771.00  178746.59  47.57
1050.3  375894.42  178808.79  47.57
1054.2  375637.50  178732.69  47.58
1058.0  375154.73  178488.81  47.58
1061.8  375045.79  178448.99  47.58
1065.6  374816.00  178288.83  47.57
1069.4  374896.13  178288.98  47.56
1073.2  374584.75  178067.69  47.54
1077.0  374111.50  177772.31  47.52
1080.8  373616.67  177422.65  47.49
1084.6  372541.28  176798.68  47.46
1088.4  371852.33  176407.81  47.44
1092.2  371036.25  175890.93  47.41
1096.0  370506.73  175491.20  47.37
1099.8  370061.90  175122.91  47.32
1103.6  369399.75  174647.45  47.28
1107.4  368547.39  174054.89  47.23
1111.2  368326.90  173767.38  47.18
1114.9  367739.75  173252.88  47.11
1118.7  367129.13  172705.03  47.04
1122.5  366488.20  172071.62  46.95
1126.3  365379.12  171171.04  46.85
1130.1  364917.58  170392.14  46.69
1133.9  363325.20  168886.91  46.48
1137.7  361881.70  167300.47  46.23
1141.4  360122.86  165375.39  45.92
1145.2  359386.62  163799.56  45.58
1149.0  358289.17  162126.48  45.25
1152.8  356686.95  160356.31  44.96
1156.6  354996.95  158837.68  44.74
1160.3  353247.00  157545.97  44.60
1164.1  350777.50  156159.22  44.52
1167.9  348977.08  155211.59  44.48
1171.7  347689.13  154550.25  44.45
1175.4  346532.13  153984.15  44.44
1179.2  345495.33  153450.11  44.41
1183.0  345225.67  153224.01  44.38
1186.7  344662.50  152883.33  44.36
1190.5  343602.13  152313.20  44.33
1194.3  342436.57  151703.38  44.30
1198.0  341210.93  151123.60  44.29
1201.8  339744.58  150454.84  44.28
1205.6  338484.00  149977.19  44.31
1209.3  337537.52  149697.26  44.35
1213.1  336612.75  149432.27  44.39
1216.8  335656.75  149220.43  44.46
1220.6  334570.13  148938.04  44.52
1224.3  333343.17  148584.47  44.57
1228.1  332050.40  148227.08  44.64
1231.9  330825.73  147835.42  44.69
1235.6  329324.55  147305.03  44.73
1239.4  327949.00  146838.91  44.77
1243.1  326691.18  146355.92  44.80
1246.9  325467.11  145857.61  44.81
1250.6  324485.73  145434.49  44.82
1254.3  323403.67  144959.90  44.82
1258.1  322367.38  144486.87  44.82
1261.8  321054.80  143879.31  44.81
1265.6  319610.00  143173.17  44.80
1269.3  318156.15  142439.19  44.77
1273.1  318132.63  142316.81  44.74
1276.8  318422.40  142319.98  44.70
1280.6  318331.67  142100.59  44.64
1284.3  316979.20  141304.74  44.58
1288.0  315510.62  140419.52  44.51
1291.8  314178.80  139541.18  44.41
1295.5  312776.93  138607.10  44.32
1299.2  311516.98  137689.91  44.20
1302.9  310090.76  136633.12  44.06
1306.7  308548.92  135458.28  43.90
1310.4  307057.27  134209.76  43.71
1314.1  305657.18  132946.33  43.50
1317.9  304410.00  131642.13  43.25
1321.6  302997.79  130177.63  42.96
1325.3  301363.65  128510.36  42.64
1329.0  300011.83  126906.49  42.30
1332.8  297913.00  124894.49  41.92
1336.5  296112.27  122976.63  41.53
1340.2  295780.33  121671.33  41.14
1343.9  295391.46  120326.65  40.73
1347.6  294909.60  118935.57  40.33
1351.4  295368.00  117957.95  39.94
1355.1  296034.93  117065.50  39.54
1358.8  296400.00  115986.79  39.13
1362.5  296002.50  114495.63  38.68
1366.2  294123.80  112224.04  38.16
1369.9  292052.38  109605.54  37.53
1373.6  289972.26  106583.05  36.76
1377.3  288187.50  103135.22  35.79
1381.0  287039.17  99176.34  34.55
1384.8  284943.75  94041.59  33.00
1388.4  282409.52  88231.81  31.24
1392.2  280509.42  82160.81  29.29
1395.9  278899.10  75976.31  27.24
1399.6  277209.64  69971.77  25.24
1403.3  275959.93  64591.91  23.41
1407.0  274734.30  59916.43  21.81
1410.7  273450.38  56072.71  20.51
1414.3  272130.48  53067.80  19.50
1418.1  270876.58  50856.69  18.77
1421.7  269905.94  49318.59  18.27
1425.4  268946.93  48292.28  17.96
1429.1  268047.75  47667.38  17.78
1432.8  266502.53  47243.17  17.73
1436.5  265685.05  47157.24  17.75
1440.2  264804.57  47224.82  17.83
1443.9  263482.27  47309.58  17.96
1447.6  261846.20  47402.42  18.10
1451.2  260722.37  47608.36  18.26
1454.9  259428.60  47799.45  18.42
1458.6  258354.24  48121.58  18.63
1462.3  257205.30  48555.04  18.88
1466.0  255856.82  49110.65  19.19
1469.7  254148.70  49783.66  19.59
1473.3  253116.00  50726.23  20.04
1477.0  251181.00  51588.17  20.54
1480.7  249591.16  52573.93  21.06
1484.4  247660.00  53487.21  21.60
1488.0  246092.00  54491.56  22.14
1491.7  244454.19  55445.09  22.68
1495.4  242701.98  56359.24  23.22
1499.0  241106.00  57251.98  23.75
1502.7  239778.00  58182.00  24.26
1506.4  238377.05  59028.25  24.76
1510.0  236935.07  59829.87  25.25
1513.7  235455.21  60561.05  25.72
1517.4  234135.00  61275.23  26.17
1521.0  232889.07  61966.93  26.61
1524.7  231670.83  62592.15  27.02
1528.3  230378.75  63154.89  27.41
1532.0  229155.85  63677.82  27.79
1535.7  227764.93  64095.05  28.14
1539.3  226505.02  64510.31  28.48
1543.0  225520.16  64971.32  28.81
1546.6  224826.33  65472.75  29.12
1550.3  223844.60  65847.00  29.42
1553.9  222765.13  66157.37  29.70
1557.6  221498.20  66379.95  29.97
1561.2  220228.65  66560.10  30.22
1564.9  218920.09  66700.82  30.47
1568.5  217593.48  66811.01  30.70
1572.2  216426.20  66946.24  30.93
1575.8  215334.00  67087.56  31.16
1579.5  214356.45  67225.04  31.36
1583.1  213339.93  67354.08  31.57
1586.8  212114.00  67381.78  31.77
1590.4  211075.37  67449.77  31.96
1594.0  209738.64  67408.16  32.14
1597.7  208597.87  67415.79  32.32
1601.3  207281.03  67361.63  32.50
1604.9  205977.89  67279.43  32.66
1608.6  204646.08  67159.51  32.82
1612.2  203600.93  67104.06  32.96
1615.8  202455.83  67003.25  33.10
1619.5  201346.33  66884.61  33.22
1623.1  200044.57  66687.51  33.34
1626.7  198780.40  66478.63  33.44
1630.3  197561.00  66255.48  33.54
1634.0  196448.00  66044.67  33.62
1637.6  195428.20  65839.37  33.69
1641.2  194409.85  65582.50  33.73
1644.8  193185.41  65204.91  33.75
1648.5  192097.60  64839.34  33.75
1652.1  191125.50  64470.80  33.73
1655.7  190194.80  64093.17  33.70
1659.3  189311.08  63748.46  33.67
1662.9  187864.17  63230.78  33.66
1666.6  186397.40  62720.36  33.65
1670.2  184965.49  62215.49  33.64
1673.8  183500.71  61672.60  33.61
1677.4  182326.85  61196.23  33.56
1681.0  181539.35  60794.17  33.49
1684.6  181153.92  60471.82  33.38
1688.2  180483.25  59967.25  33.23
1691.8  179811.29  59472.67  33.08
1695.4  179374.40  59024.89  32.91
1699.0  179026.87  58585.98  32.72
1702.6  178665.00  58136.23  32.54
1706.2  178058.18  57563.12  32.33
1709.8  177127.04  56892.15  32.12
1713.4  176395.63  56319.06  31.93
1717.0  175525.00  55755.94  31.77
1720.6  174743.93  55250.06  31.62
1724.2  174040.43  54780.44  31.48
1727.8  173330.85  54324.05  31.34
1731.4  172863.63  53949.68  31.21
1735.0  172617.87  53663.87  31.09
1738.6  172344.75  53323.84  30.94
1742.2  171739.28  52835.66  30.77
1745.8  171040.58  52283.07  30.57
1749.4  170042.40  51607.08  30.35
1753.0  168521.13  50773.54  30.13
1756.6  166826.33  49918.15  29.92
1760.1  165489.43  49200.56  29.73
1763.7  163775.33  48389.32  29.55
1767.3  162342.15  47686.84  29.37
1770.9  161100.16  47050.23  29.21
1774.5  159647.57  46370.79  29.05
1778.0  158494.66  45831.33  28.92
1781.6  157408.50  45338.66  28.80
1785.2  156244.98  44884.45  28.73
1788.8  155061.90  44474.05  28.68
1792.3  153856.67  44065.92  28.64
1795.9  153382.99  43887.89  28.61
1799.5  152906.67  43720.94  28.59
1803.1  152342.63  43543.71  28.58
1806.6  152929.99  43687.15  28.57
1810.2  154161.23  44008.56  28.55
1813.8  155188.15  44263.55  28.52
1817.3  155212.20  44237.87  28.50
1820.9  154461.87  43970.40  28.47
1824.5  153265.15  43566.11  28.43
1828.0  152428.83  43231.67  28.36
1831.6  151710.45  42904.12  28.28
1835.2  151087.50  42542.05  28.16
1838.7  150696.13  42169.74  27.98
1842.3  150315.00  41722.14  27.76
1845.8  149476.04  41032.88  27.45
1849.4  148962.35  40301.81  27.06
1852.9  148282.17  39362.75  26.55
1856.5  147354.68  38151.73  25.89
1860.0  146569.73  36735.69  25.06
1863.6  146380.10  35215.62  24.06
1867.1  146375.25  33455.29  22.86
1870.7  146442.33  31300.47  21.37
1874.2  145607.40  28549.47  19.61
1877.8  144169.27  25514.78  17.70
1881.3  142518.50  22356.80  15.69
1884.9  141464.95  19396.62  13.71
1888.4  140420.66  16581.05  11.81
1891.9  139395.47  14127.80  10.14
1895.5  138322.97  12111.46  8.76
1899.0  137832.38  10634.26  7.72
1901.3  171375.50  9006.72  5.26
1904.1  171312.00  8073.25  4.71
1906.8  170525.40  7379.00  4.33
1909.6  168731.50  6833.75  4.05
1912.4  167013.58  6454.74  3.86
1915.1  165791.45  6159.27  3.72
1917.9  164377.33  5963.89  3.63
1920.6  163214.13  5854.27  3.59
1923.3  162055.13  5809.38  3.58
1926.1  160601.30  5785.61  3.60
1928.8  159221.33  5788.44  3.64
1931.6  158145.57  5853.66  3.70
1934.3  157137.28  5937.71  3.78
1937.0  156158.50  6043.27  3.87
1939.8  155089.25  6177.78  3.98
1942.5  153758.00  6310.33  4.10
1945.2  152047.50  6447.65  4.24
1947.9  150650.50  6595.24  4.38
1950.7  149556.97  6778.07  4.53
1953.4  147834.00  6952.40  4.70
1956.1  146457.42  7150.39  4.88
1958.8  145246.83  7363.27  5.07
1961.5  143777.60  7580.80  5.27
1964.2  142278.50  7795.67  5.48
1966.9  140700.35  8006.23  5.69
1969.6  139464.00  8259.00  5.92
1972.3  138065.70  8502.47  6.16
1975.0  136998.00  8773.30  6.40
1977.7  135882.47  9042.96  6.65
1980.4  134726.13  9318.96  6.92
1983.1  133617.78  9591.24  7.18
1985.8  132692.40  9883.20  7.45
1988.4  131664.00  10166.00  7.72
1991.1  130725.93  10452.09  8.00
1993.8  129844.55  10736.37  8.27
1996.5  129198.30  11049.44  8.55
1999.1  128500.35  11342.40  8.83
2001.8  127807.87  11631.98  9.10
2004.5  127111.75  11919.70  9.38
2007.1  126393.80  12193.62  9.65
2009.8  125640.90  12452.14  9.91
2012.4  125053.68  12703.84  10.16
2015.1  124492.67  12958.63  10.41
2017.8  123681.13  13171.59  10.65
2020.4  123166.63  13398.91  10.88
2023.1  122800.53  13626.28  11.10
2025.7  122572.67  13858.00  11.31
2028.3  122252.00  14054.45  11.50
2031.0  121835.85  14240.67  11.69
2033.6  121547.70  14430.40  11.87
2036.2  121286.70  14601.50  12.04
2038.9  120695.10  14717.50  12.19
2041.5  120351.02  14867.73  12.35
2044.1  119781.60  14969.80  12.50
2046.8  119398.80  15085.80  12.63
2049.4  118772.40  15152.50  12.76
2052.0  118485.13  15257.13  12.88
2054.6  118090.00  15344.58  12.99
2057.2  117515.73  15411.42  13.11
2059.8  117166.40  15522.04  13.25
2062.4  116280.33  15550.53  13.37
2065.0  115760.33  15606.47  13.48
2067.6  114850.80  15623.17  13.60
2070.2  114249.35  15663.85  13.71
2072.8  113595.60  15704.53  13.82
2075.4  113155.00  15761.67  13.93
2078.0  112514.50  15798.29  14.04
2080.6  111953.60  15834.13  14.14
2083.2  111257.77  15853.06  14.25
2085.8  110757.83  15900.76  14.36
2088.4  110081.00  15920.61  14.46
2090.9  109273.77  15914.08  14.56
2093.5  108399.83  15888.12  14.66
2096.1  107622.18  15877.34  14.75
2098.7  106840.47  15868.56  14.85
2101.2  105874.20  15830.62  14.95
2103.8  105193.00  15839.36  15.06
2106.4  104520.53  15839.35  15.15
2108.9  103865.53  15848.09  15.26
2111.5  103000.93  15810.24  15.35
2114.0  102363.40  15818.98  15.45
2116.6  101858.75  15831.67  15.54
2119.1  101290.07  15826.75  15.63
2121.7  100808.75  15834.58  15.71
2124.2  100395.87  15855.98  15.79
2126.8  99594.22  15807.07  15.87
2129.3  99176.00  15825.33  15.96
2131.9  98586.40  15816.53  16.04
2134.4  98137.65  15820.85  16.12
2136.9  97752.20  15838.98  16.20
2139.4  97214.13  15829.95  16.28
2142.0  96761.93  15832.91  16.36
2144.5  96484.90  15862.77  16.44
2147.0  96229.87  15904.31  16.53
2149.5  95729.60  15892.40  16.60
2152.1  95555.72  15936.43  16.68
2154.6  95481.07  15993.60  16.75
2157.1  94920.83  15974.55  16.83
2159.6  94493.92  15962.45  16.89
2162.1  94321.50  15988.70  16.95
2164.6  94055.07  16004.65  17.02
2167.1  93734.28  16009.61  17.08
2169.6  93420.13  16006.28  17.13
2172.1  92951.97  15976.74  17.19
2174.6  92620.33  15975.73  17.25
2177.1  92174.22  15951.86  17.31
2179.5  91750.53  15931.50  17.36
2182.0  91274.70  15898.12  17.42
2184.5  90727.45  15854.71  17.48
2187.0  90097.77  15800.83  17.54
2189.5  89427.83  15732.85  17.59
2191.9  88654.00  15643.33  17.65
2194.4  88031.90  15585.60  17.70
2196.9  87283.20  15504.00  17.76
2199.3  86603.67  15421.56  17.81
2201.8  85731.20  15291.07  17.84
2204.3  85277.38  15251.83  17.88
2206.7  84621.35  15169.00  17.93
2209.2  84136.82  15118.21  17.97
2211.6  83496.60  15034.80  18.01
2214.1  83191.95  14991.33  18.02
2216.5  82625.47  14906.62  18.04
2219.0  82287.73  14847.02  18.04
2221.4  81891.83  14785.75  18.06
2223.9  81415.83  14689.89  18.04
2226.3  80910.08  14574.19  18.01
2228.7  80351.50  14442.84  17.97
2231.1  79774.20  14289.00  17.91
2233.6  79178.60  14131.82  17.85
2236.0  78609.42  13959.36  17.76
2238.4  78093.75  13787.47  17.66
2240.9  77648.87  13605.35  17.52
2243.3  77122.40  13400.07  17.38
2245.7  76555.30  13193.70  17.23
2248.1  76055.63  12989.89  17.08
2250.5  75533.90  12765.35  16.90
2252.9  74919.43  12514.81  16.70
2255.3  74366.30  12284.93  16.52
2257.7  73910.00  12076.67  16.34
2260.1  73413.90  11852.71  16.15
2262.5  72800.00  11620.00  15.96
2264.9  72249.38  11410.95  15.79
2267.3  71640.00  11183.33  15.61
2269.7  71146.37  10989.84  15.45
2272.1  70577.43  10794.63  15.29
2274.5  70023.10  10598.97  15.14
2276.8  69545.72  10427.35  14.99
2279.2  68963.10  10240.95  14.85
2281.6  68513.73  10086.80  14.72
2284.0  68063.90  9935.03  14.60
2286.3  67589.33  9771.91  14.46
2288.7  67189.63  9616.46  14.31
2291.1  66629.23  9445.37  14.18
2293.4  66168.67  9287.91  14.04
2295.8  65528.60  9098.33  13.88
2298.2  64935.90  8911.35  13.72
2300.5  64283.85  8725.05  13.57
2302.9  63539.67  8535.33  13.43
2305.2  62819.70  8353.30  13.30
2307.6  62137.28  8198.31  13.19
2309.9  61369.67  8039.33  13.10
2312.2  60791.00  7911.89  13.01
2314.6  60164.55  7790.10  12.95
2316.9  59450.40  7659.00  12.88
2319.2  58841.20  7536.57  12.81
2321.6  58208.97  7403.31  12.72
2323.9  57645.83  7281.25  12.63
2326.2  57101.63  7160.74  12.54
2328.6  56565.85  7043.30  12.45
2330.9  56059.50  6933.50  12.37
2333.2  55583.67  6829.78  12.29
2335.5  55137.10  6712.47  12.17
2337.8  54671.50  6610.18  12.09
2340.1  54089.20  6487.97  11.99
2342.4  53635.83  6384.44  11.90
2344.8  53218.75  6269.81  11.78
2347.1  52650.97  6141.33  11.66
2349.4  52097.82  6037.13  11.59
2351.6  51513.93  5930.64  11.51
2353.9  51018.13  5825.60  11.42
2356.2  50491.90  5721.38  11.33
2358.5  49896.00  5611.20  11.25
2360.8  49302.40  5506.67  11.17
2363.1  48848.58  5406.43  11.07
2365.4  48375.30  5311.00  10.98
2367.7  47925.60  5206.00  10.86
2369.9  47368.65  5102.88  10.77
2372.2  46738.13  4995.64  10.69
2374.5  46142.25  4897.20  10.61
2376.7  45525.72  4774.45  10.49
2379.0  44893.03  4661.09  10.38
2381.3  44275.00  4542.22  10.26
2383.5  43741.87  4443.02  10.16
2385.8  43136.60  4330.13  10.04
2388.0  42586.20  4224.40  9.92
2390.3  42055.47  4121.69  9.80
2392.5  41580.00  4016.00  9.66
2394.8  41115.80  3916.37  9.53
2397.0  40634.53  3817.96  9.40
2399.3  40144.08  3724.04  9.28
2401.5  39690.00  3634.17  9.16
2403.8  39154.68  3538.99  9.04
2406.0  38615.83  3435.28  8.90
2408.2  38210.33  3357.69  8.79
2410.4  37787.05  3266.47  8.64
2412.7  37360.70  3187.75  8.53
2414.9  36975.95  3107.68  8.40
2417.1  36576.00  3018.37  8.25
2419.3  36172.80  2926.93  8.09
2421.6  35792.08  2850.28  7.96
2423.8  35373.07  2766.22  7.82
2426.0  35016.05  2700.53  7.71
2428.2  34626.67  2630.76  7.60
2430.4  34300.80  2554.04  7.45
2432.6  34053.33  2488.89  7.31
2434.8  33737.47  2428.28  7.20
2437.0  33354.97  2359.79  7.07
2439.2  32994.18  2293.33  6.95
2441.4  32679.10  2213.14  6.77
2443.6  32441.53  2150.79  6.63
2445.7  32153.80  2101.01  6.53
2447.9  31841.33  2055.03  6.45
2450.1  31542.25  1999.78  6.34
2452.3  31169.60  1924.57  6.17
2454.5  30806.20  1862.75  6.05
2456.6  30416.53  1811.87  5.96
2458.8  30058.60  1773.20  5.90
2461.0  29770.42  1705.97  5.73
2463.1  29463.75  1653.85  5.61
2465.3  29164.23  1619.42  5.55
2467.5  28910.00  1578.25  5.46
2469.6  28654.92  1531.44  5.34
2471.8  28336.45  1496.66  5.28
2473.9  28024.83  1453.03  5.18
2476.1  27694.33  1410.50  5.09
2478.2  27343.83  1376.08  5.03
2480.4  27000.65  1340.57  4.96
2482.5  26646.82  1305.76  4.90
2484.6  26320.25  1267.45  4.82
2486.8  26046.30  1240.30  4.76
2488.9  25742.62  1215.32  4.72
2491.1  25354.93  1179.42  4.65
2493.2  24971.87  1144.28  4.58
2495.3  24579.10  1111.64  4.52
2497.4  24214.40  1089.43  4.50
2499.5  23870.42  1073.50  4.50
2501.7  23729.73  1062.69  4.48
2503.8  23637.37  1036.43  4.38
2505.9  23575.00  1030.69  4.37
2508.0  23559.92  1033.48  4.39
2510.1  23570.23  1019.35  4.32
2512.2  23653.15  1021.48  4.32
2514.3  23805.10  1025.10  4.31
2516.4  24034.00  1011.27  4.21
