/*** Spectra Vista SIG Data ***/
name= 53_20220722_LIST_62_avg.sig
comm= Averaged Ref/Tar of files: HR.072222.0035_moc.sig,HR.072222.0036_moc.sig
data=
337.3  3126.38  276.48  8.84
338.8  3222.70  281.73  8.74
340.3  3373.20  274.41  8.13
341.8  3520.83  267.82  7.61
343.2  3685.20  260.06  7.06
344.7  3838.50  237.62  6.19
346.2  4044.15  233.43  5.77
347.7  4207.78  247.19  5.87
349.2  4384.80  237.60  5.42
350.6  4590.63  236.09  5.14
352.1  4858.60  239.87  4.94
353.6  5135.60  237.94  4.63
355.1  5354.33  235.73  4.40
356.6  5670.08  238.79  4.21
358.0  5869.60  241.53  4.11
359.5  6180.00  247.20  4.00
361.0  6433.88  252.23  3.92
362.5  6762.53  259.29  3.83
364.0  7111.40  258.08  3.63
365.4  7446.50  276.99  3.72
366.9  7790.25  280.20  3.60
368.4  8100.68  280.54  3.46
369.9  8458.83  293.42  3.47
371.3  8837.70  312.78  3.54
372.8  9239.40  322.40  3.49
374.3  9621.25  330.18  3.43
375.8  10025.40  323.40  3.23
377.2  10410.30  330.49  3.17
378.7  10786.90  334.33  3.10
380.2  11190.40  330.49  2.95
381.7  11674.80  343.61  2.94
383.1  12127.50  346.50  2.86
384.6  12624.30  358.39  2.84
386.1  13107.13  366.77  2.80
387.6  13555.85  373.45  2.75
389.0  14016.40  375.20  2.68
390.5  14522.85  386.87  2.66
392.0  15050.05  392.98  2.61
393.4  15607.35  401.63  2.57
394.9  16129.80  410.15  2.54
396.4  16689.38  425.09  2.55
397.9  17194.38  439.29  2.55
399.3  17727.50  448.62  2.53
400.8  18245.10  455.77  2.50
402.2  18854.40  466.45  2.47
403.7  19404.45  478.06  2.46
405.2  20005.38  483.65  2.42
406.6  20532.00  503.77  2.45
408.1  21085.80  513.35  2.43
409.6  21664.65  526.80  2.43
411.0  22289.40  539.85  2.42
412.5  22907.50  559.30  2.44
414.0  23553.50  570.50  2.42
415.4  24187.88  590.58  2.44
416.9  24826.20  605.79  2.44
418.4  25472.70  621.61  2.44
419.8  26135.20  642.20  2.46
421.3  26826.63  662.07  2.47
422.7  27561.60  678.60  2.46
424.2  28299.38  701.52  2.48
425.7  29014.00  724.19  2.50
427.1  29735.18  746.04  2.51
428.6  30473.00  766.15  2.51
430.0  31154.28  789.10  2.53
431.5  31969.35  810.22  2.53
432.9  32816.00  835.05  2.54
434.4  33649.43  859.50  2.55
435.9  34412.00  882.00  2.56
437.3  35213.75  907.50  2.58
438.8  35987.33  932.80  2.59
440.2  36800.23  958.65  2.61
441.7  37721.00  983.95  2.61
443.1  38570.75  1008.89  2.62
444.6  39483.40  1042.39  2.64
446.0  40352.25  1071.37  2.66
447.5  41243.68  1106.01  2.68
448.9  42131.40  1138.89  2.70
450.4  43058.75  1171.05  2.72
451.8  43862.00  1197.86  2.73
453.3  44729.58  1230.92  2.75
454.7  45704.08  1264.80  2.77
456.2  46512.33  1294.16  2.78
457.6  47431.58  1329.40  2.80
459.1  48343.10  1355.34  2.80
460.5  49220.00  1381.45  2.81
462.0  50204.80  1410.46  2.81
463.4  51169.50  1440.46  2.82
464.8  52114.50  1470.75  2.82
466.3  53056.58  1498.67  2.82
467.7  53977.63  1528.14  2.83
469.2  54976.95  1560.32  2.84
470.6  55890.90  1587.65  2.84
472.0  56863.00  1616.62  2.84
473.5  57813.63  1648.59  2.85
474.9  58767.00  1681.50  2.86
476.4  59846.40  1721.83  2.88
477.8  60871.00  1758.65  2.89
479.2  61828.00  1793.86  2.90
480.7  62879.40  1830.05  2.91
482.1  63926.80  1868.18  2.92
483.6  65053.90  1909.46  2.94
485.0  66063.90  1954.13  2.96
486.4  67191.90  2003.74  2.98
487.9  68211.00  2051.68  3.01
489.3  69295.85  2114.09  3.05
490.7  70326.60  2166.68  3.08
492.2  71486.10  2230.20  3.12
493.6  72532.15  2293.77  3.16
495.0  73593.00  2371.34  3.22
496.5  74681.08  2459.11  3.29
497.9  75723.00  2559.74  3.38
499.3  76808.95  2664.56  3.47
500.7  77981.95  2787.69  3.57
502.2  79073.60  2922.09  3.70
503.6  80241.60  3084.78  3.84
505.0  81234.25  3264.86  4.02
506.5  82459.28  3486.90  4.23
507.9  83598.18  3735.90  4.47
509.3  84907.60  4036.17  4.75
510.7  86082.75  4362.43  5.07
512.2  87400.05  4739.53  5.42
513.6  88769.10  5172.15  5.83
515.0  90101.15  5659.52  6.28
516.4  91372.05  6200.55  6.79
517.8  92900.13  6806.23  7.33
519.3  94119.53  7437.64  7.90
520.7  95582.15  8126.92  8.50
522.1  96790.85  8826.21  9.12
523.5  98078.40  9541.36  9.73
524.9  99435.60  10263.22  10.32
526.3  100737.00  10957.25  10.88
527.8  102093.75  11644.52  11.41
529.2  103167.60  12277.60  11.90
530.6  104675.80  12932.75  12.36
532.0  106288.00  13546.00  12.74
533.4  107514.00  14054.01  13.07
534.8  108299.53  14458.71  13.35
536.3  109856.40  14925.30  13.59
537.7  111762.00  15404.40  13.78
539.1  113131.18  15783.05  13.95
540.5  114221.95  16100.52  14.10
541.9  115866.00  16485.00  14.23
543.3  117046.40  16793.67  14.35
544.7  118240.80  17104.89  14.47
546.1  119887.08  17473.03  14.57
547.5  121072.00  17755.20  14.66
549.0  122683.00  18090.29  14.75
550.4  124078.75  18363.04  14.80
551.8  125521.15  18600.68  14.82
553.2  126946.53  18793.65  14.80
554.6  128190.40  18905.72  14.75
556.0  129613.05  18990.77  14.65
557.4  131117.18  19028.98  14.51
558.8  132624.90  19017.39  14.34
560.2  133972.38  18928.45  14.13
561.6  135525.00  18818.61  13.89
563.0  136992.05  18648.50  13.61
564.4  138468.75  18433.87  13.31
565.8  139888.75  18167.24  12.99
567.2  141513.00  17880.33  12.64
568.6  142908.38  17533.61  12.27
570.0  144244.43  17147.66  11.89
571.4  145848.95  16777.06  11.50
572.8  147473.00  16415.74  11.13
574.2  148982.40  16059.20  10.78
575.6  150401.25  15722.68  10.45
577.0  151815.50  15419.66  10.16
578.4  153437.38  15164.50  9.88
579.8  154843.65  14915.86  9.63
581.2  156436.13  14713.48  9.41
582.5  157751.10  14509.67  9.20
583.9  159158.40  14340.37  9.01
585.3  160832.48  14216.30  8.84
586.7  162205.23  14086.43  8.68
588.1  163602.63  13978.39  8.54
589.5  165130.00  13903.75  8.42
590.9  166643.60  13850.80  8.31
592.3  168320.60  13831.89  8.22
593.7  169654.88  13806.70  8.14
595.0  171175.28  13807.03  8.07
596.4  172519.90  13795.45  8.00
597.8  173910.58  13782.92  7.93
599.2  175348.80  13760.06  7.85
600.6  176969.33  13736.17  7.76
602.0  178176.60  13658.98  7.67
603.3  179849.15  13584.85  7.55
604.7  181398.88  13477.69  7.43
606.1  182781.00  13326.86  7.29
607.5  184311.30  13161.12  7.14
608.9  185881.50  12982.20  6.98
610.2  187166.70  12771.68  6.82
611.6  188660.25  12575.30  6.67
613.0  190089.75  12375.39  6.51
614.4  191376.15  12167.96  6.36
615.8  192728.25  11982.06  6.22
617.1  194157.60  11816.70  6.09
618.5  195685.60  11694.12  5.98
619.9  197084.63  11583.94  5.88
621.3  198598.05  11510.84  5.80
622.6  200080.00  11465.83  5.73
624.0  201421.65  11433.00  5.68
625.4  202787.48  11433.79  5.64
626.8  204254.05  11456.90  5.61
628.1  205473.40  11475.71  5.59
629.5  207223.50  11541.53  5.57
630.9  208714.55  11584.34  5.55
632.2  209997.73  11603.63  5.53
633.6  211510.88  11603.41  5.49
635.0  212918.80  11558.40  5.43
636.3  214329.70  11462.49  5.35
637.7  215606.38  11303.68  5.24
639.1  217157.50  11117.50  5.12
640.4  218533.70  10877.70  4.98
641.8  219657.48  10598.24  4.82
643.2  221130.70  10325.75  4.67
644.5  222394.50  10040.11  4.51
645.9  224001.45  9781.14  4.37
647.2  225733.55  9567.48  4.24
648.6  227448.00  9381.54  4.12
650.0  228765.60  9229.37  4.03
651.3  229163.00  9071.31  3.96
652.7  230269.50  8946.69  3.89
654.0  232297.60  8859.03  3.81
655.4  233717.05  8735.84  3.74
656.8  233855.40  8567.63  3.66
658.1  234922.30  8421.70  3.58
659.5  237218.10  8310.83  3.50
660.8  238950.00  8186.79  3.43
662.2  239769.60  8032.00  3.35
663.5  241302.10  7917.05  3.28
664.9  242525.40  7826.56  3.23
666.2  243201.00  7738.29  3.18
667.6  244793.63  7721.26  3.15
668.9  245882.90  7729.29  3.14
670.3  246952.88  7757.74  3.14
671.6  248397.38  7832.25  3.15
673.0  249503.63  7930.23  3.18
674.3  250658.20  8053.88  3.21
675.7  251897.83  8202.44  3.26
677.0  252935.10  8369.50  3.31
678.4  254190.53  8577.17  3.37
679.7  255203.68  8803.71  3.45
681.1  256423.20  9079.13  3.54
682.4  257531.30  9395.66  3.65
683.8  258702.60  9768.20  3.78
685.1  259636.88  10221.75  3.94
686.4  260872.20  10805.06  4.14
687.8  262060.50  11560.46  4.41
689.1  263061.75  12555.36  4.77
690.5  264355.80  13876.16  5.25
691.8  265092.63  15600.86  5.89
693.1  266364.00  17854.67  6.70
694.5  267449.00  20621.25  7.71
695.8  268586.50  23929.75  8.91
697.1  269724.00  27758.25  10.29
698.5  270720.20  32071.86  11.85
699.8  271759.88  36817.73  13.55
701.1  272825.60  41929.32  15.37
702.5  273554.05  47235.81  17.27
703.8  274477.50  52711.07  19.20
705.1  275558.40  58279.37  21.15
706.5  276577.38  63807.11  23.07
707.8  277497.60  69265.85  24.96
709.1  278325.78  74581.45  26.80
710.5  279419.70  79827.82  28.57
711.8  280221.80  84851.50  30.28
713.1  281158.40  89757.50  31.92
714.4  282028.10  94472.36  33.50
715.8  282808.60  98970.59  35.00
717.1  284068.50  103435.80  36.41
718.4  284972.80  107590.40  37.75
719.7  286039.33  111610.85  39.02
721.0  286515.00  115232.15  40.22
722.4  287264.45  118738.64  41.33
723.7  288175.95  122135.28  42.38
725.0  289175.63  125390.06  43.36
726.3  290060.10  128410.19  44.27
727.6  290585.08  131103.54  45.12
729.0  291491.38  133773.93  45.89
730.3  292233.30  136212.61  46.61
731.6  293102.15  138549.45  47.27
732.9  293870.15  140704.03  47.88
734.2  294641.88  142724.41  48.44
735.5  295591.63  144725.80  48.96
736.8  296368.50  146479.54  49.42
738.1  297148.70  148145.86  49.86
739.5  298053.58  149764.13  50.25
740.8  298741.85  151154.11  50.60
742.1  299455.43  152497.20  50.92
743.4  300175.00  153757.15  51.22
744.7  301118.18  155049.23  51.49
746.0  301994.55  156221.19  51.73
747.3  302522.30  157153.78  51.95
748.6  303257.75  158105.00  52.14
749.9  303992.00  158990.00  52.30
751.2  304699.80  159821.33  52.45
752.5  305562.75  160688.02  52.59
753.8  306146.58  161355.83  52.71
755.1  306826.00  162017.15  52.80
756.4  307362.18  162584.95  52.90
757.7  308310.80  163315.18  52.97
759.0  310031.95  164423.26  53.03
760.3  311150.40  165188.57  53.09
761.6  312656.40  166136.00  53.14
762.9  313215.75  166545.50  53.17
764.2  313573.30  166864.55  53.21
765.5  313895.38  167111.02  53.24
766.8  314323.20  167427.66  53.27
768.1  314853.40  167766.29  53.28
769.3  315431.20  168115.95  53.30
770.6  316086.55  168514.54  53.31
771.9  316799.70  168937.30  53.33
773.2  317199.60  169174.75  53.33
774.5  317803.20  169532.63  53.35
775.8  318475.15  169905.90  53.35
777.1  319075.90  170236.00  53.35
778.4  319408.38  170438.01  53.36
779.6  320167.98  170855.05  53.36
780.9  320640.00  171124.29  53.37
782.2  321134.00  171392.18  53.37
783.5  321500.50  171584.29  53.37
784.8  322028.78  171884.61  53.38
786.0  322433.65  172099.30  53.38
787.3  322839.08  172334.62  53.38
788.6  323246.53  172564.24  53.38
789.9  323706.60  172831.20  53.39
791.2  324349.28  173182.67  53.39
792.4  325034.58  173547.43  53.39
793.7  325516.40  173804.06  53.39
795.0  326174.48  174145.60  53.39
796.2  326814.53  174503.50  53.40
797.5  327560.93  174875.10  53.39
798.8  328226.55  175234.31  53.39
800.0  328852.15  175592.35  53.40
801.3  329340.30  175843.10  53.39
802.6  329928.30  176160.50  53.39
803.8  330597.28  176501.59  53.39
805.1  331100.00  176773.00  53.39
806.4  331584.30  177012.60  53.38
807.7  332116.20  177298.30  53.38
808.9  332671.95  177573.05  53.38
810.2  333169.20  177850.70  53.38
811.4  333632.00  178118.47  53.39
812.7  334262.50  178430.81  53.38
814.0  335084.45  178837.90  53.37
815.2  335711.75  179173.11  53.37
816.5  336128.53  179390.95  53.37
817.7  336586.75  179633.32  53.37
819.0  337085.10  179883.00  53.36
820.2  337260.00  179966.29  53.36
821.5  337955.85  180322.22  53.36
822.7  338294.80  180504.96  53.36
824.0  338604.30  180655.84  53.35
825.2  339066.00  180897.30  53.35
826.5  339387.23  181036.24  53.34
827.7  339872.93  181280.66  53.34
829.0  340344.13  181486.71  53.32
830.2  340611.60  181622.79  53.32
831.5  341120.30  181858.23  53.31
832.7  341401.20  181998.68  53.31
834.0  341643.63  182153.29  53.32
835.2  341990.28  182314.28  53.31
836.4  342346.95  182472.25  53.30
837.7  342706.60  182677.23  53.30
838.9  343117.25  182911.94  53.31
840.1  343489.28  183105.71  53.31
841.4  343903.60  183331.80  53.31
842.6  344199.00  183498.49  53.31
843.8  344568.00  183694.26  53.31
845.1  345060.90  183968.05  53.31
846.3  345394.70  184172.16  53.32
847.5  345790.20  184379.10  53.32
848.8  346141.80  184578.94  53.32
850.0  346391.85  184754.85  53.34
851.2  346944.60  185056.46  53.34
852.5  347284.30  185239.11  53.34
853.7  347782.50  185505.75  53.34
854.9  348148.70  185722.11  53.35
856.1  348608.65  185948.84  53.34
857.4  348756.15  186024.60  53.34
858.6  349222.55  186286.68  53.34
859.8  349650.00  186470.09  53.33
861.0  349947.00  186711.94  53.35
862.2  350399.75  186957.71  53.36
863.5  350721.48  187104.13  53.35
864.7  351166.20  187349.49  53.35
865.9  351586.00  187557.98  53.35
867.1  351915.90  187705.43  53.34
868.3  352318.95  187926.97  53.34
869.5  352755.95  188163.17  53.34
870.8  353277.00  188430.43  53.34
872.0  353761.88  188673.00  53.33
873.2  354175.80  188877.39  53.33
874.4  354597.75  189100.00  53.33
875.6  354918.98  189283.28  53.33
876.8  355343.90  189515.98  53.33
878.0  355830.70  189742.94  53.32
879.2  356304.15  190000.55  53.33
880.4  356827.88  190246.88  53.32
881.6  357244.80  190462.90  53.31
882.8  357722.40  190667.89  53.30
884.0  358247.35  190934.98  53.30
885.2  358780.70  191173.48  53.28
886.5  359309.40  191459.06  53.29
887.7  359829.93  191688.95  53.27
888.8  360353.70  191977.41  53.27
890.0  360924.80  192256.38  53.27
891.2  361494.60  192526.73  53.26
892.4  362140.28  192832.88  53.25
893.6  362661.40  193099.17  53.25
894.8  363532.25  193558.97  53.24
896.0  364247.50  193948.68  53.25
897.2  365017.25  194361.14  53.25
898.4  365722.50  194691.52  53.23
899.6  366367.13  194958.54  53.21
900.8  366879.00  195141.68  53.19
902.0  367052.40  195244.86  53.19
903.2  367357.13  195407.02  53.19
904.3  367734.00  195537.60  53.17
905.5  368298.63  195813.84  53.17
906.7  368875.00  196063.15  53.15
907.9  369516.35  196347.20  53.14
909.1  369709.65  196498.97  53.15
910.2  369959.70  196551.67  53.13
911.4  370328.40  196625.60  53.09
912.6  370484.40  196702.63  53.09
913.8  370784.03  196790.33  53.07
915.0  371101.50  196974.75  53.08
916.2  371377.50  197078.15  53.07
917.3  371421.23  197025.59  53.05
918.5  371695.70  197101.50  53.03
919.7  371891.85  197155.87  53.01
920.8  372070.93  197181.06  53.00
922.0  372314.25  197197.00  52.97
923.2  372372.00  197203.50  52.96
924.4  372643.88  197283.22  52.94
925.5  373057.70  197321.93  52.89
926.7  373592.00  197555.49  52.88
927.9  374514.00  197874.78  52.84
929.0  375821.10  198463.31  52.81
930.2  377951.80  199461.46  52.77
931.4  380304.45  200549.64  52.73
932.5  382921.30  201770.59  52.69
933.7  384291.90  202319.99  52.65
934.9  384938.75  202551.88  52.62
936.0  384709.00  202202.00  52.56
937.2  382685.85  201069.02  52.54
938.3  381102.00  200102.43  52.51
939.5  379684.80  199172.57  52.46
940.7  379899.00  199109.32  52.41
941.8  381549.38  199758.96  52.35
943.0  382878.00  200273.47  52.31
944.2  383930.30  200497.52  52.22
945.3  383467.50  200122.93  52.19
946.5  382806.00  199525.56  52.12
947.6  382925.60  199335.99  52.06
948.8  383005.35  198986.50  51.95
949.9  382956.00  198810.00  51.91
951.1  382802.23  198319.23  51.81
952.2  382704.00  197880.00  51.71
953.4  382583.50  197390.83  51.59
954.5  382660.20  197031.34  51.49
955.7  382561.20  196666.20  51.41
956.8  382414.50  196172.26  51.30
958.0  382087.50  195679.43  51.21
959.1  381926.70  195284.37  51.13
960.3  381758.50  194953.09  51.07
961.4  381612.85  194710.01  51.02
962.6  381921.75  194642.75  50.96
963.7  381971.03  194402.54  50.89
964.9  381809.03  194221.63  50.87
966.0  381647.70  194130.39  50.87
967.2  381696.75  194037.05  50.84
968.3  381518.10  193937.72  50.83
969.5  381340.30  193905.23  50.85
970.6  381694.45  193858.22  50.79
971.8  382066.30  193941.85  50.76
972.9  381851.18  193936.33  50.79
974.0  382280.70  194050.18  50.76
975.2  382060.00  193953.93  50.77
976.3  381829.13  194013.24  50.81
977.5  381956.75  194003.78  50.79
978.6  382095.50  194105.66  50.80
979.7  382252.50  194099.33  50.78
980.9  382384.40  194219.84  50.79
982.0  382520.15  194311.19  50.80
983.2  382171.90  194370.47  50.86
984.3  381747.60  194369.66  50.92
985.4  381859.50  194566.51  50.95
986.6  381985.75  194589.90  50.94
987.7  382856.08  195108.45  50.96
988.9  383306.40  195100.20  50.90
990.0  384225.60  195751.30  50.95
993.1  334439.58  168945.39  50.52
996.9  334909.08  169796.73  50.70
1000.7  335911.74  170865.57  50.87
1004.5  336401.83  171664.15  51.03
1008.4  336170.42  172108.27  51.20
1012.2  336289.75  172660.20  51.34
1016.0  336427.80  173194.59  51.48
1019.8  336618.98  173735.10  51.61
1023.7  336618.47  174095.34  51.72
1027.5  336298.60  174285.35  51.82
1031.3  336419.33  174616.18  51.90
1035.1  336280.41  174758.88  51.97
1038.9  336239.57  174917.53  52.02
1042.7  336128.42  175022.22  52.07
1046.5  335980.83  175092.36  52.11
1050.3  336004.87  175215.60  52.15
1054.2  335755.00  175171.63  52.17
1058.0  335341.65  174984.37  52.18
1061.8  335216.86  174988.53  52.20
1065.6  334991.80  174871.23  52.20
1069.4  334937.53  174820.46  52.19
1073.2  334516.34  174562.60  52.18
1077.0  334088.18  174269.39  52.16
1080.8  333711.46  173948.22  52.13
1084.6  332866.80  173374.60  52.09
1088.4  332365.44  172995.89  52.05
1092.2  331636.50  172441.29  52.00
1096.0  331127.39  171975.58  51.94
1099.8  330694.22  171522.51  51.87
1103.6  330064.35  170951.70  51.79
1107.4  329213.83  170220.05  51.71
1111.2  328992.90  169820.79  51.62
1114.9  328396.83  169164.75  51.51
1118.7  327870.68  168454.69  51.38
1122.5  327262.87  167573.16  51.20
1126.3  326244.68  166365.14  50.99
1130.1  325857.91  165198.64  50.70
1133.9  324423.40  163186.65  50.30
1137.7  323126.10  160935.24  49.81
1141.4  321477.87  158216.57  49.22
1145.2  320821.84  155805.56  48.56
1149.0  319837.29  153355.94  47.95
1152.8  318364.40  150982.50  47.42
1156.6  316861.42  149100.60  47.06
1160.3  315287.00  147663.36  46.83
1164.1  313094.67  146313.95  46.73
1167.9  311458.33  145454.47  46.70
1171.7  310314.38  144924.19  46.70
1175.4  309249.70  144466.50  46.72
1179.2  308319.85  144038.65  46.72
1183.0  308045.33  143871.36  46.70
1186.7  307639.27  143596.75  46.68
1190.5  306747.73  143114.93  46.66
1194.3  305675.37  142592.79  46.65
1198.0  304576.80  142114.97  46.66
1201.8  303231.55  141550.32  46.68
1205.6  302147.67  141197.71  46.73
1209.3  301298.08  141026.19  46.81
1213.1  300437.18  140862.73  46.89
1216.8  299509.10  140726.64  46.99
1220.6  298472.53  140536.00  47.09
1224.3  297333.75  140270.61  47.18
1228.1  296199.20  140041.67  47.28
1231.9  295039.70  139739.99  47.36
1235.6  293726.48  139327.86  47.43
1239.4  292524.25  138965.12  47.51
1243.1  291397.57  138583.84  47.56
1246.9  290302.62  138176.11  47.60
1250.6  289444.00  137839.44  47.62
1254.3  288462.63  137433.92  47.64
1258.1  287556.85  137017.40  47.65
1261.8  286418.40  136460.83  47.64
1265.6  285174.60  135804.80  47.62
1269.3  283933.80  135108.65  47.58
1273.1  283902.85  134922.54  47.52
1276.8  284080.80  134804.49  47.45
1280.6  283879.83  134470.87  47.37
1284.3  282588.40  133570.98  47.27
1288.0  281321.91  132591.17  47.13
1291.8  280233.72  131616.67  46.97
1295.5  279042.13  130534.80  46.78
1299.2  277918.58  129396.11  46.56
1302.9  276564.06  128046.31  46.30
1306.7  275141.53  126569.45  46.00
1310.4  273759.86  124949.48  45.64
1314.1  272500.07  123300.65  45.25
1317.9  271392.71  121551.52  44.79
1321.6  270107.83  119592.06  44.28
1325.3  268629.90  117388.02  43.70
1329.0  267443.05  115227.60  43.08
1332.8  265588.40  112648.80  42.41
1336.5  263975.93  110155.54  41.73
1340.2  263627.00  108212.00  41.05
1343.9  263256.25  106254.11  40.36
1347.6  262696.35  104270.95  39.69
1351.4  262973.00  102668.68  39.04
1355.1  263429.47  101171.33  38.41
1358.8  263728.00  99538.29  37.74
1362.5  263377.53  97504.06  37.02
1366.2  261823.80  94730.13  36.18
1369.9  259984.88  91491.03  35.19
1373.6  258102.66  87715.93  33.98
1377.3  256451.10  83331.90  32.49
1381.0  255465.67  78285.93  30.64
1384.8  253678.75  72104.73  28.42
1388.4  251481.77  65407.23  26.01
1392.2  249774.17  58599.63  23.46
1395.9  248355.45  51975.95  20.93
1399.6  246856.71  45871.01  18.58
1403.3  245751.21  40663.26  16.55
1407.0  244700.20  36374.66  14.86
1410.7  243573.83  33014.91  13.55
1414.3  242413.68  30501.43  12.58
1418.1  241317.79  28727.58  11.90
1421.7  240480.63  27519.67  11.44
1425.4  239603.65  26745.44  11.16
1429.1  238804.50  26297.84  11.01
1432.8  237488.64  26031.28  10.96
1436.5  236762.81  25994.57  10.98
1440.2  236006.23  26075.28  11.05
1443.9  234853.67  26178.70  11.15
1447.6  233402.40  26304.30  11.27
1451.2  232419.37  26496.57  11.40
1454.9  231264.75  26698.63  11.54
1458.6  230253.56  27003.31  11.73
1462.3  229213.23  27414.36  11.96
1466.0  228008.05  27946.74  12.26
1469.7  226498.68  28610.50  12.63
1473.3  225570.50  29484.43  13.07
1477.0  223862.67  30370.82  13.57
1480.7  222437.01  31358.68  14.10
1484.4  220741.72  32325.32  14.64
1488.0  219354.67  33364.57  15.21
1491.7  217911.95  34388.39  15.78
1495.4  216365.95  35398.59  16.36
1499.0  214933.50  36387.75  16.93
1502.7  213770.33  37420.52  17.51
1506.4  212488.98  38395.21  18.07
1510.0  211218.73  39341.06  18.63
1513.7  209901.71  40232.07  19.17
1517.4  208693.33  41114.14  19.70
1521.0  207608.53  41989.86  20.23
1524.7  206532.08  42796.24  20.72
1528.3  205377.50  43561.50  21.21
1532.0  204268.17  44282.98  21.68
1535.7  203033.03  44924.97  22.13
1539.3  201911.99  45560.51  22.56
1543.0  201033.59  46212.49  22.99
1546.6  200405.83  46891.47  23.40
1550.3  199524.05  47463.91  23.79
1553.9  198557.63  47981.97  24.17
1557.6  197435.33  48425.30  24.53
1561.2  196304.40  48821.02  24.87
1564.9  195139.19  49180.26  25.20
1568.5  193950.17  49506.98  25.53
1572.2  192920.55  49842.38  25.84
1575.8  191954.00  50172.00  26.14
1579.5  191046.90  50489.19  26.43
1583.1  190140.83  50788.27  26.71
1586.8  189056.00  51006.00  26.98
1590.4  188102.80  51250.74  27.25
1594.0  186946.83  51412.36  27.50
1597.7  185969.13  51613.08  27.75
1601.3  184827.83  51746.86  28.00
1604.9  183684.88  51853.31  28.23
1608.6  182482.50  51910.13  28.45
1612.2  181525.58  52004.70  28.65
1615.8  180459.18  52040.91  28.84
1619.5  179441.50  52062.25  29.01
1623.1  178242.60  52006.88  29.18
1626.7  177133.13  51933.10  29.32
1630.3  176059.75  51847.54  29.45
1634.0  174972.00  51720.00  29.56
1637.6  173948.40  51568.40  29.65
1641.2  172899.30  51329.67  29.69
1644.8  171712.53  50977.44  29.69
1648.5  170692.36  50630.36  29.66
1652.1  169778.10  50252.40  29.60
1655.7  168923.20  49893.73  29.54
1659.3  168158.53  49604.73  29.50
1662.9  166897.50  49242.32  29.50
1666.6  165649.07  48933.92  29.54
1670.2  164440.33  48642.84  29.58
1673.8  163198.80  48319.22  29.61
1677.4  162235.35  48051.00  29.62
1681.0  161524.70  47813.78  29.60
1684.6  161169.67  47633.86  29.56
1688.2  160531.75  47289.30  29.46
1691.8  159913.97  46955.39  29.36
1695.4  159537.00  46598.32  29.21
1699.0  159256.77  46231.90  29.03
1702.6  159014.00  45850.29  28.83
1706.2  158506.08  45401.69  28.64
1709.8  157688.56  44893.98  28.47
1713.4  157068.80  44438.55  28.29
1717.0  156305.75  43940.25  28.11
1720.6  155610.30  43435.33  27.91
1724.2  154981.20  42939.23  27.71
1727.8  154322.70  42424.88  27.49
1731.4  153896.88  41949.19  27.26
1735.0  153688.33  41525.20  27.02
1738.6  153464.85  41059.48  26.75
1742.2  152958.69  40490.04  26.47
1745.8  152377.36  39899.08  26.18
1749.4  151545.90  39232.29  25.89
1753.0  150191.80  38425.03  25.58
1756.6  148693.71  37620.07  25.30
1760.1  147499.76  36910.94  25.02
1763.7  145958.00  36129.72  24.75
1767.3  144678.45  35460.73  24.51
1770.9  143574.49  34851.69  24.27
1774.5  142291.28  34236.18  24.06
1778.0  141252.12  33712.48  23.87
1781.6  140258.70  33243.43  23.70
1785.2  139221.65  32792.07  23.55
1788.8  138165.00  32392.74  23.44
1792.3  137069.53  32009.59  23.35
1795.9  136651.99  31812.14  23.28
1799.5  136221.67  31637.72  23.23
1803.1  135708.77  31451.18  23.18
1806.6  136154.32  31488.93  23.13
1810.2  137123.93  31646.80  23.08
1813.8  137925.45  31759.27  23.03
1817.3  137926.20  31694.83  22.98
1820.9  137200.33  31457.52  22.93
1824.5  136149.98  31130.64  22.86
1828.0  135375.63  30834.77  22.78
1831.6  134726.10  30534.32  22.66
1835.2  134172.50  30193.22  22.50
1838.7  133866.53  29819.29  22.28
1842.3  133605.00  29365.72  21.98
1845.8  132884.58  28698.09  21.60
1849.4  132419.58  27944.53  21.10
1852.9  131841.50  26994.99  20.48
1856.5  131028.50  25791.28  19.68
1860.0  130300.31  24386.87  18.72
1863.6  130087.91  22869.22  17.58
1867.1  130014.15  21145.95  16.26
1870.7  130103.05  19143.38  14.71
1874.2  129463.65  16790.82  12.97
1877.8  128251.00  14384.22  11.22
1881.3  126817.63  12061.02  9.51
1884.9  125875.57  10042.47  7.98
1888.4  124909.89  8317.95  6.66
1891.9  123947.00  6974.00  5.63
1895.5  122966.35  6002.99  4.88
1899.0  122484.50  5394.32  4.40
1901.3  150441.38  3902.51  2.59
1904.1  150325.31  3567.66  2.37
1906.8  149615.10  3299.40  2.21
1909.6  148037.66  3121.79  2.11
1912.4  146535.20  2991.54  2.04
1915.1  145451.63  2907.51  2.00
1917.9  144272.75  2832.07  1.96
1920.6  143306.10  2810.32  1.96
1923.3  142365.65  2776.99  1.95
1926.1  141174.10  2749.47  1.95
1928.8  140129.00  2744.50  1.96
1931.6  139344.54  2746.07  1.97
1934.3  138584.10  2760.58  1.99
1937.0  137817.68  2784.62  2.02
1939.8  136949.75  2797.38  2.04
1942.5  135828.00  2829.75  2.08
1945.2  134350.43  2860.69  2.13
1947.9  133124.78  2893.37  2.17
1950.7  132135.68  2944.65  2.23
1953.4  130586.70  2986.77  2.29
1956.1  129363.81  3047.47  2.36
1958.8  128283.51  3105.95  2.42
1961.5  126994.50  3170.55  2.50
1964.2  125661.90  3252.12  2.59
1966.9  124251.98  3319.09  2.67
1969.6  123153.75  3405.38  2.77
1972.3  121932.23  3501.04  2.87
1975.0  120988.35  3610.80  2.98
1977.7  120016.88  3719.54  3.10
1980.4  119014.08  3833.23  3.22
1983.1  118041.10  3951.92  3.35
1985.8  117215.10  4084.66  3.48
1988.4  116304.50  4212.00  3.62
1991.1  115481.63  4351.21  3.77
1993.8  114696.45  4497.90  3.92
1996.5  114121.29  4653.00  4.08
1999.1  113500.89  4801.64  4.23
2001.8  112885.15  4963.09  4.40
2004.5  112279.16  5118.64  4.56
2007.1  111623.93  5264.61  4.72
2009.8  110949.13  5419.58  4.88
2012.4  110437.66  5573.91  5.05
2015.1  109958.45  5730.38  5.21
2017.8  109252.68  5863.12  5.37
2020.4  108802.65  6006.90  5.52
2023.1  108488.63  6157.73  5.68
2025.7  108238.00  6308.25  5.83
2028.3  107939.00  6444.75  5.97
2031.0  107606.04  6571.12  6.11
2033.6  107362.35  6701.18  6.24
2036.2  107114.40  6815.37  6.36
2038.9  106598.93  6916.51  6.49
2041.5  106293.21  7024.55  6.61
2044.1  105802.88  7105.73  6.72
2046.8  105470.10  7193.82  6.82
2049.4  104902.43  7272.12  6.93
2052.0  104610.05  7355.65  7.03
2054.6  104251.88  7425.47  7.12
2057.2  103771.65  7499.75  7.23
2059.8  103509.65  7584.90  7.33
2062.4  102717.20  7622.73  7.42
2065.0  102245.50  7679.88  7.51
2067.6  101462.00  7717.52  7.61
2070.2  100932.46  7766.55  7.69
2072.8  100357.16  7815.58  7.79
2075.4  99966.56  7875.00  7.88
2078.0  99385.61  7905.00  7.95
2080.6  98887.80  7953.00  8.04
2083.2  98289.68  7982.06  8.12
2085.8  97844.14  8030.16  8.21
2088.4  97248.38  8065.94  8.29
2090.9  96542.50  8080.48  8.37
2093.5  95751.73  8080.68  8.44
2096.1  95077.39  8089.45  8.51
2098.7  94379.11  8102.63  8.59
2101.2  93514.35  8099.08  8.66
2103.8  92918.30  8115.45  8.73
2106.4  92328.80  8125.28  8.80
2108.9  91739.30  8138.38  8.87
2111.5  90979.50  8125.28  8.93
2114.0  90422.75  8131.83  8.99
2116.6  89958.75  8144.07  9.05
2119.1  89472.60  8153.00  9.11
2121.7  89040.00  8167.04  9.17
2124.2  88677.03  8185.88  9.23
2126.8  87969.48  8168.50  9.29
2129.3  87615.00  8190.60  9.35
2131.9  87093.60  8197.20  9.41
2134.4  86705.66  8213.91  9.47
2136.9  86365.99  8228.19  9.53
2139.4  85904.70  8239.35  9.59
2142.0  85499.05  8262.63  9.66
2144.5  85239.75  8307.04  9.75
2147.0  85036.40  8351.55  9.82
2149.5  84600.90  8378.35  9.90
2152.1  84454.56  8431.99  9.98
2154.6  84374.40  8479.60  10.05
2157.1  83889.13  8484.97  10.11
2159.6  83521.25  8512.22  10.19
2162.1  83353.73  8544.91  10.25
2164.6  83138.45  8565.93  10.30
2167.1  82870.40  8595.60  10.37
2169.6  82569.81  8612.98  10.43
2172.1  82144.35  8607.78  10.48
2174.6  81857.10  8628.43  10.54
2177.1  81475.18  8636.99  10.60
2179.5  81103.91  8640.05  10.65
2182.0  80664.79  8639.40  10.71
2184.5  80185.28  8635.01  10.77
2187.0  79636.20  8624.43  10.83
2189.5  79019.88  8606.13  10.89
2191.9  78325.13  8582.07  10.96
2194.4  77777.59  8569.94  11.02
2196.9  77112.00  8535.60  11.07
2199.3  76531.00  8504.25  11.11
2201.8  75737.50  8460.70  11.17
2204.3  75318.38  8448.47  11.22
2206.7  74754.11  8414.36  11.26
2209.2  74354.79  8405.78  11.30
2211.6  73811.93  8367.98  11.34
2214.1  73535.48  8354.27  11.36
2216.5  73017.45  8321.65  11.40
2219.0  72719.45  8306.75  11.42
2221.4  72381.75  8281.66  11.44
2223.9  71942.94  8233.32  11.44
2226.3  71489.25  8173.82  11.43
2228.7  71004.34  8098.16  11.41
2231.1  70455.83  8015.29  11.38
2233.6  69940.60  7919.35  11.32
2236.0  69466.25  7835.41  11.28
2238.4  69027.44  7735.01  11.21
2240.9  68607.05  7639.98  11.14
2243.3  68137.70  7528.23  11.05
2245.7  67647.56  7410.26  10.95
2248.1  67222.68  7291.87  10.85
2250.5  66758.55  7176.77  10.75
2252.9  66191.13  7026.51  10.62
2255.3  65684.93  6891.62  10.49
2257.7  65272.50  6768.75  10.37
2260.1  64842.93  6637.05  10.24
2262.5  64312.50  6498.75  10.10
2264.9  63845.91  6375.61  9.99
2267.3  63285.00  6243.75  9.87
2269.7  62841.28  6125.35  9.75
2272.1  62353.75  5994.98  9.61
2274.5  61846.75  5873.95  9.50
2276.8  61429.71  5765.85  9.39
2279.2  60918.08  5649.36  9.27
2281.6  60528.35  5545.48  9.16
2284.0  60100.05  5438.85  9.05
2286.3  59713.20  5339.00  8.94
2288.7  59358.65  5250.79  8.85
2291.1  58859.58  5142.25  8.74
2293.4  58450.70  5047.35  8.64
2295.8  57906.60  4936.28  8.52
2298.2  57364.88  4828.28  8.42
2300.5  56790.45  4711.84  8.30
2302.9  56125.50  4603.50  8.20
2305.2  55480.95  4495.95  8.10
2307.6  54889.83  4398.77  8.01
2309.9  54203.50  4309.00  7.95
2312.2  53653.25  4216.00  7.86
2314.6  53118.79  4133.53  7.78
2316.9  52482.26  4036.50  7.69
2319.2  51952.55  3949.70  7.60
2321.6  51389.71  3862.60  7.52
2323.9  50898.44  3796.88  7.46
2326.2  50408.65  3720.79  7.38
2328.6  49940.55  3644.44  7.30
2330.9  49486.50  3571.32  7.22
2333.2  49069.63  3492.50  7.12
2335.5  48687.68  3418.66  7.02
2337.8  48266.20  3348.23  6.94
2340.1  47748.60  3283.53  6.88
2342.4  47360.63  3209.38  6.78
2344.8  46996.25  3148.10  6.70
2347.1  46487.70  3080.27  6.63
2349.4  45980.81  3007.55  6.54
2351.6  45476.80  2937.32  6.46
2353.9  45049.10  2879.71  6.39
2356.2  44588.95  2822.25  6.33
2358.5  44058.00  2755.20  6.25
2360.8  43528.80  2683.80  6.17
2363.1  43130.89  2624.71  6.09
2365.4  42722.48  2567.93  6.01
2367.7  42288.30  2513.70  5.94
2369.9  41803.95  2451.74  5.86
2372.2  41245.60  2377.90  5.77
2374.5  40731.08  2308.56  5.67
2376.7  40173.34  2247.83  5.60
2379.0  39611.50  2185.62  5.52
2381.3  39068.75  2126.25  5.44
2383.5  38623.20  2063.60  5.34
2385.8  38088.70  2003.28  5.26
2388.0  37612.50  1947.00  5.18
2390.3  37139.70  1882.35  5.07
2392.5  36711.00  1827.00  4.98
2394.8  36300.00  1778.71  4.90
2397.0  35872.20  1733.55  4.83
2399.3  35444.36  1681.31  4.74
2401.5  35031.94  1635.38  4.67
2403.8  34566.73  1584.23  4.58
2406.0  34111.69  1536.56  4.50
2408.2  33734.80  1496.00  4.43
2410.4  33358.59  1446.51  4.34
2412.7  32996.93  1404.33  4.26
2414.9  32665.46  1375.69  4.21
2417.1  32289.75  1328.74  4.12
2419.3  31920.00  1291.20  4.05
2421.6  31590.94  1249.69  3.96
2423.8  31236.70  1205.91  3.86
2426.0  30897.09  1168.50  3.78
2428.2  30576.00  1146.60  3.75
2430.4  30291.10  1116.57  3.69
2432.6  30050.00  1080.00  3.59
2434.8  29784.28  1042.61  3.50
2437.0  29459.30  1012.54  3.44
2439.2  29125.04  983.34  3.38
2441.4  28834.50  961.16  3.33
2443.6  28631.59  948.17  3.31
2445.7  28384.48  911.10  3.21
2447.9  28118.63  897.63  3.19
2450.1  27861.15  874.62  3.14
2452.3  27538.09  847.00  3.08
2454.5  27221.36  819.09  3.01
2456.6  26857.00  797.15  2.97
2458.8  26533.65  766.84  2.89
2461.0  26252.75  746.07  2.84
2463.1  25971.75  736.60  2.84
2465.3  25725.40  707.89  2.75
2467.5  25510.13  696.94  2.73
2469.6  25294.94  688.04  2.72
2471.8  25014.01  670.12  2.68
2473.9  24729.13  644.82  2.61
2476.1  24399.38  625.63  2.56
2478.2  24083.90  616.96  2.56
2480.4  23819.36  604.41  2.54
2482.5  23526.93  592.24  2.52
2484.6  23199.69  596.07  2.57
2486.8  22961.25  571.09  2.49
2488.9  22692.49  550.45  2.43
2491.1  22360.10  541.45  2.42
2493.2  22010.05  532.89  2.42
2495.3  21657.03  523.09  2.42
2497.4  21360.68  519.23  2.43
2499.5  21046.43  503.71  2.39
2501.7  20927.85  493.01  2.36
2503.8  20837.33  488.97  2.35
2505.9  20781.88  480.47  2.31
2508.0  20770.39  492.66  2.37
2510.1  20762.55  489.56  2.36
2512.2  20850.19  502.33  2.41
2514.3  20986.08  491.20  2.34
2516.4  21157.80  502.35  2.37
