/*** Spectra Vista SIG Data ***/
name= 28_20220721_TITO_18_avg.sig
comm= Averaged Ref/Tar of files: HR.072122.0006_moc.sig,HR.072122.0007_moc.sig,HR.072122.0008_moc.sig
data=
337.3  3374.50  310.98  9.22
338.8  3511.30  307.84  8.77
340.3  3701.15  306.09  8.27
341.8  3886.63  298.74  7.69
343.2  4129.20  307.84  7.46
344.7  4265.00  301.39  7.07
346.2  4452.65  294.12  6.61
347.7  4679.68  288.38  6.16
349.2  4914.00  277.20  5.64
350.6  5141.50  279.11  5.43
352.1  5430.20  276.27  5.09
353.6  5690.80  282.23  4.96
355.1  5960.48  291.85  4.90
356.6  6292.80  305.90  4.86
358.0  6571.40  314.75  4.79
359.5  6859.80  317.24  4.62
361.0  7182.00  311.22  4.33
362.5  7552.95  327.88  4.34
364.0  7914.30  340.28  4.30
365.4  8289.50  340.95  4.11
366.9  8646.63  346.23  4.00
368.4  8973.48  360.03  4.01
369.9  9350.65  378.35  4.05
371.3  9745.50  388.04  3.98
372.8  10142.10  403.56  3.98
374.3  10561.88  412.08  3.90
375.8  10995.60  420.42  3.82
377.2  11405.60  430.40  3.77
378.7  11782.20  441.16  3.74
380.2  12158.80  444.75  3.66
381.7  12701.75  457.62  3.60
383.1  13178.55  463.54  3.52
384.6  13676.33  478.36  3.50
386.1  14107.05  493.66  3.50
387.6  14579.95  499.47  3.43
389.0  15034.80  510.99  3.40
390.5  15505.20  520.38  3.36
392.0  16055.15  536.05  3.34
393.4  16605.80  546.52  3.29
394.9  17173.80  567.24  3.30
396.4  17698.50  576.15  3.26
397.9  18245.00  597.92  3.28
399.3  18765.83  597.67  3.18
400.8  19341.80  614.82  3.18
402.2  19959.15  635.03  3.18
403.7  20560.05  648.42  3.15
405.2  21141.78  666.06  3.15
406.6  21715.20  683.63  3.15
408.1  22328.80  693.07  3.10
409.6  22937.75  702.40  3.06
411.0  23570.40  725.90  3.08
412.5  24219.48  744.15  3.07
414.0  24857.50  760.67  3.06
415.4  25559.25  784.40  3.07
416.9  26233.28  804.41  3.07
418.4  26910.68  819.21  3.04
419.8  27627.60  842.05  3.05
421.3  28323.93  865.11  3.05
422.7  29110.20  888.56  3.05
424.2  29885.63  906.75  3.03
425.7  30644.00  932.36  3.04
427.1  31365.15  953.72  3.04
428.6  32147.00  981.67  3.05
430.0  32884.23  1001.55  3.05
431.5  33730.50  1030.82  3.06
432.9  34603.30  1056.75  3.05
434.4  35483.03  1081.06  3.05
435.9  36288.00  1110.67  3.06
437.3  37125.00  1133.00  3.05
438.8  37942.13  1160.21  3.06
440.2  38781.05  1189.39  3.07
441.7  39731.00  1218.51  3.07
443.1  40637.75  1245.50  3.06
444.6  41579.40  1283.80  3.09
446.0  42493.13  1309.61  3.08
447.5  43440.93  1342.48  3.09
448.9  44350.20  1374.28  3.10
450.4  45325.00  1408.96  3.11
451.8  46176.00  1440.40  3.12
453.3  47070.00  1473.12  3.13
454.7  48062.40  1503.71  3.13
456.2  48919.28  1530.57  3.13
457.6  49887.45  1559.37  3.13
459.1  50834.88  1595.45  3.14
460.5  51747.88  1628.18  3.15
462.0  52774.55  1666.28  3.16
463.4  53786.20  1696.97  3.16
464.8  54764.63  1726.05  3.15
466.3  55749.38  1757.80  3.15
467.7  56722.25  1788.46  3.15
469.2  57763.80  1822.24  3.15
470.6  58714.95  1858.35  3.17
472.0  59734.30  1891.68  3.17
473.5  60709.25  1924.77  3.17
474.9  61716.75  1955.10  3.17
476.4  62856.00  1991.04  3.17
477.8  63916.00  2028.07  3.17
479.2  64916.50  2064.80  3.18
480.7  66006.00  2105.63  3.19
482.1  67105.80  2144.38  3.20
483.6  68261.80  2182.91  3.20
485.0  69349.73  2213.71  3.19
486.4  70509.30  2262.04  3.21
487.9  71574.75  2301.00  3.21
489.3  72726.78  2346.18  3.23
490.7  73786.98  2393.30  3.24
492.2  74999.40  2442.16  3.26
493.6  76077.45  2486.59  3.27
495.0  77176.13  2538.90  3.29
496.5  78335.15  2596.50  3.31
497.9  79421.10  2651.28  3.34
499.3  80551.08  2713.90  3.37
500.7  81790.95  2791.31  3.41
502.2  82913.40  2865.49  3.46
503.6  84110.60  2945.31  3.50
505.0  85145.80  3035.48  3.57
506.5  86433.75  3146.09  3.64
507.9  87630.58  3265.45  3.73
509.3  88992.40  3407.95  3.83
510.7  90236.25  3564.60  3.95
512.2  91612.28  3744.20  4.09
513.6  93045.40  3954.86  4.25
515.0  94439.78  4191.63  4.44
516.4  95766.30  4460.40  4.66
517.8  97335.38  4766.72  4.90
519.3  98609.45  5098.90  5.17
520.7  100120.30  5462.64  5.46
522.1  101388.63  5841.55  5.76
523.5  102734.90  6240.17  6.07
524.9  104164.65  6653.22  6.39
526.3  105544.25  7054.46  6.68
527.8  106979.40  7458.66  6.97
529.2  108084.60  7839.39  7.25
530.6  109545.45  8244.21  7.53
532.0  111174.00  8622.13  7.76
533.4  112509.60  8937.78  7.94
534.8  113470.50  9201.07  8.11
536.3  115132.50  9490.96  8.24
537.7  117041.40  9787.68  8.36
539.1  118418.60  10019.40  8.46
540.5  119596.25  10220.01  8.55
541.9  121282.50  10464.05  8.63
543.3  122532.95  10665.98  8.70
544.7  123792.60  10863.44  8.78
546.1  125513.30  11100.61  8.84
547.5  126705.60  11285.12  8.91
549.0  128414.00  11506.00  8.96
550.4  129880.00  11690.33  9.00
551.8  131362.53  11842.73  9.02
553.2  132854.43  11970.83  9.01
554.6  134160.00  12039.04  8.97
556.0  135647.10  12083.28  8.91
557.4  137198.60  12095.39  8.82
558.8  138793.50  12073.62  8.70
560.2  140197.38  12000.42  8.56
561.6  141811.28  11913.69  8.40
563.0  143339.90  11789.26  8.22
564.4  144862.05  11631.73  8.03
565.8  146327.50  11445.25  7.82
567.2  148006.00  11248.80  7.60
568.6  149476.88  11017.10  7.37
570.0  150862.35  10765.74  7.14
571.4  152534.20  10537.28  6.91
572.8  154214.75  10321.03  6.69
574.2  155792.00  10112.85  6.49
575.6  157286.25  9918.00  6.31
577.0  158753.70  9749.64  6.14
578.4  160444.38  9617.18  5.99
579.8  161889.30  9486.00  5.86
581.2  163566.33  9388.10  5.74
582.5  164923.20  9288.24  5.63
583.9  166391.80  9211.87  5.54
585.3  168142.50  9158.40  5.45
586.7  169552.50  9103.73  5.37
588.1  171011.00  9063.03  5.30
589.5  172590.25  9048.67  5.24
590.9  174170.40  9045.39  5.19
592.3  175925.90  9056.08  5.15
593.7  177310.58  9070.23  5.12
595.0  178895.93  9090.36  5.08
596.4  180289.90  9102.99  5.05
597.8  181716.35  9121.12  5.02
599.2  183216.00  9134.40  4.99
600.6  184897.70  9146.28  4.95
602.0  186164.48  9127.21  4.90
603.3  187897.85  9116.44  4.85
604.7  189508.15  9089.32  4.80
606.1  190950.60  9038.08  4.73
607.5  192540.98  8982.55  4.67
608.9  194171.00  8918.94  4.59
610.2  195515.78  8837.64  4.52
611.6  197040.38  8770.72  4.45
613.0  198557.45  8700.83  4.38
614.4  199902.45  8633.00  4.32
615.8  201298.50  8570.25  4.26
617.1  202771.80  8524.04  4.20
618.5  204358.40  8489.28  4.15
619.9  205800.83  8463.47  4.11
621.3  207371.70  8456.07  4.08
622.6  208894.50  8460.70  4.05
624.0  210274.50  8472.78  4.03
625.4  211675.20  8493.76  4.01
626.8  213187.98  8529.43  4.00
628.1  214462.05  8562.47  3.99
629.5  216262.68  8628.25  3.99
630.9  217823.38  8676.03  3.98
632.2  219164.23  8711.57  3.97
633.6  220741.25  8742.88  3.96
635.0  222224.00  8755.95  3.94
636.3  223689.00  8749.19  3.91
637.7  225006.25  8722.25  3.88
639.1  226590.00  8694.00  3.84
640.4  228025.18  8651.32  3.79
641.8  229176.03  8586.90  3.75
643.2  230701.98  8536.64  3.70
644.5  232012.25  8470.43  3.65
645.9  233669.25  8427.96  3.61
647.2  235519.03  8410.80  3.57
648.6  237370.50  8397.00  3.54
650.0  238831.20  8386.56  3.51
651.3  239183.18  8356.99  3.49
652.7  240088.80  8337.95  3.47
654.0  241938.50  8366.13  3.46
655.4  243464.75  8366.02  3.44
656.8  243866.10  8323.33  3.41
658.1  245205.40  8314.25  3.39
659.5  247467.15  8331.68  3.37
660.8  249120.00  8346.00  3.35
662.2  249984.00  8332.80  3.33
663.5  251513.25  8349.07  3.32
664.9  252824.00  8368.53  3.31
666.2  253546.20  8376.80  3.30
667.6  255219.40  8444.80  3.31
668.9  256311.98  8505.44  3.32
670.3  257446.75  8577.08  3.33
671.6  258951.00  8673.00  3.35
673.0  260057.25  8785.10  3.38
674.3  261266.20  8913.67  3.41
675.7  262537.98  9044.86  3.45
677.0  263639.25  9180.02  3.48
678.4  264982.78  9338.60  3.52
679.7  266039.98  9505.99  3.57
681.1  267284.10  9695.34  3.63
682.4  268404.50  9889.01  3.68
683.8  269642.10  10098.23  3.75
685.1  270588.75  10319.10  3.81
686.4  271905.60  10579.04  3.89
687.8  273185.50  10878.77  3.98
689.1  274186.75  11240.70  4.10
690.5  275486.10  11735.24  4.26
691.8  276262.70  12376.23  4.48
693.1  277530.45  13281.96  4.79
694.5  278687.50  14475.07  5.19
695.8  279893.25  16006.90  5.72
697.1  281076.25  17933.07  6.38
698.5  282115.60  20272.61  7.19
699.8  283165.40  23058.96  8.14
701.1  284253.80  26278.81  9.24
702.5  285009.45  29859.21  10.48
703.8  285952.50  33807.00  11.82
705.1  287107.28  38092.60  13.27
706.5  288122.88  42613.93  14.79
707.8  289074.90  47358.16  16.38
709.1  289934.78  52255.38  18.02
710.5  291051.03  57348.46  19.70
711.8  291907.00  62511.36  21.41
713.1  292888.20  67806.87  23.15
714.4  293780.20  73158.87  24.90
715.8  294605.30  78543.57  26.66
717.1  295869.30  84083.68  28.42
718.4  296777.60  89522.35  30.16
719.7  297883.65  94982.35  31.89
721.0  298395.00  100212.00  33.58
722.4  299148.30  105440.79  35.25
723.7  300089.85  110628.64  36.87
725.0  301128.98  115733.88  38.43
726.3  302043.23  120655.99  39.95
727.6  302591.03  125263.60  41.40
729.0  303481.15  129850.26  42.79
730.3  304229.33  134165.14  44.10
731.6  305140.15  138347.49  45.34
732.9  305903.33  142278.52  46.51
734.2  306703.38  146028.30  47.61
735.5  307707.00  149669.19  48.64
736.8  308455.50  152997.72  49.60
738.1  309289.90  156153.04  50.49
739.5  310237.78  159168.20  51.31
740.8  310881.45  161874.39  52.07
742.1  311644.73  164476.27  52.78
743.4  312400.00  166910.00  53.43
744.7  313378.40  169306.91  54.03
746.0  314213.25  171470.78  54.57
747.3  314748.78  173311.35  55.06
748.6  315437.50  175103.43  55.51
749.9  316186.00  176786.13  55.91
751.2  316938.00  178346.49  56.27
752.5  317853.25  179898.05  56.60
753.8  318506.13  181183.01  56.89
755.1  319202.00  182402.13  57.14
756.4  319804.20  183459.69  57.37
757.7  320722.50  184638.81  57.57
759.0  322488.83  186214.98  57.74
760.3  323637.60  187390.72  57.90
761.6  325185.00  188725.23  58.04
762.9  325734.75  189425.67  58.15
764.2  326135.60  189989.32  58.25
765.5  326434.98  190461.39  58.35
766.8  326862.40  190976.64  58.43
768.1  327375.20  191515.04  58.50
769.3  327984.30  192056.90  58.56
770.6  328608.15  192620.22  58.62
771.9  329365.75  193212.88  58.66
773.2  329752.40  193581.97  58.71
774.5  330387.20  194060.53  58.74
775.8  331082.60  194579.79  58.77
777.1  331668.70  195025.16  58.80
778.4  332002.28  195315.30  58.83
779.6  332801.10  195852.08  58.85
780.9  333270.00  196208.00  58.87
782.2  333718.00  196568.53  58.90
783.5  334066.50  196834.80  58.92
784.8  334605.38  197218.35  58.94
786.0  335018.25  197520.07  58.96
787.3  335397.60  197809.88  58.98
788.6  335849.23  198121.23  58.99
789.9  336329.00  198446.45  59.00
791.2  336988.38  198889.92  59.02
792.4  337664.00  199349.26  59.04
793.7  338141.60  199674.11  59.05
795.0  338757.38  200090.66  59.07
796.2  339443.55  200517.43  59.07
797.5  340200.83  200983.67  59.08
798.8  340872.33  201430.64  59.09
800.0  341552.45  201872.93  59.10
801.3  342047.50  202188.88  59.11
802.6  342691.20  202587.81  59.12
803.8  343311.13  203010.20  59.13
805.1  343817.25  203345.57  59.14
806.4  344309.70  203647.04  59.15
807.7  344812.95  204025.23  59.17
808.9  345408.60  204409.60  59.18
810.2  345943.85  204747.71  59.19
811.4  346464.00  205082.09  59.19
812.7  347059.38  205475.83  59.20
814.0  347923.25  206007.87  59.21
815.2  348570.75  206417.57  59.22
816.5  349022.40  206719.11  59.23
817.7  349484.60  207034.06  59.24
819.0  349989.75  207389.75  59.26
820.2  350152.00  207527.47  59.27
821.5  350859.70  207985.65  59.28
822.7  351198.18  208234.82  59.29
824.0  351548.10  208477.80  59.30
825.2  352013.85  208811.25  59.32
826.5  352340.58  209031.14  59.33
827.7  352887.70  209376.19  59.33
829.0  353256.25  209640.94  59.35
830.2  353567.50  209859.21  59.35
831.5  354059.00  210188.68  59.37
832.7  354387.08  210415.31  59.37
834.0  354730.05  210651.79  59.38
835.2  355121.53  210905.38  59.39
836.4  355364.35  211130.85  59.41
837.7  355714.60  211423.36  59.44
838.9  356170.03  211715.64  59.44
840.1  356543.10  212013.54  59.46
841.4  356990.60  212320.45  59.48
842.6  357319.60  212588.40  59.50
843.8  357753.00  212850.83  59.50
845.1  358177.25  213185.20  59.52
846.3  358556.60  213475.20  59.54
847.5  359005.50  213759.00  59.54
848.8  359428.80  214050.48  59.55
850.0  359798.95  214288.06  59.56
851.2  360332.55  214655.58  59.57
852.5  360658.70  214959.19  59.60
853.7  361093.50  215290.20  59.62
854.9  361567.00  215574.13  59.62
856.1  362065.60  215900.36  59.63
857.4  362321.15  216045.23  59.63
858.6  362815.25  216348.19  59.63
859.8  363178.13  216644.25  59.65
861.0  363565.80  216974.16  59.68
862.2  364046.15  217281.01  59.69
863.5  364511.88  217533.98  59.68
864.7  365032.80  217867.76  59.68
865.9  365458.60  218125.23  59.69
867.1  365781.95  218337.15  59.69
868.3  366241.05  218621.88  59.69
869.5  366675.55  218961.36  59.72
870.8  367200.00  219310.20  59.73
872.0  367757.70  219633.93  59.72
873.2  368242.80  219924.52  59.72
874.4  368734.28  220192.83  59.72
875.6  369118.93  220413.01  59.71
876.8  369538.30  220733.67  59.73
878.0  369956.15  221053.77  59.75
879.2  370519.95  221380.78  59.75
880.4  371044.13  221717.75  59.76
881.6  371537.98  222003.74  59.75
882.8  372017.60  222240.43  59.74
884.0  372618.80  222636.27  59.75
885.2  373163.50  222933.40  59.74
886.5  373703.10  223321.51  59.76
887.7  374233.93  223634.10  59.76
888.8  374957.70  224025.36  59.75
890.0  375531.90  224333.01  59.74
891.2  376111.80  224705.09  59.74
892.4  376679.10  225069.88  59.75
893.6  377306.60  225420.46  59.74
894.8  378292.50  225971.93  59.73
896.0  379234.25  226501.73  59.73
897.2  379928.25  226996.47  59.75
898.4  380658.30  227419.72  59.74
899.6  381221.25  227777.10  59.75
900.8  381743.93  228027.25  59.73
902.0  382025.40  228174.26  59.73
903.2  382333.58  228380.01  59.73
904.3  382707.60  228626.32  59.74
905.5  383276.48  228974.81  59.74
906.7  383970.50  229330.53  59.73
907.9  384601.00  229670.51  59.72
909.1  384890.40  229875.48  59.72
910.2  385118.10  230012.93  59.73
911.4  385438.95  230192.04  59.72
912.6  385799.70  230296.73  59.69
913.8  386063.93  230447.18  59.69
915.0  386470.35  230707.68  59.70
916.2  386714.25  230837.10  59.69
917.3  386838.23  230895.27  59.69
918.5  387047.50  231057.60  59.70
919.7  387414.75  231194.74  59.68
920.8  387501.83  231232.92  59.67
922.0  387675.75  231302.87  59.66
923.2  387933.00  231358.40  59.64
924.4  388280.25  231529.05  59.63
925.5  388490.70  231663.36  59.63
926.7  389253.25  231957.35  59.59
927.9  389986.20  232381.84  59.59
929.0  391566.15  233144.46  59.54
930.2  393712.30  234356.13  59.52
931.4  396086.63  235680.48  59.50
932.5  398732.85  237204.56  59.49
933.7  400065.08  237946.58  59.48
934.9  400640.63  238301.58  59.48
936.0  400465.00  237959.37  59.42
937.2  398569.05  236681.74  59.38
938.3  396981.25  235636.93  59.36
939.5  395589.60  234759.36  59.34
940.7  395885.70  234769.56  59.30
941.8  397513.05  235607.47  59.27
943.0  398831.25  236227.60  59.23
944.2  399820.85  236616.99  59.18
945.3  399399.00  236230.80  59.15
946.5  398756.25  235613.34  59.09
947.6  398944.40  235628.92  59.06
948.8  399109.43  235417.00  58.99
949.9  399142.80  235300.80  58.95
951.1  399044.75  234881.62  58.86
952.2  398820.00  234464.00  58.79
953.4  398541.75  234026.70  58.72
954.5  398665.80  233794.08  58.64
955.7  398626.20  233449.44  58.56
956.8  398539.10  233153.00  58.50
958.0  398257.00  232722.67  58.44
959.1  398178.90  232376.36  58.36
960.3  397856.75  232060.11  58.33
961.4  397796.80  231891.77  58.29
962.6  397985.00  231886.20  58.27
963.7  397917.15  231717.64  58.23
964.9  397874.63  231578.93  58.20
966.0  397849.73  231491.79  58.19
967.2  397809.90  231501.06  58.19
968.3  397527.75  231371.10  58.20
969.5  397555.65  231264.44  58.17
970.6  397574.33  231287.97  58.17
971.8  397636.40  231475.49  58.21
972.9  397774.65  231421.17  58.18
974.0  397598.00  231562.81  58.24
975.2  397751.75  231419.20  58.18
976.3  397604.23  231272.53  58.17
977.5  397083.75  231291.83  58.25
978.6  396899.20  231364.49  58.29
979.7  397117.88  231560.07  58.31
980.9  396814.00  231474.83  58.33
982.0  396918.65  231463.89  58.32
983.2  396477.80  231346.84  58.35
984.3  396430.20  231223.76  58.33
985.4  396323.88  231507.14  58.41
986.6  396110.63  231484.18  58.44
987.7  397205.03  232279.06  58.48
988.9  397094.40  232281.84  58.50
990.0  398051.90  232669.95  58.45
993.1  348368.01  202692.25  58.18
996.9  348635.43  203569.01  58.39
1000.7  349469.28  204673.34  58.57
1004.5  349876.33  205470.13  58.73
1008.4  349523.71  205858.92  58.90
1012.2  349388.25  206359.38  59.06
1016.0  349305.00  206862.53  59.22
1019.8  349231.58  207353.30  59.37
1023.7  349025.39  207684.25  59.50
1027.5  348534.82  207804.37  59.62
1031.3  348673.35  208169.68  59.70
1035.1  348498.38  208322.65  59.78
1038.9  348447.37  208480.64  59.83
1042.7  348284.67  208554.43  59.88
1046.5  348107.67  208647.30  59.94
1050.3  348135.58  208788.22  59.97
1054.2  347781.58  208735.59  60.02
1058.0  347315.97  208554.37  60.05
1061.8  347213.53  208568.72  60.07
1065.6  346945.07  208458.03  60.08
1069.4  346809.93  208459.39  60.11
1073.2  346350.02  208194.91  60.11
1077.0  345827.95  207886.43  60.11
1080.8  345341.67  207558.10  60.10
1084.6  344379.35  206917.02  60.08
1088.4  343813.95  206484.99  60.06
1092.2  343073.25  205907.00  60.02
1096.0  342539.60  205464.69  59.98
1099.8  342047.55  205015.97  59.94
1103.6  341411.10  204453.18  59.88
1107.4  340511.48  203709.15  59.82
1111.2  340211.40  203330.31  59.77
1114.9  339528.00  202670.09  59.69
1118.7  338842.35  201955.05  59.60
1122.5  338143.87  201141.77  59.48
1126.3  337094.63  199961.20  59.32
1130.1  336599.32  198875.87  59.08
1133.9  335146.00  196897.55  58.75
1137.7  333868.70  194674.64  58.31
1141.4  332256.06  191982.51  57.78
1145.2  331521.75  189730.57  57.23
1149.0  330472.92  187358.89  56.69
1152.8  328945.45  185030.62  56.25
1156.6  327443.78  183091.74  55.92
1160.3  325872.00  181494.22  55.69
1164.1  323684.63  179827.49  55.56
1167.9  322047.92  178675.93  55.48
1171.7  320851.13  177896.25  55.45
1175.4  319700.97  177213.28  55.43
1179.2  318697.13  176577.65  55.41
1183.0  318411.33  176311.41  55.37
1186.7  317890.77  175933.02  55.34
1190.5  316938.53  175306.58  55.31
1194.3  315856.10  174654.09  55.30
1198.0  314688.28  174048.24  55.31
1201.8  313277.70  173362.41  55.34
1205.6  312130.67  172899.70  55.39
1209.3  311293.65  172679.16  55.47
1213.1  310451.03  172499.28  55.56
1216.8  309606.09  172346.25  55.67
1220.6  308636.53  172142.34  55.78
1224.3  307516.00  171846.39  55.88
1228.1  306364.80  171590.84  56.01
1231.9  305180.03  171263.05  56.12
1235.6  303816.68  170792.95  56.22
1239.4  302544.50  170348.39  56.31
1243.1  301384.24  169902.22  56.37
1246.9  300253.46  169441.23  56.43
1250.6  299307.33  169043.58  56.48
1254.3  298316.88  168589.79  56.51
1258.1  297351.72  168125.63  56.54
1261.8  296129.87  167489.81  56.56
1265.6  294762.90  166724.16  56.56
1269.3  293428.73  165902.61  56.54
1273.1  293419.43  165777.00  56.50
1276.8  293609.20  165738.40  56.45
1280.6  293356.13  165408.81  56.38
1284.3  291985.60  164419.11  56.31
1288.0  290563.42  163351.47  56.22
1291.8  289394.02  162297.56  56.08
1295.5  288157.47  161143.32  55.92
1299.2  286986.33  159938.85  55.73
1302.9  285601.28  158535.58  55.51
1306.7  284156.72  156980.39  55.24
1310.4  282773.73  155316.00  54.93
1314.1  281477.90  153610.56  54.57
1317.9  280320.00  151846.76  54.17
1321.6  278964.58  149853.98  53.72
1325.3  277414.73  147614.83  53.21
1329.0  276154.55  145432.81  52.66
1332.8  274197.00  142775.11  52.07
1336.5  272479.47  140198.89  51.45
1340.2  272059.67  138293.04  50.83
1343.9  271438.33  136290.32  50.21
1347.6  270421.35  134123.17  49.60
1351.4  270056.50  132314.89  49.00
1355.1  269688.83  130533.98  48.40
1358.8  269312.00  128686.22  47.78
1362.5  268634.40  126531.63  47.10
1366.2  267250.20  123734.12  46.30
1369.9  265890.38  120568.86  45.35
1373.6  264173.06  116686.58  44.17
1377.3  262270.50  111989.00  42.70
1381.0  260978.50  106581.44  40.84
1384.8  259220.00  99948.33  38.56
1388.4  257299.70  92699.78  36.03
1392.2  255676.75  85170.19  33.31
1395.9  254236.63  77671.39  30.55
1399.6  252834.83  70646.38  27.94
1403.3  251849.68  64528.63  25.62
1407.0  251011.60  59391.36  23.66
1410.7  250125.98  55259.60  22.09
1414.3  249210.03  52073.03  20.90
1418.1  248290.79  49735.30  20.03
1421.7  247568.48  48077.37  19.42
1425.4  246782.90  46931.59  19.02
1429.1  246030.75  46203.58  18.78
1432.8  244715.15  45684.00  18.67
1436.5  244005.08  45506.96  18.65
1440.2  243260.30  45503.10  18.71
1443.9  242134.75  45528.29  18.80
1447.6  240717.40  45584.00  18.94
1451.2  239784.23  45768.35  19.09
1454.9  238642.80  45961.73  19.26
1458.6  237648.48  46294.52  19.48
1462.3  236549.50  46767.03  19.77
1466.0  235283.32  47391.94  20.14
1469.7  233756.25  48166.16  20.61
1473.3  232809.17  49223.59  21.14
1477.0  231054.03  50226.35  21.74
1480.7  229586.72  51373.07  22.38
1484.4  227847.20  52470.51  23.03
1488.0  226438.67  53670.22  23.70
1491.7  224974.32  54845.21  24.38
1495.4  223412.18  55994.59  25.06
1499.0  221951.50  57139.66  25.74
1502.7  220762.42  58342.65  26.43
1506.4  219467.13  59488.17  27.11
1510.0  218200.93  60592.21  27.77
1513.7  216861.75  61638.37  28.42
1517.4  215645.00  62658.96  29.06
1521.0  214513.60  63676.89  29.68
1524.7  213362.50  64620.59  30.29
1528.3  212171.63  65505.47  30.87
1532.0  211044.17  66360.88  31.44
1535.7  209762.70  67092.96  31.99
1539.3  208580.57  67824.71  32.52
1543.0  207687.55  68587.91  33.02
1546.6  207039.08  69399.54  33.52
1550.3  206113.50  70075.15  34.00
1553.9  205125.23  70665.63  34.45
1557.6  203942.20  71152.89  34.89
1561.2  202777.20  71575.90  35.30
1564.9  201569.46  71949.38  35.69
1568.5  200336.50  72276.63  36.08
1572.2  199271.15  72622.89  36.44
1575.8  198268.00  72977.33  36.81
1579.5  197320.95  73321.90  37.16
1583.1  196385.67  73633.81  37.49
1586.8  195230.00  73842.22  37.82
1590.4  194221.33  74080.41  38.14
1594.0  192978.28  74200.34  38.45
1597.7  191942.20  74376.16  38.75
1601.3  190767.15  74462.85  39.03
1604.9  189617.47  74523.00  39.30
1608.6  188397.45  74518.74  39.55
1612.2  187416.08  74578.72  39.79
1615.8  186342.65  74564.39  40.01
1619.5  185300.42  74528.39  40.22
1623.1  184094.63  74411.30  40.42
1626.7  182946.73  74287.99  40.61
1630.3  181835.17  74144.90  40.78
1634.0  180796.00  74019.56  40.94
1637.6  179856.40  73903.14  41.09
1641.2  178912.70  73731.28  41.21
1644.8  177765.00  73441.71  41.31
1648.5  176737.68  73170.20  41.40
1652.1  175827.00  72881.33  41.45
1655.7  174958.20  72555.69  41.47
1659.3  174175.82  72223.23  41.47
1662.9  172833.33  71623.52  41.44
1666.6  171486.73  70983.52  41.39
1670.2  170176.13  70313.53  41.32
1673.8  168823.45  69575.90  41.21
1677.4  167742.95  68907.44  41.08
1681.0  166999.88  68307.54  40.90
1684.6  166648.08  67800.30  40.68
1688.2  166078.55  67127.60  40.42
1691.8  165443.36  66431.26  40.15
1695.4  165032.40  65824.89  39.89
1699.0  164708.13  65258.25  39.62
1702.6  164403.33  64672.00  39.34
1706.2  163851.57  63956.99  39.03
1709.8  163003.09  63129.34  38.73
1713.4  162357.02  62423.03  38.45
1717.0  161542.00  61720.56  38.21
1720.6  160796.33  61092.98  37.99
1724.2  160130.33  60512.58  37.79
1727.8  159469.80  59959.20  37.60
1731.4  159009.13  59518.55  37.43
1735.0  158785.92  59179.31  37.27
1738.6  158517.00  58778.67  37.08
1742.2  157952.38  58194.16  36.84
1745.8  157319.92  57536.71  36.57
1749.4  156405.15  56736.53  36.28
1753.0  154991.60  55750.86  35.97
1756.6  153454.88  54729.37  35.66
1760.1  152229.80  53855.27  35.38
1763.7  150634.67  52903.41  35.12
1767.3  149306.83  52087.34  34.89
1770.9  148137.21  51358.26  34.67
1774.5  146808.46  50595.15  34.46
1778.0  145733.66  49963.70  34.28
1781.6  144697.65  49409.20  34.15
1785.2  143608.95  48888.01  34.04
1788.8  142483.60  48427.38  33.99
1792.3  141334.87  47968.08  33.94
1795.9  140803.76  47752.20  33.91
1799.5  140263.67  47553.55  33.90
1803.1  139650.00  47329.28  33.89
1806.6  140112.12  47430.30  33.85
1810.2  141151.97  47716.46  33.81
1813.8  141882.05  47903.77  33.76
1817.3  141758.60  47817.15  33.73
1820.9  140846.77  47467.76  33.70
1824.5  139575.63  46974.11  33.65
1828.0  138605.50  46535.60  33.57
1831.6  137625.20  46051.32  33.46
1835.2  136779.17  45525.37  33.28
1838.7  136337.20  45037.19  33.03
1842.3  136020.00  44480.00  32.70
1845.8  135438.29  43676.40  32.25
1849.4  134988.43  42741.95  31.66
1852.9  134497.30  41568.89  30.91
1856.5  133752.22  40051.71  29.94
1860.0  133087.05  38269.82  28.76
1863.6  132684.01  36289.92  27.35
1867.1  132192.20  33968.43  25.70
1870.7  131882.58  31244.54  23.69
1874.2  131400.90  28060.40  21.35
1877.8  130651.67  24757.64  18.95
1881.3  129630.00  21402.20  16.51
1884.9  128757.48  18327.30  14.23
1888.4  127762.91  15506.30  12.14
1891.9  126673.20  13163.72  10.39
1895.5  125416.15  11326.55  9.03
1899.0  124549.13  10032.92  8.06
1901.3  154399.63  8102.34  5.25
1904.1  154146.94  7336.88  4.76
1906.8  153422.10  6796.20  4.43
1909.6  151914.26  6355.39  4.18
1912.4  150412.50  6038.78  4.01
1915.1  149221.46  5804.84  3.89
1917.9  147902.88  5650.00  3.82
1920.6  146823.95  5554.50  3.78
1923.3  145794.95  5479.43  3.76
1926.1  144548.18  5428.88  3.76
1928.8  143363.00  5404.67  3.77
1931.6  142370.39  5433.41  3.82
1934.3  141427.45  5465.98  3.86
1937.0  140478.43  5520.30  3.93
1939.8  139477.81  5594.75  4.01
1942.5  138294.75  5670.50  4.10
1945.2  136803.56  5747.50  4.20
1947.9  135585.45  5841.91  4.31
1950.7  134626.18  5960.11  4.43
1953.4  133107.90  6073.80  4.56
1956.1  131927.50  6210.29  4.71
1958.8  130882.86  6353.97  4.85
1961.5  129616.50  6504.40  5.02
1964.2  128310.00  6663.48  5.19
1966.9  126933.04  6828.23  5.38
1969.6  125840.25  7017.75  5.58
1972.3  124595.55  7202.33  5.78
1975.0  123649.99  7411.88  5.99
1977.7  122655.26  7626.42  6.22
1980.4  121630.93  7846.17  6.45
1983.1  120643.03  8075.99  6.69
1985.8  119792.48  8319.38  6.94
1988.4  118852.50  8562.67  7.20
1991.1  118000.40  8803.84  7.46
1993.8  117229.75  9053.96  7.72
1996.5  116667.51  9321.08  7.99
1999.1  116047.11  9592.51  8.27
2001.8  115429.83  9854.95  8.54
2004.5  114822.26  10120.50  8.81
2007.1  114173.51  10377.84  9.09
2009.8  113500.28  10625.48  9.36
2012.4  112977.43  10876.39  9.63
2015.1  112490.18  11128.37  9.89
2017.8  111790.88  11348.52  10.15
2020.4  111342.41  11587.26  10.41
2023.1  111026.83  11827.67  10.65
2025.7  110805.50  12074.83  10.90
2028.3  110506.50  12298.00  11.13
2031.0  110165.45  12506.17  11.35
2033.6  109907.10  12710.70  11.56
2036.2  109672.20  12902.10  11.76
2038.9  109137.15  13058.70  11.97
2041.5  108829.76  13229.72  12.16
2044.1  108321.53  13363.20  12.34
2046.8  108001.80  13508.93  12.51
2049.4  107440.65  13619.85  12.68
2052.0  107158.00  13763.73  12.84
2054.6  106798.13  13897.19  13.01
2057.2  106299.95  14021.37  13.19
2059.8  106018.30  14187.30  13.38
2062.4  105221.06  14284.44  13.58
2065.0  104754.15  14423.10  13.77
2067.6  103959.33  14508.89  13.96
2070.2  103410.18  14628.75  14.15
2072.8  102828.34  14744.24  14.34
2075.4  102434.06  14885.94  14.53
2078.0  101862.51  14982.17  14.71
2080.6  101356.20  15094.20  14.89
2083.2  100735.58  15186.06  15.08
2085.8  100307.86  15300.57  15.25
2088.4  99693.00  15385.46  15.43
2090.9  98969.29  15455.62  15.62
2093.5  98177.90  15503.85  15.79
2096.1  97468.65  15559.67  15.96
2098.7  96750.61  15614.57  16.14
2101.2  95898.55  15639.22  16.31
2103.8  95302.50  15702.53  16.48
2106.4  94699.90  15761.48  16.64
2108.9  94110.40  15820.43  16.81
2111.5  93337.50  15837.90  16.97
2114.0  92767.65  15896.85  17.14
2116.6  92301.56  15973.13  17.31
2119.1  91806.73  16027.66  17.46
2121.7  91369.69  16086.87  17.61
2124.2  90998.00  16152.59  17.75
2126.8  90275.10  16150.36  17.89
2129.3  89911.80  16207.40  18.03
2131.9  89377.20  16218.40  18.15
2134.4  88988.96  16239.75  18.25
2136.9  88637.90  16260.94  18.35
2139.4  88172.35  16263.68  18.45
2142.0  87780.00  16279.20  18.55
2144.5  87529.28  16300.35  18.62
2147.0  87314.40  16330.13  18.70
2149.5  86878.90  16314.50  18.78
2152.1  86718.36  16347.42  18.85
2154.6  86632.00  16381.20  18.91
2157.1  86150.88  16336.38  18.96
2159.6  85810.25  16313.67  19.01
2162.1  85667.40  16323.13  19.05
2164.6  85440.05  16325.83  19.11
2167.1  85150.16  16307.31  19.15
2169.6  84844.03  16283.55  19.19
2172.1  84429.60  16246.05  19.24
2174.6  84143.65  16242.15  19.30
2177.1  83758.88  16215.66  19.36
2179.5  83388.83  16199.36  19.43
2182.0  82943.85  16173.17  19.50
2184.5  82458.39  16129.95  19.56
2187.0  81914.35  16076.76  19.63
2189.5  81281.65  16022.09  19.71
2191.9  80576.63  15938.63  19.78
2194.4  80019.45  15876.88  19.84
2196.9  79336.80  15794.40  19.91
2199.3  78742.25  15725.25  19.97
2201.8  77942.10  15602.53  20.02
2204.3  77512.40  15549.60  20.06
2206.7  76940.81  15466.97  20.10
2209.2  76534.06  15408.12  20.13
2211.6  75965.18  15310.35  20.15
2214.1  75692.14  15265.79  20.17
2216.5  75163.05  15178.13  20.19
2219.0  74850.15  15118.53  20.20
2221.4  74501.44  15038.63  20.19
2223.9  74077.50  14922.11  20.14
2226.3  73616.38  14798.15  20.10
2228.7  73109.49  14654.51  20.04
2231.1  72564.53  14478.75  19.95
2233.6  72019.15  14299.03  19.85
2236.0  71526.44  14111.42  19.73
2238.4  71080.19  13915.56  19.58
2240.9  70678.15  13727.87  19.42
2243.3  70193.90  13506.85  19.24
2245.7  69677.36  13260.86  19.03
2248.1  69240.93  13036.40  18.83
2250.5  68772.69  12801.13  18.61
2252.9  68201.90  12535.58  18.38
2255.3  67699.80  12278.30  18.14
2257.7  67282.50  12042.50  17.90
2260.1  66837.05  11796.70  17.65
2262.5  66277.50  11537.50  17.41
2264.9  65807.64  11303.63  17.18
2267.3  65257.50  11065.00  16.96
2269.7  64812.83  10851.05  16.74
2272.1  64307.00  10642.71  16.55
2274.5  63815.96  10447.56  16.37
2276.8  63390.48  10264.58  16.19
2279.2  62855.21  10065.08  16.01
2281.6  62476.25  9893.02  15.83
2284.0  62046.83  9726.30  15.68
2286.3  61613.20  9558.27  15.51
2288.7  61245.11  9399.22  15.35
2291.1  60755.30  9227.91  15.19
2293.4  60344.90  9065.47  15.02
2295.8  59791.50  8878.60  14.85
2298.2  59243.40  8691.41  14.67
2300.5  58645.69  8507.70  14.51
2302.9  57970.00  8313.17  14.34
2305.2  57319.50  8131.85  14.19
2307.6  56708.14  7979.94  14.07
2309.9  55986.00  7822.33  13.97
2312.2  55412.50  7695.75  13.89
2314.6  54873.11  7573.61  13.80
2316.9  54213.30  7441.65  13.73
2319.2  53670.83  7318.87  13.64
2321.6  53087.39  7185.27  13.53
2323.9  52578.13  7059.90  13.43
2326.2  52083.20  6932.95  13.31
2328.6  51602.10  6816.01  13.21
2330.9  51140.25  6699.00  13.10
2333.2  50704.75  6577.54  12.97
2335.5  50308.73  6462.80  12.85
2337.8  49875.61  6345.99  12.72
2340.1  49349.93  6216.59  12.60
2342.4  48953.13  6104.59  12.47
2344.8  48576.44  5990.52  12.33
2347.1  48042.23  5858.94  12.20
2349.4  47550.69  5747.95  12.09
2351.6  47030.15  5637.78  11.99
2353.9  46588.25  5541.49  11.89
2356.2  46089.70  5436.05  11.79
2358.5  45528.00  5325.60  11.70
2360.8  44990.40  5205.20  11.57
2363.1  44594.66  5120.41  11.48
2365.4  44163.23  5028.50  11.39
2367.7  43724.70  4924.80  11.26
2369.9  43220.89  4817.59  11.15
2372.2  42673.20  4707.07  11.03
2374.5  42125.74  4599.79  10.92
2376.7  41532.49  4486.94  10.80
2379.0  40955.15  4371.23  10.67
2381.3  40416.25  4264.17  10.55
2383.5  39934.40  4168.27  10.44
2385.8  39377.15  4059.50  10.31
2388.0  38895.75  3967.75  10.20
2390.3  38421.30  3859.63  10.05
2392.5  37962.00  3762.00  9.91
2394.8  37525.13  3675.38  9.79
2397.0  37091.60  3588.43  9.67
2399.3  36668.79  3490.53  9.52
2401.5  36253.88  3399.38  9.38
2403.8  35758.36  3307.03  9.25
2406.0  35285.06  3215.92  9.11
2408.2  34912.90  3141.60  9.00
2410.4  34510.18  3061.54  8.87
2412.7  34118.50  2978.30  8.73
2414.9  33794.48  2903.18  8.59
2417.1  33423.23  2825.75  8.45
2419.3  33033.60  2752.00  8.33
2421.6  32675.94  2683.44  8.21
2423.8  32325.90  2612.79  8.08
2426.0  31997.43  2541.49  7.94
2428.2  31654.00  2489.20  7.86
2430.4  31343.15  2425.01  7.74
2432.6  31090.00  2356.67  7.58
2434.8  30826.88  2292.39  7.44
2437.0  30486.95  2236.65  7.34
2439.2  30148.93  2176.19  7.22
2441.4  29846.78  2106.35  7.06
2443.6  29605.66  2051.78  6.93
2445.7  29363.25  2006.14  6.83
2447.9  29120.63  1962.25  6.74
2450.1  28841.14  1914.31  6.64
2452.3  28490.96  1849.28  6.49
2454.5  28157.46  1790.65  6.36
2456.6  27830.70  1740.53  6.25
2458.8  27488.18  1694.55  6.16
2461.0  27204.25  1654.31  6.08
2463.1  26942.96  1615.05  5.99
2465.3  26669.25  1569.43  5.88
2467.5  26417.25  1530.32  5.79
2469.6  26189.94  1499.13  5.72
2471.8  25903.75  1464.13  5.65
2473.9  25611.50  1436.69  5.61
2476.1  25252.50  1399.13  5.54
2478.2  24929.35  1359.58  5.45
2480.4  24648.26  1323.94  5.37
2482.5  24328.19  1285.12  5.28
2484.6  24017.81  1254.46  5.22
2486.8  23761.95  1240.30  5.22
2488.9  23450.09  1211.37  5.17
2491.1  23133.60  1178.10  5.09
2493.2  22776.45  1141.62  5.01
2495.3  22390.55  1126.34  5.03
2497.4  22073.10  1102.85  5.00
2499.5  21786.81  1080.24  4.96
2501.7  21667.35  1059.95  4.89
2503.8  21551.96  1053.15  4.89
2505.9  21486.56  1046.36  4.87
2508.0  21466.68  1029.10  4.79
2510.1  21460.00  1014.88  4.73
2512.2  21552.08  1018.43  4.73
2514.3  21683.71  1029.85  4.75
2516.4  21852.23  1034.25  4.73
