/*** Spectra Vista SIG Data ***/
name= 43_20220825_ACSA_40_avg.sig
comm= Averaged Ref/Tar of files: HR.082522.0047_moc.sig,HR.082522.0048_moc.sig,HR.082522.0049_moc.sig
data=
337.3  3225.63  288.30  8.94
338.8  3415.10  284.02  8.32
340.3  3560.60  281.10  7.89
341.8  3749.45  283.06  7.55
343.2  3951.60  270.63  6.85
344.7  4094.40  283.52  6.92
346.2  4289.25  280.89  6.55
347.7  4483.05  279.40  6.23
349.2  4649.40  267.12  5.75
350.6  4921.15  274.91  5.59
352.1  5215.85  277.63  5.32
353.6  5482.60  292.14  5.33
355.1  5758.43  300.83  5.22
356.6  6063.38  300.28  4.95
358.0  6316.20  298.34  4.72
359.5  6643.50  306.06  4.61
361.0  6972.53  318.63  4.57
362.5  7348.03  340.15  4.63
364.0  7656.23  347.92  4.54
365.4  8036.60  359.15  4.47
366.9  8398.00  367.28  4.37
368.4  8782.55  376.66  4.29
369.9  9188.50  388.13  4.22
371.3  9612.00  408.38  4.25
372.8  10009.35  428.34  4.28
374.3  10454.38  437.17  4.18
375.8  10887.80  441.98  4.06
377.2  11324.90  454.99  4.02
378.7  11755.30  467.80  3.98
380.2  12158.80  476.51  3.92
381.7  12674.73  492.63  3.89
383.1  13178.55  501.01  3.80
384.6  13703.30  517.92  3.78
386.1  14215.15  525.06  3.69
387.6  14687.75  540.03  3.68
389.0  15195.60  551.83  3.63
390.5  15691.05  567.92  3.62
392.0  16240.30  582.91  3.59
393.4  16842.28  604.57  3.59
394.9  17408.70  618.94  3.56
396.4  17983.13  628.89  3.50
397.9  18526.88  642.33  3.47
399.3  19095.05  660.38  3.46
400.8  19690.75  681.28  3.46
402.2  20351.95  704.23  3.46
403.7  20969.33  728.67  3.47
405.2  21615.28  738.66  3.42
406.6  22202.40  753.01  3.39
408.1  22803.40  775.29  3.40
409.6  23442.60  794.80  3.39
411.0  24125.50  818.62  3.39
412.5  24823.40  844.11  3.40
414.0  25489.13  863.90  3.39
415.4  26195.25  888.89  3.39
416.9  26888.63  914.92  3.40
418.4  27620.33  939.44  3.40
419.8  28373.80  972.05  3.43
421.3  29126.05  1004.31  3.45
422.7  29910.60  1035.38  3.46
424.2  30695.63  1066.18  3.47
425.7  31491.60  1093.50  3.47
427.1  32283.00  1123.42  3.48
428.6  33108.00  1159.40  3.50
430.0  33870.60  1192.90  3.52
431.5  34775.25  1227.26  3.53
432.9  35672.75  1263.25  3.54
434.4  36600.38  1299.07  3.55
435.9  37450.00  1332.27  3.56
437.3  38321.25  1366.62  3.57
438.8  39191.03  1402.75  3.58
440.2  40101.60  1438.10  3.59
441.7  41097.80  1473.74  3.59
443.1  42015.75  1509.49  3.59
444.6  43033.50  1549.04  3.60
446.0  43998.23  1587.40  3.61
447.5  44991.93  1630.52  3.62
448.9  45962.70  1670.61  3.63
450.4  46995.55  1713.10  3.65
451.8  47905.00  1748.68  3.65
453.3  48861.28  1784.92  3.65
454.7  49920.08  1824.92  3.66
456.2  50810.45  1863.84  3.67
457.6  51812.33  1904.77  3.68
459.1  52820.30  1948.49  3.69
460.5  53794.25  1986.12  3.69
462.0  54911.50  2029.78  3.70
463.4  55991.90  2067.53  3.69
464.8  57012.38  2110.06  3.70
466.3  58021.43  2151.84  3.71
467.7  59016.48  2191.41  3.71
469.2  60128.40  2234.04  3.72
470.6  61145.60  2271.82  3.72
472.0  62225.58  2311.25  3.71
473.5  63280.00  2350.94  3.72
474.9  64367.25  2391.56  3.72
476.4  65534.40  2438.12  3.72
477.8  66642.00  2483.23  3.73
479.2  67686.00  2527.69  3.73
480.7  68828.63  2573.24  3.74
482.1  70010.25  2620.54  3.74
483.6  71267.40  2672.29  3.75
485.0  72403.95  2722.68  3.76
486.4  73652.10  2778.64  3.77
487.9  74777.63  2835.58  3.79
489.3  75981.00  2895.36  3.81
490.7  77085.38  2956.78  3.84
492.2  78365.70  3024.28  3.86
493.6  79505.55  3094.92  3.89
495.0  80671.50  3167.64  3.93
496.5  81901.18  3250.02  3.97
497.9  83045.83  3329.69  4.01
499.3  84263.85  3422.21  4.06
500.7  85585.30  3529.95  4.12
502.2  86782.40  3639.16  4.19
503.6  88096.40  3759.85  4.27
505.0  89218.50  3886.30  4.36
506.5  90570.75  4037.94  4.46
507.9  91796.40  4199.29  4.57
509.3  93180.80  4390.38  4.71
510.7  94462.88  4586.12  4.85
512.2  95911.35  4819.76  5.03
513.6  97465.20  5076.35  5.21
515.0  98934.88  5356.73  5.41
516.4  100373.18  5660.55  5.64
517.8  102067.25  6004.60  5.88
519.3  103423.10  6347.16  6.14
520.7  105037.80  6721.25  6.40
522.1  106377.70  7091.85  6.67
523.5  107752.80  7478.73  6.94
524.9  109214.55  7860.09  7.20
526.3  110624.15  8232.53  7.44
527.8  112206.60  8605.93  7.67
529.2  113448.60  8956.46  7.89
530.6  115036.45  9314.88  8.10
532.0  116802.00  9667.73  8.28
533.4  118170.38  9969.48  8.44
534.8  119091.13  10208.44  8.57
536.3  120795.60  10497.41  8.69
537.7  122850.00  10802.88  8.79
539.1  124334.60  11049.30  8.89
540.5  125597.15  11272.37  8.98
541.9  127440.83  11543.54  9.06
543.3  128760.30  11765.93  9.14
544.7  130142.40  11993.02  9.22
546.1  131985.15  12262.90  9.29
547.5  133246.40  12465.07  9.35
549.0  135036.00  12710.55  9.41
550.4  136563.13  12915.14  9.46
551.8  138140.63  13103.93  9.49
553.2  139705.08  13262.15  9.49
554.6  141076.00  13372.62  9.48
556.0  142643.70  13469.98  9.44
557.4  144302.20  13543.65  9.39
558.8  145986.75  13586.89  9.31
560.2  147480.63  13578.60  9.21
561.6  149202.60  13558.85  9.09
563.0  150840.00  13496.99  8.95
564.4  152468.60  13412.57  8.80
565.8  154020.00  13293.60  8.63
567.2  155832.00  13176.43  8.46
568.6  157372.13  13023.28  8.28
570.0  158852.15  12846.18  8.09
571.4  160600.70  12690.66  7.90
572.8  162413.88  12543.91  7.72
574.2  164091.20  12395.73  7.55
575.6  165701.25  12259.50  7.40
577.0  167262.60  12139.43  7.26
578.4  169032.50  12053.17  7.13
579.8  170598.83  11967.00  7.01
581.2  172351.75  11912.99  6.91
582.5  173815.20  11852.88  6.82
583.9  175383.40  11813.71  6.74
585.3  177217.43  11807.79  6.66
586.7  178739.60  11792.97  6.60
588.1  180262.38  11786.89  6.54
589.5  181961.50  11803.17  6.49
590.9  183631.60  11834.32  6.44
592.3  185489.00  11880.67  6.41
593.7  186994.28  11916.43  6.37
595.0  188642.93  11963.65  6.34
596.4  190118.95  11994.41  6.31
597.8  191653.35  12022.77  6.27
599.2  193248.00  12039.66  6.23
600.6  195051.35  12060.77  6.18
602.0  196394.33  12033.66  6.13
603.3  198222.95  12026.98  6.07
604.7  199928.50  11996.75  6.00
606.1  201466.20  11941.34  5.93
607.5  203151.83  11881.08  5.85
608.9  204891.15  11812.97  5.77
610.2  206302.95  11726.64  5.68
611.6  207956.03  11652.09  5.60
613.0  209553.90  11582.29  5.53
614.4  210960.45  11510.02  5.46
615.8  212472.00  11447.89  5.39
617.1  214061.40  11403.00  5.33
618.5  215724.80  11376.27  5.27
619.9  217308.00  11361.48  5.23
621.3  218979.45  11373.44  5.19
622.6  220637.00  11397.12  5.17
624.0  222155.55  11429.47  5.14
625.4  223713.60  11475.00  5.13
626.8  225370.60  11537.89  5.12
628.1  226728.15  11592.99  5.11
629.5  228623.38  11677.35  5.11
630.9  230220.10  11756.88  5.11
632.2  231589.93  11809.10  5.10
633.6  233208.25  11860.61  5.09
635.0  234762.80  11887.99  5.06
636.3  236335.30  11894.16  5.03
637.7  237776.88  11862.99  4.99
639.1  239487.50  11816.67  4.93
640.4  241033.98  11738.89  4.87
641.8  242295.23  11626.99  4.80
643.2  243932.33  11528.79  4.73
644.5  245334.75  11416.50  4.65
645.9  247082.40  11321.27  4.58
647.2  248776.15  11244.08  4.52
648.6  250674.75  11189.96  4.46
650.0  252201.60  11129.14  4.41
651.3  252764.05  11048.60  4.37
652.7  254103.20  11001.22  4.33
654.0  256228.10  11000.72  4.29
655.4  257767.45  10981.02  4.26
656.8  258076.30  10900.76  4.22
658.1  259279.40  10857.95  4.19
659.5  261711.98  10851.05  4.15
660.8  263475.00  10826.14  4.11
662.2  264387.20  10784.85  4.08
663.5  266110.10  10786.84  4.05
664.9  267432.10  10788.17  4.03
666.2  268264.80  10791.32  4.02
667.6  270132.50  10866.11  4.02
668.9  271268.58  10934.71  4.03
670.3  272505.13  11018.73  4.04
671.6  274106.63  11140.04  4.06
673.0  275345.63  11269.84  4.09
674.3  276669.90  11405.28  4.12
675.7  278056.70  11569.82  4.16
677.0  279210.93  11737.02  4.20
678.4  280642.55  11933.36  4.25
679.7  281809.88  12143.12  4.31
681.1  283156.03  12378.40  4.37
682.4  284360.70  12645.41  4.45
683.8  285642.50  12957.76  4.54
685.1  286695.75  13322.20  4.65
686.4  288045.00  13789.37  4.79
687.8  289383.50  14364.18  4.96
689.1  290496.00  15091.86  5.20
690.5  291913.35  16045.17  5.50
691.8  292804.30  17257.80  5.89
693.1  294200.85  18857.74  6.41
694.5  295408.75  20842.47  7.06
695.8  296682.75  23259.60  7.84
697.1  297934.00  26129.57  8.77
698.5  299004.40  29450.33  9.85
699.8  300194.33  33219.09  11.07
701.1  301396.10  37380.06  12.40
702.5  302237.65  41807.27  13.83
703.8  303277.50  46483.29  15.33
705.1  304509.08  51333.60  16.86
706.5  305597.75  56249.47  18.41
707.8  306642.00  61176.84  19.95
709.1  307593.85  66043.30  21.47
710.5  308821.73  70896.54  22.96
711.8  309747.00  75585.11  24.40
713.1  310839.70  80216.29  25.81
714.4  311798.60  84692.00  27.16
715.8  312690.60  89017.35  28.47
717.1  314084.55  93346.37  29.72
718.4  315100.80  97408.43  30.91
719.7  316290.68  101367.82  32.05
721.0  316867.50  104985.43  33.13
722.4  317729.50  108514.04  34.15
723.7  318753.45  111943.20  35.12
725.0  319854.38  115251.68  36.03
726.3  320873.85  118359.58  36.89
727.6  321467.30  121162.49  37.69
729.0  322463.05  123940.41  38.44
730.3  323317.05  126528.30  39.13
731.6  324285.20  129012.09  39.78
732.9  325175.03  131321.10  40.38
734.2  326057.88  133514.44  40.95
735.5  327138.65  135674.72  41.47
736.8  328031.70  137609.42  41.95
738.1  328959.60  139450.35  42.39
739.5  330037.10  141244.17  42.80
740.8  330804.10  142818.39  43.17
742.1  331588.60  144305.17  43.52
743.4  332325.00  145698.57  43.84
744.7  333342.18  147113.11  44.13
746.0  334290.45  148424.49  44.40
747.3  334964.58  149516.21  44.64
748.6  335780.00  150621.31  44.86
749.9  336570.00  151635.47  45.05
751.2  337256.55  152565.08  45.24
752.5  338145.65  153527.90  45.40
753.8  338792.48  154327.25  45.55
755.1  339560.00  155127.39  45.68
756.4  340272.50  155839.61  45.80
757.7  341373.90  156716.21  45.91
759.0  343285.25  157929.95  46.01
760.3  344599.20  158818.38  46.09
761.6  346305.40  159853.84  46.16
762.9  346920.75  160379.75  46.23
764.2  347359.70  160805.13  46.29
765.5  347730.68  161159.08  46.35
766.8  348241.60  161562.82  46.39
768.1  348856.80  161996.63  46.44
769.3  349551.30  162447.70  46.47
770.6  350297.35  162924.01  46.51
771.9  351088.68  163431.10  46.55
773.2  351535.20  163761.97  46.58
774.5  352237.60  164194.51  46.61
775.8  353008.60  164643.93  46.64
777.1  353676.95  165038.97  46.66
778.4  354100.45  165320.86  46.69
779.6  354975.95  165815.11  46.71
780.9  355500.00  166156.57  46.74
782.2  356042.50  166493.69  46.76
783.5  356453.50  166758.31  46.78
784.8  357045.98  167116.71  46.81
786.0  357539.70  167401.29  46.82
787.3  357996.65  167694.60  46.84
788.6  358508.63  168011.75  46.86
789.9  359062.20  168340.37  46.88
791.2  359823.45  168745.95  46.90
792.4  360581.63  169159.24  46.91
793.7  361120.80  169490.05  46.93
795.0  361859.85  169876.24  46.95
796.2  362579.65  170286.00  46.97
797.5  363397.13  170718.68  46.98
798.8  364156.05  171129.76  46.99
800.0  364919.58  171528.12  47.00
801.3  365476.40  171838.06  47.02
802.6  366163.20  172206.94  47.03
803.8  366880.08  172601.76  47.05
805.1  367445.75  172913.75  47.06
806.4  368007.90  173220.74  47.07
807.7  368590.50  173551.56  47.09
808.9  369246.00  173901.73  47.10
810.2  369792.50  174225.66  47.11
811.4  370363.60  174540.41  47.13
812.7  371109.38  174915.77  47.13
814.0  372037.15  175389.14  47.14
815.2  372702.25  175761.14  47.16
816.5  373161.43  176021.83  47.17
817.7  373652.00  176312.65  47.19
819.0  374234.85  176627.97  47.20
820.2  374440.00  176773.56  47.21
821.5  375238.60  177182.26  47.22
822.7  375646.68  177431.43  47.23
824.0  375966.90  177633.87  47.25
825.2  376465.73  177931.58  47.26
826.5  376876.30  178137.60  47.27
827.7  377428.48  178470.05  47.29
829.0  377911.10  178701.95  47.29
830.2  378193.60  178906.33  47.31
831.5  378732.80  179179.74  47.31
832.7  379085.70  179363.67  47.31
834.0  379402.88  179572.45  47.33
835.2  379808.28  179802.58  47.34
836.4  380065.40  179990.71  47.36
837.7  380484.00  180248.55  47.37
838.9  380898.70  180501.23  47.39
840.1  381306.15  180723.84  47.40
841.4  381742.10  180988.60  47.41
842.6  382058.00  181202.45  47.43
843.8  382423.60  181422.25  47.44
845.1  382926.20  181713.87  47.45
846.3  383257.70  181954.18  47.48
847.5  383670.00  182198.88  47.49
848.8  384087.00  182432.42  47.50
850.0  384420.40  182650.41  47.51
851.2  384951.15  182941.46  47.52
852.5  385349.90  183159.47  47.53
853.7  385823.25  183441.99  47.55
854.9  386222.30  183696.31  47.56
856.1  386636.25  183958.20  47.58
857.4  386873.80  184070.59  47.58
858.6  387254.65  184318.06  47.60
859.8  387667.50  184558.64  47.61
861.0  388065.60  184775.76  47.61
862.2  388567.03  185023.79  47.62
863.5  388860.55  185230.52  47.63
864.7  389353.80  185495.07  47.64
865.9  389680.60  185713.19  47.66
867.1  390029.00  185887.69  47.66
868.3  390417.60  186111.32  47.67
869.5  390883.55  186352.61  47.67
870.8  391374.00  186643.97  47.69
872.0  391883.10  186884.95  47.69
873.2  392313.00  187131.29  47.70
874.4  392742.68  187363.30  47.71
875.6  393131.20  187533.55  47.70
876.8  393652.65  187791.60  47.70
878.0  394124.55  188031.40  47.71
879.2  394571.10  188283.00  47.72
880.4  395128.13  188536.94  47.72
881.6  395557.28  188776.23  47.72
882.8  395900.00  188972.19  47.73
884.0  396513.50  189269.44  47.73
885.2  397105.60  189507.17  47.72
886.5  397781.45  189807.29  47.72
887.7  398270.60  190036.77  47.72
888.8  398871.75  190375.31  47.73
890.0  399384.00  190630.14  47.73
891.2  400005.30  190912.41  47.73
892.4  400625.40  191204.78  47.73
893.6  401297.75  191483.24  47.72
894.8  402143.50  191921.42  47.72
896.0  403054.25  192348.39  47.72
897.2  403806.00  192745.31  47.73
898.4  404596.50  193132.66  47.73
899.6  405216.38  193369.74  47.72
900.8  405569.98  193560.30  47.73
902.0  405875.25  193665.06  47.72
903.2  406209.08  193838.05  47.72
904.3  406599.30  194004.59  47.71
905.5  407196.33  194305.40  47.72
906.7  407805.50  194593.05  47.72
907.9  408437.05  194820.64  47.70
909.1  408829.28  194949.74  47.68
910.2  409039.95  195029.06  47.68
911.4  409184.10  195185.36  47.70
912.6  409380.40  195281.07  47.70
913.8  409723.13  195406.69  47.69
915.0  410210.85  195581.26  47.68
916.2  410416.50  195641.64  47.67
917.3  410477.63  195666.20  47.67
918.5  410725.70  195752.18  47.66
919.7  410962.20  195836.61  47.65
920.8  411047.25  195886.28  47.66
922.0  411257.00  195900.83  47.63
923.2  411547.50  196014.00  47.63
924.4  411804.00  196083.96  47.62
925.5  412061.10  196184.83  47.61
926.7  412745.13  196431.40  47.59
927.9  413556.00  196826.77  47.59
929.0  415257.30  197492.12  47.56
930.2  417428.10  198526.55  47.56
931.4  420142.95  199647.80  47.52
932.5  422841.55  200968.45  47.53
933.7  424601.13  201547.64  47.47
934.9  425083.75  201816.50  47.48
936.0  424755.50  201529.87  47.45
937.2  422559.30  200465.52  47.44
938.3  420883.70  199532.53  47.41
939.5  419446.80  198692.37  47.37
940.7  419607.90  198700.03  47.35
941.8  421370.85  199366.34  47.31
943.0  423030.00  200012.27  47.28
944.2  423748.00  200292.25  47.27
945.3  423296.25  200017.07  47.25
946.5  422400.15  199538.08  47.24
947.6  422972.60  199421.35  47.15
948.8  422974.50  199235.96  47.10
949.9  423028.20  199140.88  47.08
951.1  422706.70  198760.38  47.02
952.2  422484.00  198392.91  46.96
953.4  422168.25  198095.47  46.92
954.5  422253.00  197851.68  46.86
955.7  422402.40  197569.92  46.77
956.8  422290.20  197214.03  46.70
958.0  421957.50  196860.76  46.65
959.1  421880.03  196595.73  46.60
960.3  421544.18  196254.09  46.56
961.4  421486.35  196092.73  46.52
962.6  421720.25  196037.87  46.49
963.7  421468.35  195909.53  46.48
964.9  421470.98  195818.63  46.46
966.0  421509.83  195693.03  46.43
967.2  421583.40  195611.88  46.40
968.3  421406.55  195521.89  46.40
969.5  421319.53  195430.91  46.39
970.6  421538.50  195502.57  46.38
971.8  422189.25  195618.63  46.33
972.9  422128.20  195625.32  46.34
974.0  422366.40  195757.27  46.35
975.2  422312.75  195630.31  46.32
976.3  422700.98  195645.38  46.28
977.5  422421.48  195642.53  46.31
978.6  422905.70  195698.44  46.27
979.7  423026.10  195834.63  46.29
980.9  422516.73  195761.57  46.33
982.0  423315.90  195737.32  46.24
983.2  422534.98  195572.36  46.29
984.3  421988.80  195291.53  46.28
985.4  422359.75  195359.98  46.25
986.6  422518.00  195373.63  46.24
987.7  423294.03  196002.93  46.30
988.9  423291.60  195894.65  46.28
990.0  424249.10  195993.87  46.20
993.1  370716.44  171457.90  46.25
996.9  371651.33  172282.53  46.36
1000.7  372863.93  173248.27  46.46
1004.5  373543.08  173942.80  46.57
1008.4  373476.50  174260.83  46.66
1012.2  373592.00  174653.45  46.75
1016.0  373789.20  175018.54  46.82
1019.8  374173.80  175461.83  46.89
1023.7  374370.43  175778.32  46.95
1027.5  374334.93  175987.24  47.01
1031.3  374794.68  176361.85  47.06
1035.1  374819.20  176528.34  47.10
1038.9  374930.42  176703.68  47.13
1042.7  374833.92  176795.87  47.17
1046.5  374741.67  176847.74  47.19
1050.3  374854.64  176964.30  47.21
1054.2  374586.33  176936.08  47.24
1058.0  374121.42  176736.23  47.24
1061.8  373996.08  176723.75  47.25
1065.6  373854.93  176630.32  47.25
1069.4  374010.13  176702.15  47.25
1073.2  373754.32  176543.35  47.24
1077.0  373360.88  176293.93  47.22
1080.8  372801.04  175920.39  47.19
1084.6  371604.57  175265.30  47.16
1088.4  370836.02  174849.17  47.15
1092.2  369954.00  174330.00  47.12
1096.0  369437.74  173931.96  47.08
1099.8  368983.33  173564.08  47.04
1103.6  368391.15  173106.98  46.99
1107.4  367548.09  172490.28  46.93
1111.2  367357.40  172191.12  46.87
1114.9  366725.33  171644.00  46.80
1118.7  366121.80  171039.12  46.72
1122.5  365467.27  170303.96  46.60
1126.3  364339.44  169307.08  46.47
1130.1  363835.52  168401.46  46.29
1133.9  362237.40  166714.60  46.02
1137.7  360828.00  164905.89  45.70
1141.4  359087.95  162696.97  45.31
1145.2  358409.34  160788.59  44.86
1149.0  357322.29  158772.92  44.43
1152.8  355704.95  156720.18  44.06
1156.6  354046.00  154990.92  43.78
1160.3  352298.00  153567.66  43.59
1164.1  349832.40  152123.02  43.48
1167.9  348018.75  151142.86  43.43
1171.7  346720.50  150508.13  43.41
1175.4  345594.80  149983.38  43.40
1179.2  344558.33  149491.66  43.39
1183.0  344302.67  149289.34  43.36
1186.7  343743.40  148961.53  43.34
1190.5  342601.67  148411.42  43.32
1194.3  341354.00  147831.23  43.31
1198.0  340160.98  147302.77  43.30
1201.8  338730.95  146727.85  43.32
1205.6  337501.33  146356.71  43.36
1209.3  336524.75  146209.54  43.45
1213.1  335507.33  146067.82  43.54
1216.8  334523.20  145970.05  43.64
1220.6  333420.27  145792.53  43.73
1224.3  332178.33  145543.92  43.81
1228.1  330925.20  145292.14  43.90
1231.9  329703.25  144992.24  43.98
1235.6  328232.70  144549.11  44.04
1239.4  326887.38  144160.16  44.10
1243.1  325624.46  143746.64  44.14
1246.9  324411.99  143313.95  44.18
1250.6  323427.67  142951.72  44.20
1254.3  322359.86  142531.65  44.22
1258.1  321363.23  142116.17  44.22
1261.8  320076.67  141542.38  44.22
1265.6  318596.18  140849.33  44.21
1269.3  317089.88  140100.32  44.18
1273.1  317003.26  139946.56  44.15
1276.8  317372.80  139945.88  44.10
1280.6  317382.40  139754.97  44.03
1284.3  316126.40  138966.57  43.96
1288.0  314649.81  138044.89  43.87
1291.8  313236.78  137086.63  43.76
1295.5  311728.27  136073.14  43.65
1299.2  310451.13  135084.47  43.51
1302.9  309045.00  133957.40  43.35
1306.7  307524.82  132702.97  43.15
1310.4  306055.73  131347.24  42.92
1314.1  304683.32  129952.51  42.65
1317.9  303467.08  128497.38  42.34
1321.6  302086.29  126852.59  41.99
1325.3  300434.93  124977.68  41.60
1329.0  299079.55  123153.10  41.18
1332.8  296973.60  120896.60  40.71
1336.5  295150.47  118726.69  40.23
1340.2  294794.50  117147.33  39.74
1343.9  294402.92  115535.53  39.24
1347.6  293889.90  113877.53  38.75
1351.4  294283.00  112607.50  38.27
1355.1  294899.73  111429.79  37.79
1358.8  295136.00  110048.00  37.29
1362.5  294676.15  108275.45  36.74
1366.2  292783.35  105740.97  36.12
1369.9  290782.38  102870.00  35.38
1373.6  288786.63  99560.88  34.48
1377.3  286995.00  95718.00  33.35
1381.0  285826.67  91272.38  31.93
1384.8  283660.00  85644.47  30.19
1388.4  281226.75  79407.48  28.24
1392.2  279351.42  72958.60  26.12
1395.9  277729.28  66485.44  23.94
1399.6  276029.96  60323.27  21.85
1403.3  274793.82  54895.28  19.98
1407.0  273603.90  50278.13  18.38
1410.7  272337.45  46556.99  17.10
1414.3  271056.57  43723.75  16.13
1418.1  269852.04  41702.56  15.45
1421.7  268893.39  40335.44  15.00
1425.4  267969.33  39459.69  14.73
1429.1  267079.13  38947.07  14.58
1432.8  265578.03  38622.09  14.54
1436.5  264748.55  38574.88  14.57
1440.2  263839.43  38656.48  14.65
1443.9  262506.29  38749.08  14.76
1447.6  260860.60  38845.40  14.89
1451.2  259794.15  39037.27  15.03
1454.9  258504.45  39221.19  15.17
1458.6  257403.47  39514.30  15.35
1462.3  256273.23  39919.95  15.58
1466.0  254932.50  40446.31  15.87
1469.7  253243.36  41109.30  16.23
1473.3  252226.00  42014.36  16.66
1477.0  250309.77  42884.51  17.13
1480.7  248706.66  43862.78  17.64
1484.4  246775.50  44787.29  18.15
1488.0  245226.67  45801.90  18.68
1491.7  243593.28  46768.37  19.20
1495.4  241857.59  47709.74  19.73
1499.0  240221.50  48624.72  20.24
1502.7  238898.58  49589.21  20.76
1506.4  237472.48  50485.95  21.26
1510.0  236058.70  51350.57  21.75
1513.7  234597.71  52142.13  22.23
1517.4  233275.00  52933.00  22.69
1521.0  232047.33  53707.89  23.15
1524.7  230811.75  54415.99  23.58
1528.3  229531.25  55075.39  23.99
1532.0  228322.97  55700.33  24.40
1535.7  226932.54  56225.74  24.78
1539.3  225669.68  56744.58  25.14
1543.0  224693.67  57304.09  25.50
1546.6  223995.42  57896.59  25.85
1550.3  223015.65  58369.72  26.17
1553.9  221937.17  58781.63  26.49
1557.6  220690.07  59103.21  26.78
1561.2  219433.50  59367.21  27.05
1564.9  218116.31  59600.73  27.33
1568.5  216774.37  59795.52  27.58
1572.2  215625.35  60003.54  27.83
1575.8  214550.00  60212.00  28.06
1579.5  213553.15  60413.70  28.29
1583.1  212574.97  60606.56  28.51
1586.8  211344.00  60708.00  28.72
1590.4  210317.57  60834.50  28.93
1594.0  209000.68  60855.89  29.12
1597.7  207822.52  60912.15  29.31
1601.3  206458.88  60901.88  29.50
1604.9  205118.30  60863.92  29.67
1608.6  203779.12  60799.53  29.84
1612.2  202773.45  60788.36  29.98
1615.8  201673.23  60727.36  30.11
1619.5  200580.92  60642.87  30.23
1623.1  199290.37  60477.66  30.35
1626.7  198039.73  60290.15  30.44
1630.3  196809.50  60092.17  30.53
1634.0  195692.00  59890.00  30.60
1637.6  194682.67  59684.87  30.66
1641.2  193665.20  59415.44  30.68
1644.8  192465.88  59011.13  30.66
1648.5  191350.74  58605.23  30.63
1652.1  190378.20  58180.63  30.56
1655.7  189442.20  57749.37  30.48
1659.3  188574.84  57365.52  30.42
1662.9  187127.50  56844.76  30.38
1666.6  185665.93  56363.12  30.36
1670.2  184234.46  55885.90  30.33
1673.8  182773.14  55353.03  30.29
1677.4  181610.30  54853.21  30.20
1681.0  180821.53  54381.78  30.07
1684.6  180421.58  53949.23  29.90
1688.2  179747.45  53321.24  29.66
1691.8  179090.07  52683.77  29.42
1695.4  178664.40  52122.12  29.17
1699.0  178300.97  51610.07  28.95
1702.6  177977.00  51096.29  28.71
1706.2  177380.99  50453.87  28.44
1709.8  176448.28  49726.78  28.18
1713.4  175723.64  49134.09  27.96
1717.0  174861.25  48624.43  27.81
1720.6  174079.05  48221.38  27.70
1724.2  173383.73  47887.93  27.62
1727.8  172683.70  47577.35  27.55
1731.4  172198.13  47306.68  27.47
1735.0  171978.77  47078.19  27.37
1738.6  171695.85  46764.94  27.24
1742.2  171056.92  46296.81  27.07
1745.8  170354.55  45763.77  26.86
1749.4  169368.38  45126.08  26.64
1753.0  167837.67  44354.32  26.43
1756.6  166161.63  43574.83  26.22
1760.1  164807.06  42920.42  26.04
1763.7  163100.67  42184.19  25.86
1767.3  161659.28  41540.48  25.70
1770.9  160435.39  40943.58  25.52
1774.5  158995.76  40306.01  25.35
1778.0  157841.42  39795.66  25.21
1781.6  156741.90  39368.36  25.12
1785.2  155598.90  38983.44  25.05
1788.8  154427.70  38658.16  25.03
1792.3  153232.10  38331.42  25.02
1795.9  152778.82  38195.81  25.00
1799.5  152280.00  38058.81  24.99
1803.1  151582.32  37882.83  24.99
1806.6  152000.51  37980.32  24.99
1810.2  153136.43  38251.07  24.98
1813.8  154199.00  38489.74  24.96
1817.3  154301.00  38471.40  24.93
1820.9  153609.28  38246.32  24.90
1824.5  152441.43  37883.88  24.85
1828.0  151671.21  37579.34  24.78
1831.6  150958.33  37268.28  24.69
1835.2  150308.33  36914.29  24.56
1838.7  149940.40  36538.87  24.37
1842.3  149550.00  36094.28  24.14
1845.8  148696.17  35422.05  23.82
1849.4  148219.55  34706.01  23.42
1852.9  147539.18  33784.67  22.90
1856.5  146629.43  32610.93  22.24
1860.0  145860.96  31234.06  21.41
1863.6  145681.15  29755.30  20.42
1867.1  145672.10  28064.75  19.27
1870.7  145687.38  26017.53  17.86
1874.2  144832.50  23494.76  16.22
1877.8  143449.07  20798.74  14.50
1881.3  141922.50  18087.54  12.74
1884.9  140962.07  15617.02  11.08
1888.4  139998.73  13355.22  9.54
1891.9  139078.47  11466.34  8.24
1895.5  138050.77  9993.63  7.24
1899.0  137658.25  8965.66  6.51
1901.3  169703.00  7693.50  4.53
1904.1  169667.25  7073.50  4.17
1906.8  168918.00  6608.20  3.91
1909.6  167215.65  6245.63  3.74
1912.4  165632.02  5979.36  3.61
1915.1  164448.35  5799.75  3.53
1917.9  163115.50  5687.67  3.49
1920.6  161979.80  5607.40  3.46
1923.3  160895.47  5560.88  3.46
1926.1  159480.50  5526.17  3.47
1928.8  158165.33  5514.67  3.49
1931.6  157109.32  5535.88  3.52
1934.3  156150.55  5569.85  3.57
1937.0  155216.53  5615.10  3.62
1939.8  154220.50  5679.69  3.68
1942.5  152944.00  5742.00  3.75
1945.2  151263.75  5803.23  3.84
1947.9  149918.07  5879.53  3.92
1950.7  148853.77  5980.45  4.02
1953.4  147146.40  6057.88  4.12
1956.1  145807.67  6167.92  4.23
1958.8  144631.93  6288.75  4.35
1961.5  143170.40  6412.40  4.48
1964.2  141659.70  6536.83  4.61
1966.9  140094.00  6660.80  4.75
1969.6  138852.00  6804.00  4.90
1972.3  137460.50  6950.90  5.06
1975.0  136422.75  7118.35  5.22
1977.7  135309.38  7291.38  5.39
1980.4  134156.30  7463.36  5.56
1983.1  133059.92  7641.61  5.74
1985.8  132135.60  7835.80  5.93
1988.4  131092.00  8028.22  6.12
1991.1  130164.77  8224.69  6.32
1993.8  129301.70  8429.97  6.52
1996.5  128664.07  8642.52  6.72
1999.1  127983.35  8852.19  6.92
2001.8  127281.23  9070.76  7.13
2004.5  126601.40  9275.68  7.33
2007.1  125866.15  9468.87  7.52
2009.8  125105.63  9663.58  7.72
2012.4  124502.22  9863.21  7.92
2015.1  123948.77  10054.96  8.11
2017.8  123145.87  10210.36  8.29
2020.4  122623.78  10394.57  8.48
2023.1  122273.90  10570.08  8.64
2025.7  122026.67  10749.56  8.81
2028.3  121671.33  10914.22  8.97
2031.0  121280.12  11056.78  9.12
2033.6  120999.60  11205.60  9.26
2036.2  120747.30  11344.80  9.40
2038.9  120147.00  11437.60  9.52
2041.5  119793.15  11543.77  9.64
2044.1  119216.10  11623.20  9.75
2046.8  118842.00  11704.40  9.85
2049.4  118215.60  11762.40  9.95
2052.0  117926.20  11845.31  10.04
2054.6  117521.25  11923.33  10.15
2057.2  116965.53  11976.31  10.24
2059.8  116642.40  12066.56  10.34
2062.4  115757.33  12087.11  10.44
2065.0  115227.60  12145.16  10.54
2067.6  114327.80  12165.56  10.64
2070.2  113708.92  12209.14  10.74
2072.8  113072.60  12252.73  10.84
2075.4  112630.00  12299.58  10.92
2078.0  111996.28  12328.87  11.01
2080.6  111434.40  12372.80  11.10
2083.2  110740.53  12396.07  11.19
2085.8  110248.40  12425.49  11.27
2088.4  109577.50  12437.33  11.35
2090.9  108788.85  12425.62  11.42
2093.5  107882.60  12407.76  11.50
2096.1  107095.18  12390.36  11.57
2098.7  106331.03  12366.93  11.63
2101.2  105367.67  12331.47  11.70
2103.8  104695.20  12322.73  11.77
2106.4  104014.00  12308.18  11.83
2108.9  103359.00  12293.62  11.89
2111.5  102503.13  12255.78  11.96
2114.0  101874.33  12229.58  12.00
2116.6  101368.75  12226.67  12.06
2119.1  100807.90  12200.28  12.10
2121.7  100310.00  12188.75  12.15
2124.2  99904.93  12179.82  12.19
2126.8  99111.13  12126.86  12.24
2129.3  98709.60  12111.73  12.27
2131.9  98137.60  12079.47  12.31
2134.4  97695.15  12056.65  12.34
2136.9  97299.15  12048.76  12.38
2139.4  96753.07  12020.24  12.42
2142.0  96292.00  11996.60  12.46
2144.5  96004.30  11994.23  12.49
2147.0  95765.33  12000.45  12.53
2149.5  95247.20  11976.62  12.57
2152.1  95070.62  12001.74  12.62
2154.6  95000.53  12028.44  12.66
2157.1  94448.50  11986.97  12.69
2159.6  94012.50  11965.78  12.73
2162.1  93830.10  11969.53  12.76
2164.6  93571.00  11967.71  12.79
2167.1  93256.75  11956.70  12.82
2169.6  92922.43  11941.73  12.85
2172.1  92444.13  11920.23  12.89
2174.6  92110.67  11913.85  12.93
2177.1  91672.92  11895.05  12.98
2179.5  91256.75  11875.65  13.01
2182.0  90779.15  11855.80  13.06
2184.5  90248.90  11835.51  13.11
2187.0  89626.10  11797.96  13.16
2189.5  88934.70  11759.33  13.22
2191.9  88160.00  11704.00  13.28
2194.4  87544.85  11657.37  13.32
2196.9  86812.80  11606.40  13.37
2199.3  86149.33  11558.11  13.42
2201.8  85273.73  11456.13  13.43
2204.3  84816.00  11420.06  13.46
2206.7  84158.40  11360.33  13.50
2209.2  83672.30  11319.71  13.53
2211.6  83051.10  11253.00  13.55
2214.1  82744.20  11240.18  13.58
2216.5  82168.53  11171.69  13.60
2219.0  81830.80  11141.89  13.62
2221.4  81455.50  11093.45  13.62
2223.9  80999.33  11017.42  13.60
2226.3  80483.67  10931.47  13.58
2228.7  79916.63  10832.13  13.55
2231.1  79328.70  10718.40  13.51
2233.6  78741.53  10592.24  13.45
2236.0  78192.92  10455.47  13.37
2238.4  77697.08  10306.72  13.27
2240.9  77261.47  10168.42  13.16
2243.3  76725.07  10012.80  13.05
2245.7  76167.25  9833.92  12.91
2248.1  75666.93  9657.70  12.76
2250.5  75164.52  9490.82  12.63
2252.9  74540.70  9288.93  12.46
2255.3  73988.20  9090.98  12.29
2257.7  73530.00  8916.67  12.13
2260.1  73032.63  8735.69  11.96
2262.5  72430.00  8550.00  11.80
2264.9  71899.97  8379.34  11.65
2267.3  71290.00  8200.00  11.50
2269.7  70785.17  8040.04  11.36
2272.1  70236.87  7896.47  11.24
2274.5  69683.67  7747.07  11.12
2276.8  69205.15  7619.34  11.01
2279.2  68621.40  7480.55  10.90
2281.6  68181.53  7348.67  10.78
2284.0  67720.50  7231.60  10.68
2286.3  67254.93  7110.22  10.57
2288.7  66853.58  6999.34  10.47
2291.1  66301.77  6856.33  10.34
2293.4  65840.13  6738.36  10.23
2295.8  65219.60  6602.30  10.12
2298.2  64635.75  6458.40  9.99
2300.5  63994.05  6323.85  9.88
2302.9  63240.00  6193.11  9.79
2305.2  62531.30  6070.13  9.71
2307.6  61879.37  5963.03  9.64
2309.9  61111.33  5852.11  9.58
2312.2  60501.67  5766.00  9.53
2314.6  59885.10  5678.70  9.48
2316.9  59160.60  5575.20  9.42
2319.2  58582.03  5473.60  9.34
2321.6  57939.00  5371.65  9.27
2323.9  57375.00  5277.78  9.20
2326.2  56840.80  5188.84  9.13
2328.6  56315.05  5103.08  9.06
2330.9  55807.50  5026.00  9.01
2333.2  55319.08  4945.95  8.94
2335.5  54869.60  4872.07  8.88
2337.8  54412.70  4805.77  8.83
2340.1  53830.40  4726.69  8.78
2342.4  53386.67  4654.72  8.72
2344.8  52956.75  4577.72  8.64
2347.1  52409.70  4496.33  8.58
2349.4  51866.47  4432.37  8.55
2351.6  51293.60  4362.60  8.51
2353.9  50786.43  4284.61  8.44
2356.2  50247.33  4205.80  8.37
2358.5  49660.80  4132.80  8.32
2360.8  49089.60  4061.87  8.27
2363.1  48635.47  3996.87  8.22
2365.4  48160.60  3936.17  8.17
2367.7  47674.80  3868.40  8.11
2369.9  47139.65  3793.77  8.05
2372.2  46531.73  3719.02  7.99
2374.5  45934.35  3649.80  7.95
2376.7  45305.00  3570.19  7.88
2379.0  44695.27  3486.12  7.80
2381.3  44065.00  3402.78  7.72
2383.5  43530.67  3324.44  7.64
2385.8  42924.80  3243.68  7.56
2388.0  42397.40  3158.47  7.45
2390.3  41889.33  3089.29  7.37
2392.5  41388.00  3016.00  7.29
2394.8  40922.20  2948.37  7.20
2397.0  40428.27  2879.64  7.12
2399.3  39961.33  2806.23  7.02
2401.5  39506.25  2744.00  6.95
2403.8  38969.93  2668.61  6.85
2406.0  38454.42  2595.08  6.75
2408.2  38023.33  2534.89  6.67
2410.4  37612.28  2475.86  6.58
2412.7  37184.77  2412.80  6.49
2414.9  36798.85  2361.33  6.42
2417.1  36385.50  2294.47  6.31
2419.3  35968.00  2240.00  6.23
2421.6  35572.50  2187.22  6.15
2423.8  35191.53  2148.15  6.10
2426.0  34821.30  2077.33  5.97
2428.2  34456.80  2025.33  5.88
2430.4  34155.23  1980.59  5.80
2432.6  33880.00  1937.78  5.72
2434.8  33563.70  1884.70  5.62
2437.0  33193.77  1831.41  5.52
2439.2  32831.98  1784.20  5.43
2441.4  32515.50  1726.89  5.31
2443.6  32248.10  1690.24  5.24
2445.7  31973.32  1652.12  5.17
2447.9  31702.17  1614.33  5.09
2450.1  31401.75  1568.92  5.00
2452.3  31042.55  1534.01  4.94
2454.5  30650.18  1489.25  4.86
2456.6  30273.87  1445.69  4.78
2458.8  29929.90  1406.17  4.70
2461.0  29611.83  1369.58  4.63
2463.1  29303.70  1324.05  4.52
2465.3  29003.27  1297.49  4.47
2467.5  28762.50  1283.25  4.46
2469.6  28505.75  1253.00  4.40
2471.8  28186.28  1221.36  4.33
2473.9  27858.92  1196.61  4.30
2476.1  27512.33  1172.89  4.26
2478.2  27176.27  1137.42  4.19
2480.4  26862.50  1120.55  4.17
2482.5  26507.47  1099.32  4.15
2484.6  26148.83  1070.05  4.09
2486.8  25905.00  1041.43  4.02
2488.9  25600.57  1031.18  4.03
2491.1  25228.00  999.60  3.96
2493.2  24844.13  973.97  3.92
2495.3  24418.77  951.31  3.90
2497.4  24069.50  923.07  3.84
2499.5  23724.77  900.87  3.80
2501.7  23598.27  909.31  3.85
2503.8  23503.63  902.70  3.84
2505.9  23438.33  882.64  3.77
2508.0  23419.78  881.67  3.76
2510.1  23409.28  894.16  3.82
2512.2  23524.70  886.92  3.77
2514.3  23672.22  892.22  3.77
2516.4  23896.10  919.33  3.85
