/*** Spectra Vista SIG Data ***/
name= 23_20221020_ACSA_19_avg.sig
comm= Averaged Ref/Tar of files: HR.102022.0065_moc.sig,HR.102022.0066_moc.sig,HR.102022.0067_moc.sig
data=
337.3  3176.00  245.76  7.74
338.8  3270.80  246.00  7.52
340.3  3466.90  235.14  6.78
341.8  3658.00  236.90  6.48
343.2  3774.00  240.18  6.36
344.7  3966.45  248.99  6.28
346.2  4125.85  233.04  5.65
347.7  4365.08  232.20  5.32
349.2  4536.00  231.84  5.11
350.6  4774.25  236.09  4.95
352.1  5072.95  238.85  4.71
353.6  5343.80  253.81  4.75
355.1  5590.05  256.25  4.58
356.6  5899.50  261.27  4.43
358.0  6188.60  257.33  4.16
359.5  6458.10  263.39  4.08
361.0  6763.05  274.74  4.06
362.5  7113.83  290.80  4.09
364.0  7484.18  299.86  4.01
365.4  7839.90  308.56  3.94
366.9  8204.63  309.66  3.77
368.4  8537.08  324.44  3.80
369.9  8891.23  339.23  3.82
371.3  9291.60  360.58  3.88
372.8  9717.30  375.24  3.86
374.3  10158.75  385.98  3.80
375.8  10537.45  392.19  3.72
377.2  10948.30  401.96  3.67
378.7  11378.70  408.88  3.59
380.2  11782.20  415.28  3.52
381.7  12269.35  423.39  3.45
383.1  12747.35  428.38  3.36
384.6  13244.73  443.93  3.35
386.1  13701.68  456.08  3.33
387.6  14121.80  473.55  3.35
389.0  14606.00  482.91  3.31
390.5  15053.85  489.78  3.25
392.0  15605.50  504.57  3.23
393.4  16159.13  514.99  3.19
394.9  16704.00  531.20  3.18
396.4  17232.75  537.46  3.12
397.9  17758.13  560.82  3.16
399.3  18309.98  577.65  3.15
400.8  18868.23  591.55  3.14
402.2  19468.15  602.76  3.10
403.7  20078.55  613.11  3.05
405.2  20691.95  626.82  3.03
406.6  21251.20  647.61  3.05
408.1  21831.60  661.21  3.03
409.6  22432.90  680.45  3.03
411.0  23079.35  696.82  3.02
412.5  23740.50  711.82  3.00
414.0  24388.88  733.11  3.01
415.4  25082.25  750.90  2.99
416.9  25732.13  778.71  3.03
418.4  26425.13  804.09  3.04
419.8  27136.20  827.32  3.05
421.3  27860.48  850.51  3.05
422.7  28605.60  871.82  3.05
424.2  29362.50  899.68  3.06
425.7  30122.40  928.32  3.08
427.1  30874.58  957.94  3.10
428.6  31682.00  992.15  3.13
430.0  32428.98  1017.16  3.14
431.5  33282.75  1047.88  3.15
432.9  34149.15  1081.87  3.17
434.4  35024.63  1113.26  3.18
435.9  35868.00  1146.40  3.20
437.3  36712.50  1183.68  3.22
438.8  37562.03  1217.61  3.24
440.2  38417.23  1249.33  3.25
441.7  39382.60  1284.61  3.26
443.1  40266.75  1316.29  3.27
444.6  41238.80  1355.54  3.29
446.0  42181.73  1394.51  3.31
447.5  43143.65  1434.06  3.32
448.9  44066.40  1470.23  3.34
450.4  45066.00  1508.61  3.35
451.8  45942.00  1540.93  3.35
453.3  46860.80  1579.84  3.37
454.7  47877.95  1617.89  3.38
456.2  48734.13  1653.50  3.39
457.6  49701.60  1690.60  3.40
459.1  50674.98  1729.33  3.41
460.5  51614.13  1763.08  3.42
462.0  52693.40  1800.63  3.42
463.4  53731.40  1839.19  3.42
464.8  54709.13  1874.45  3.43
466.3  55679.25  1913.54  3.44
467.7  56651.88  1954.55  3.45
469.2  57707.50  1991.55  3.45
470.6  58700.90  2026.68  3.45
472.0  59748.38  2062.59  3.45
473.5  60765.75  2099.11  3.45
474.9  61802.25  2136.82  3.46
476.4  62971.20  2179.20  3.46
477.8  64017.50  2223.89  3.47
479.2  65018.00  2262.83  3.48
480.7  66107.33  2310.21  3.49
482.1  67235.85  2350.26  3.50
483.6  68420.75  2397.60  3.50
485.0  69494.48  2439.24  3.51
486.4  70683.90  2488.19  3.52
487.9  71750.25  2535.98  3.53
489.3  72903.48  2592.44  3.56
490.7  73948.95  2650.36  3.58
492.2  75161.10  2718.66  3.62
493.6  76267.90  2775.69  3.64
495.0  77380.88  2845.19  3.68
496.5  78555.28  2919.91  3.72
497.9  79641.23  3007.96  3.78
499.3  80800.55  3102.71  3.84
500.7  82054.65  3214.21  3.92
502.2  83220.00  3331.02  4.00
503.6  84475.60  3468.82  4.11
505.0  85556.00  3617.99  4.23
506.5  86862.23  3795.06  4.37
507.9  88001.20  3991.88  4.54
509.3  89332.80  4220.40  4.72
510.7  90572.63  4479.57  4.95
512.2  91959.68  4775.51  5.19
513.6  93447.20  5105.59  5.46
515.0  94894.98  5474.46  5.77
516.4  96276.60  5878.17  6.11
517.8  97886.25  6331.23  6.47
519.3  99214.68  6802.52  6.86
520.7  100780.65  7313.63  7.26
522.1  102073.40  7828.93  7.67
523.5  103416.00  8360.52  8.08
524.9  104904.00  8906.48  8.49
526.3  106319.15  9444.90  8.88
527.8  107796.15  9987.54  9.27
529.2  108814.70  10495.28  9.65
530.6  110354.65  11042.97  10.01
532.0  112042.00  11586.80  10.34
533.4  113391.98  12067.14  10.64
534.8  114290.45  12479.24  10.92
536.3  115867.80  12942.75  11.17
537.7  117759.60  13432.08  11.41
539.1  119170.43  13853.53  11.62
540.5  120379.50  14238.05  11.83
541.9  122106.75  14678.49  12.02
543.3  123424.23  15063.27  12.20
544.7  124738.80  15443.96  12.38
546.1  126539.33  15877.89  12.55
547.5  127780.80  16233.49  12.70
549.0  129415.00  16628.75  12.85
550.4  130910.63  16985.94  12.98
551.8  132478.18  17327.16  13.08
553.2  133975.25  17622.64  13.15
554.6  135304.00  17849.47  13.19
556.0  136816.65  18052.96  13.20
557.4  138427.28  18231.59  13.17
558.8  140066.55  18381.50  13.12
560.2  141525.38  18468.69  13.05
561.6  143197.80  18540.61  12.95
563.0  144774.98  18565.69  12.82
564.4  146381.25  18560.97  12.68
565.8  147900.00  18521.30  12.52
567.2  149650.75  18477.00  12.35
568.6  151119.00  18369.53  12.16
570.0  152530.55  18204.81  11.94
571.4  154246.95  18040.02  11.70
572.8  156005.88  17871.62  11.46
574.2  157617.60  17685.65  11.22
575.6  159176.25  17507.68  11.00
577.0  160697.30  17345.18  10.79
578.4  162400.88  17229.44  10.61
579.8  163920.38  17104.31  10.43
581.2  165626.68  17014.59  10.27
582.5  167052.60  16915.97  10.13
583.9  168563.00  16841.41  9.99
585.3  170348.63  16805.85  9.87
586.7  171813.20  16757.70  9.75
588.1  173290.50  16726.73  9.65
589.5  174930.00  16724.63  9.56
590.9  176551.20  16736.34  9.48
592.3  178348.05  16785.45  9.41
593.7  179794.88  16821.42  9.36
595.0  181396.80  16878.80  9.30
596.4  182828.10  16923.68  9.26
597.8  184305.20  16979.20  9.21
599.2  185842.80  17023.85  9.16
600.6  187589.35  17070.34  9.10
602.0  188862.90  17052.44  9.03
603.3  190621.40  17054.03  8.95
604.7  192284.18  17009.23  8.85
606.1  193752.00  16919.59  8.73
607.5  195381.68  16812.25  8.60
608.9  197065.30  16681.36  8.46
610.2  198435.83  16497.95  8.31
611.6  200034.30  16329.14  8.16
613.0  201577.50  16148.08  8.01
614.4  202943.40  15955.39  7.86
615.8  204384.38  15775.78  7.72
617.1  205917.60  15622.88  7.59
618.5  207525.60  15501.94  7.47
619.9  209039.55  15398.90  7.37
621.3  210642.98  15331.71  7.28
622.6  212219.00  15298.07  7.21
624.0  213658.05  15290.94  7.16
625.4  215108.03  15313.58  7.12
626.8  216643.70  15372.33  7.10
628.1  217917.98  15430.90  7.08
629.5  219683.35  15534.60  7.07
630.9  221161.60  15614.49  7.06
632.2  222389.48  15648.69  7.04
633.6  223892.25  15667.25  7.00
635.0  225320.00  15620.71  6.93
636.3  226820.30  15515.63  6.84
637.7  228168.50  15322.27  6.72
639.1  229775.00  15082.67  6.56
640.4  231242.03  14763.00  6.38
641.8  232420.18  14392.07  6.19
643.2  233964.50  14026.88  6.00
644.5  235297.25  13651.35  5.80
645.9  236842.65  13295.25  5.61
647.2  237827.10  12954.11  5.45
648.6  239274.00  12694.05  5.31
650.0  240602.40  12471.22  5.18
651.3  241602.63  12284.63  5.08
652.7  243822.90  12187.74  5.00
654.0  245946.00  12082.04  4.91
655.4  247336.50  11937.79  4.83
656.8  247566.20  11717.31  4.73
658.1  248950.90  11534.41  4.63
659.5  251124.30  11352.65  4.52
660.8  252405.00  11116.71  4.40
662.2  253388.80  10855.68  4.28
663.5  254902.20  10636.64  4.17
664.9  255918.00  10420.47  4.07
666.2  256720.80  10230.18  3.98
667.6  258411.88  10113.65  3.91
668.9  259330.33  10013.97  3.86
670.3  261205.75  9975.20  3.82
671.6  262203.38  9940.87  3.79
673.0  263376.00  9953.51  3.78
674.3  264647.50  9995.30  3.78
675.7  265937.53  10070.62  3.79
677.0  267009.08  10160.24  3.81
678.4  268308.55  10282.74  3.83
679.7  269365.75  10436.29  3.87
681.1  270639.50  10651.71  3.94
682.4  271719.50  10926.24  4.02
683.8  272890.80  11298.36  4.14
685.1  273885.38  11802.53  4.31
686.4  275213.40  12511.50  4.55
687.8  276411.75  13497.49  4.88
689.1  277546.50  14835.88  5.35
690.5  278860.95  16661.61  5.97
691.8  279633.95  19027.34  6.80
693.1  280995.90  22055.49  7.85
694.5  282145.50  25689.95  9.11
695.8  283396.75  29859.48  10.54
697.1  284579.75  34467.98  12.11
698.5  285634.10  39417.14  13.80
699.8  286702.70  44599.78  15.56
701.1  287859.13  49915.23  17.34
702.5  288640.00  55160.09  19.11
703.8  289575.00  60331.71  20.83
705.1  290717.70  65379.34  22.49
706.5  291747.63  70209.56  24.07
707.8  292695.60  74812.47  25.56
709.1  293551.43  79165.51  26.97
710.5  294645.35  83398.55  28.30
711.8  295475.00  87359.29  29.57
713.1  296433.90  91197.66  30.76
714.4  297348.20  94842.11  31.90
715.8  298151.00  98310.29  32.97
717.1  299445.30  101791.05  33.99
718.4  300406.40  105015.47  34.96
719.7  301479.65  108141.78  35.87
721.0  301995.00  110938.93  36.74
722.4  302733.75  113667.89  37.55
723.7  303668.55  116343.77  38.31
725.0  304674.08  118905.21  39.03
726.3  305603.93  121307.49  39.69
727.6  306151.73  123427.60  40.32
729.0  307011.60  125557.39  40.90
730.3  307798.20  127513.77  41.43
731.6  308682.10  129400.78  41.92
732.9  309441.13  131120.93  42.37
734.2  310209.63  132755.31  42.80
735.5  311188.70  134379.95  43.18
736.8  311963.10  135815.22  43.54
738.1  312803.20  137196.24  43.86
739.5  313767.33  138524.36  44.15
740.8  314430.33  139658.55  44.42
742.1  315113.23  140729.55  44.66
743.4  315725.00  141714.52  44.89
744.7  316600.80  142743.93  45.09
746.0  317458.05  143712.53  45.27
747.3  317990.45  144489.73  45.44
748.6  318733.50  145284.44  45.58
749.9  319384.00  146005.10  45.71
751.2  319971.40  146655.18  45.83
752.5  320703.60  147351.27  45.95
753.8  321217.93  147903.11  46.04
755.1  321854.00  148481.05  46.13
756.4  322375.73  149000.02  46.22
757.7  323356.08  149683.91  46.29
759.0  325085.10  150701.34  46.36
760.3  326224.80  151405.01  46.41
761.6  327738.60  152269.55  46.46
762.9  328222.50  152640.85  46.51
764.2  328556.60  152932.39  46.55
765.5  328759.13  153144.24  46.58
766.8  329120.00  153414.74  46.61
768.1  329594.60  153735.40  46.64
769.3  330141.00  154076.86  46.67
770.6  330760.30  154451.17  46.70
771.9  331394.35  154829.14  46.72
773.2  331740.40  155052.64  46.74
774.5  332246.20  155359.83  46.76
775.8  332842.45  155696.58  46.78
777.1  333359.40  155988.31  46.79
778.4  333620.65  156166.60  46.81
779.6  334317.08  156545.72  46.83
780.9  334740.00  156782.29  46.84
782.2  335139.75  157024.58  46.85
783.5  335347.50  157190.61  46.87
784.8  335776.73  157429.44  46.89
786.0  336108.50  157615.74  46.89
787.3  336436.28  157800.36  46.90
788.6  336772.15  158009.00  46.92
789.9  337166.20  158219.76  46.93
791.2  337737.60  158527.94  46.94
792.4  338323.50  158834.61  46.95
793.7  338742.80  159060.66  46.96
795.0  339298.58  159350.22  46.96
796.2  339854.25  159651.48  46.98
797.5  340443.90  159945.01  46.98
798.8  341048.45  160257.31  46.99
800.0  341623.80  160560.60  47.00
801.3  342011.40  160759.49  47.00
802.6  342544.50  161036.78  47.01
803.8  343125.25  161337.02  47.02
805.1  343478.63  161543.48  47.03
806.4  343852.50  161747.93  47.04
807.7  344351.25  161991.48  47.04
808.9  344863.30  162249.38  47.05
810.2  345311.05  162477.05  47.05
811.4  345742.20  162709.00  47.06
812.7  346328.13  163013.42  47.07
814.0  347059.10  163385.10  47.08
815.2  347694.00  163688.23  47.08
816.5  348050.08  163886.49  47.09
817.7  348456.20  164097.95  47.09
819.0  348903.50  164337.00  47.10
820.2  349052.00  164417.94  47.10
821.5  349698.80  164743.19  47.11
822.7  350021.03  164929.49  47.12
824.0  350262.90  165080.01  47.13
825.2  350709.75  165303.99  47.13
826.5  351016.88  165457.10  47.14
827.7  351591.03  165710.49  47.13
829.0  351940.68  165900.27  47.14
830.2  352232.35  166060.16  47.15
831.5  352755.10  166304.56  47.14
832.7  353012.10  166453.46  47.15
834.0  353385.20  166636.27  47.15
835.2  353703.35  166805.90  47.16
836.4  354030.60  166950.95  47.16
837.7  354468.00  167164.16  47.16
838.9  354848.23  167392.33  47.17
840.1  355254.53  167584.65  47.17
841.4  355681.90  167789.97  47.17
842.6  356048.00  167995.42  47.18
843.8  356405.20  168184.23  47.19
845.1  356930.90  168451.13  47.19
846.3  357354.60  168670.36  47.20
847.5  357726.60  168861.20  47.20
848.8  358131.00  169103.63  47.22
850.0  358545.95  169285.07  47.21
851.2  359063.55  169572.24  47.23
852.5  359565.60  169765.47  47.21
853.7  360049.50  170027.21  47.22
854.9  360443.30  170259.12  47.24
856.1  360927.45  170494.87  47.24
857.4  361168.13  170588.27  47.23
858.6  361716.85  170856.12  47.23
859.8  362137.50  171061.57  47.24
861.0  362583.00  171293.35  47.24
862.2  363051.10  171506.01  47.24
863.5  363434.50  171702.79  47.24
864.7  364016.40  171974.88  47.24
865.9  364357.60  172151.66  47.25
867.1  364669.70  172323.19  47.25
868.3  365118.30  172507.15  47.25
869.5  365616.45  172751.46  47.25
870.8  366205.50  173013.86  47.25
872.0  366752.48  173272.81  47.25
873.2  367148.70  173478.86  47.25
874.4  367549.65  173676.56  47.25
875.6  367922.30  173866.95  47.26
876.8  368409.20  174097.23  47.26
878.0  368976.35  174296.31  47.24
879.2  369445.50  174544.99  47.25
880.4  369957.00  174766.69  47.24
881.6  370438.50  174991.31  47.24
882.8  370819.20  175166.95  47.24
884.0  371406.75  175422.39  47.23
885.2  371935.70  175623.01  47.22
886.5  372459.20  175866.31  47.22
887.7  372883.55  176090.61  47.22
888.8  373588.58  176380.68  47.21
890.0  374145.15  176608.56  47.20
891.2  374706.30  176854.73  47.20
892.4  375253.73  177091.31  47.19
893.6  375765.00  177339.97  47.19
894.8  376630.75  177717.88  47.19
896.0  377348.50  178092.31  47.20
897.2  378215.50  178441.68  47.18
898.4  378919.20  178748.30  47.17
899.6  379455.38  178948.93  47.16
900.8  379740.85  179099.00  47.16
902.0  379886.40  179165.70  47.16
903.2  380163.08  179246.09  47.15
904.3  380395.50  179352.90  47.15
905.5  380929.20  179588.36  47.14
906.7  381587.00  179829.40  47.13
907.9  381952.55  180012.35  47.13
909.1  382204.58  180121.55  47.13
910.2  382275.90  180150.37  47.13
911.4  382440.83  180210.73  47.12
912.6  382639.40  180257.49  47.11
913.8  382860.08  180305.17  47.09
915.0  383096.70  180461.12  47.11
916.2  383165.25  180455.79  47.10
917.3  382983.98  180371.56  47.10
918.5  383274.60  180400.38  47.07
919.7  383336.70  180444.00  47.07
920.8  383378.05  180456.65  47.07
922.0  383363.75  180454.63  47.07
923.2  383428.50  180480.30  47.07
924.4  383713.88  180487.13  47.04
925.5  383860.80  180546.06  47.03
926.7  384412.50  180709.13  47.01
927.9  385214.40  181019.92  46.99
929.0  386563.05  181606.92  46.98
930.2  388608.90  182530.18  46.97
931.4  391030.20  183582.52  46.95
932.5  393566.70  184763.29  46.95
933.7  394807.35  185275.25  46.93
934.9  395460.63  185470.21  46.90
936.0  394884.75  185148.63  46.89
937.2  392447.40  184045.00  46.90
938.3  390796.70  183057.90  46.84
939.5  389160.00  182257.41  46.83
940.7  389181.60  182189.44  46.81
941.8  390671.48  182756.09  46.78
943.0  391840.50  183237.89  46.76
944.2  392697.50  183467.58  46.72
945.3  392174.25  183132.86  46.70
946.5  391437.90  182601.32  46.65
947.6  391316.40  182492.64  46.64
948.8  391154.40  182252.30  46.59
949.9  391246.80  182089.28  46.54
951.1  390422.18  181664.19  46.53
952.2  390252.00  181354.06  46.47
953.4  390044.50  181035.84  46.41
954.5  389610.00  180750.96  46.39
955.7  389415.60  180433.92  46.33
956.8  389169.40  180087.09  46.27
958.0  388732.50  179670.25  46.22
959.1  388247.00  179395.48  46.21
960.3  387737.85  179010.35  46.17
961.4  387711.15  178765.07  46.11
962.6  387675.75  178616.03  46.07
963.7  387368.18  178353.61  46.04
964.9  387080.55  178167.98  46.03
966.0  386791.20  177987.15  46.02
967.2  386715.60  177886.16  46.00
968.3  386402.40  177690.32  45.99
969.5  386372.65  177484.86  45.94
970.6  386314.05  177376.14  45.92
971.8  386258.25  177362.26  45.92
972.9  385910.10  177317.04  45.95
974.0  386191.50  177249.25  45.90
975.2  385812.38  177040.63  45.89
976.3  385772.90  176923.55  45.86
977.5  385738.50  176849.04  45.85
978.6  385696.40  176828.96  45.85
979.7  385650.30  176766.50  45.84
980.9  385540.88  176492.05  45.78
982.0  384919.90  176301.63  45.80
983.2  384726.53  176103.68  45.77
984.3  383922.80  175771.70  45.78
985.4  384173.80  175727.00  45.74
986.6  383828.13  175528.62  45.73
987.7  384812.75  175790.17  45.68
988.9  383995.80  175521.24  45.71
990.0  384953.30  175659.85  45.63
993.1  392435.34  178146.69  45.40
996.9  390715.70  177709.69  45.48
1000.7  390457.20  177905.58  45.56
1004.5  390415.00  178154.61  45.63
1008.4  389999.25  178239.35  45.70
1012.2  389727.83  178334.86  45.76
1016.0  389206.80  178303.54  45.81
1019.8  388322.55  178112.55  45.87
1023.7  386853.23  177626.62  45.92
1027.5  384920.52  176945.84  45.97
1031.3  383684.85  176518.77  46.01
1035.1  382493.30  176110.02  46.04
1038.9  381920.37  175991.10  46.08
1042.7  381641.42  175971.56  46.11
1046.5  381528.83  175997.62  46.13
1050.3  381534.41  176037.06  46.14
1054.2  381171.58  175924.67  46.15
1058.0  380777.19  175746.33  46.15
1061.8  380774.20  175776.87  46.16
1065.6  380101.87  175454.73  46.16
1069.4  379148.93  175014.54  46.16
1073.2  377728.53  174302.02  46.14
1077.0  376963.88  173861.91  46.12
1080.8  377241.67  173844.64  46.08
1084.6  377466.60  173832.17  46.05
1088.4  377860.56  173939.61  46.03
1092.2  377442.00  173623.82  46.00
1096.0  376776.23  173180.78  45.96
1099.8  376050.78  172688.26  45.92
1103.6  375087.13  172086.37  45.88
1107.4  373876.99  171364.09  45.83
1111.2  373589.90  171043.54  45.78
1114.9  373086.00  170590.42  45.72
1118.7  372873.60  170210.70  45.65
1122.5  372560.07  169720.57  45.56
1126.3  371670.48  168891.97  45.44
1130.1  371277.97  168111.15  45.28
1133.9  369567.10  166507.40  45.05
1137.7  367998.30  164759.03  44.77
1141.4  365903.20  162610.42  44.44
1145.2  364924.51  160831.54  44.07
1149.0  363594.58  159006.67  43.73
1152.8  361768.80  157102.46  43.43
1156.6  359898.00  155443.75  43.19
1160.3  358089.33  154043.91  43.02
1164.1  355745.33  152614.61  42.90
1167.9  354104.17  151632.29  42.82
1171.7  352792.13  150862.50  42.76
1175.4  351289.10  150050.33  42.71
1179.2  349828.95  149233.98  42.66
1183.0  349485.67  148880.24  42.60
1186.7  349540.80  148722.50  42.55
1190.5  349302.47  148461.28  42.50
1194.3  348402.20  147943.10  42.46
1198.0  346848.70  147204.95  42.44
1201.8  345105.53  146460.77  42.44
1205.6  344045.00  146095.10  42.46
1209.3  343570.08  146077.44  42.52
1213.1  343201.95  146123.56  42.58
1216.8  342625.98  146173.97  42.66
1220.6  341530.93  145959.73  42.74
1224.3  340271.92  145673.02  42.81
1228.1  338704.60  145264.43  42.89
1231.9  337084.95  144758.51  42.94
1235.6  335292.08  144159.16  43.00
1239.4  333685.50  143649.30  43.05
1243.1  332245.46  143152.85  43.09
1246.9  330960.99  142669.45  43.11
1250.6  329901.60  142254.89  43.12
1254.3  328711.17  141793.65  43.14
1258.1  327423.37  141250.43  43.14
1261.8  325910.53  140609.16  43.14
1265.6  324765.00  140068.71  43.13
1269.3  324096.83  139706.20  43.11
1273.1  324510.23  139773.36  43.07
1276.8  324195.20  139493.71  43.03
1280.6  322848.87  138772.96  42.98
1284.3  320751.20  137663.94  42.92
1288.0  319506.07  136873.17  42.84
1291.8  319148.75  136404.48  42.74
1295.5  318536.53  135787.35  42.63
1299.2  317371.25  134900.40  42.51
1302.9  315725.37  133723.28  42.35
1306.7  313902.17  132412.58  42.18
1310.4  312157.43  131006.05  41.97
1314.1  310526.52  129598.18  41.73
1317.9  309094.17  128134.55  41.45
1321.6  307524.91  126535.73  41.15
1325.3  305809.35  124779.75  40.80
1329.0  304489.85  123135.63  40.44
1332.8  302563.80  121145.20  40.04
1336.5  300921.27  119269.74  39.63
1340.2  300846.00  118031.33  39.23
1343.9  300927.29  116845.62  38.83
1347.6  301321.35  115791.13  38.43
1351.4  303164.50  115342.14  38.05
1355.1  305731.43  115161.98  37.67
1358.8  307856.00  114736.00  37.27
1362.5  308327.85  113550.81  36.83
1366.2  306171.70  111162.76  36.31
1369.9  302672.75  107988.55  35.68
1373.6  299678.58  104554.06  34.89
1377.3  298252.20  101026.33  33.87
1381.0  297854.67  97055.43  32.58
1384.8  295831.25  91675.54  30.99
1388.4  292399.10  85323.60  29.18
1392.2  290062.92  78930.11  27.21
1395.9  288546.15  72689.40  25.19
1399.6  286647.11  66672.60  23.26
1403.3  285068.25  61306.67  21.51
1407.0  283212.30  56627.66  19.99
1410.7  281225.18  52732.94  18.75
1414.3  279172.31  49599.61  17.77
1418.1  277329.67  47209.74  17.02
1421.7  275843.17  45400.38  16.46
1425.4  274384.83  44035.64  16.05
1429.1  273060.00  43041.22  15.76
1432.8  271325.34  42258.46  15.57
1436.5  270508.03  41812.50  15.46
1440.2  269910.43  41563.00  15.40
1443.9  268811.40  41356.11  15.38
1447.6  267220.80  41168.60  15.41
1451.2  265956.90  41093.70  15.45
1454.9  264473.55  41034.85  15.52
1458.6  263198.67  41139.88  15.63
1462.3  261985.90  41386.77  15.80
1466.0  260597.67  41764.63  16.03
1469.7  258868.35  42262.71  16.33
1473.3  257788.50  42991.24  16.68
1477.0  255714.37  43665.03  17.08
1480.7  253984.18  44462.97  17.51
1484.4  251920.34  45219.01  17.95
1488.0  250316.00  46103.62  18.42
1491.7  248714.96  46964.32  18.88
1495.4  247054.92  47826.21  19.36
1499.0  245528.50  48676.50  19.83
1502.7  244218.33  49583.04  20.30
1506.4  242799.42  50416.21  20.76
1510.0  241316.90  51215.11  21.22
1513.7  239799.88  51960.42  21.67
1517.4  238420.67  52703.67  22.11
1521.0  237154.80  53447.01  22.54
1524.7  235881.75  54128.28  22.95
1528.3  234588.00  54776.75  23.35
1532.0  233362.62  55387.75  23.73
1535.7  231955.11  55905.28  24.10
1539.3  230667.57  56414.89  24.46
1543.0  229666.63  56967.89  24.80
1546.6  228938.67  57556.57  25.14
1550.3  227919.10  58018.47  25.46
1553.9  226862.87  58434.80  25.76
1557.6  225594.60  58760.85  26.05
1561.2  224288.10  59030.42  26.32
1564.9  222939.01  59276.05  26.59
1568.5  221605.77  59480.17  26.84
1572.2  220430.45  59704.47  27.09
1575.8  219310.00  59918.00  27.32
1579.5  218262.15  60120.87  27.55
1583.1  217178.63  60300.57  27.77
1586.8  215810.00  60368.00  27.97
1590.4  214555.63  60445.57  28.17
1594.0  213201.41  60470.69  28.36
1597.7  212417.18  60647.55  28.55
1601.3  211505.18  60784.43  28.74
1604.9  210543.59  60876.00  28.91
1608.6  209162.70  60815.52  29.08
1612.2  207766.35  60728.25  29.23
1615.8  206312.93  60591.61  29.37
1619.5  205020.33  60487.80  29.50
1623.1  203661.93  60336.00  29.63
1626.7  202427.88  60190.32  29.73
1630.3  201235.00  60032.52  29.83
1634.0  200116.00  59874.00  29.92
1637.6  199099.60  59715.01  29.99
1641.2  198048.80  59489.71  30.04
1644.8  196811.25  59158.26  30.06
1648.5  195690.98  58838.75  30.07
1652.1  194706.90  58517.01  30.05
1655.7  193787.40  58189.57  30.03
1659.3  192949.77  57905.56  30.01
1662.9  191505.00  57451.90  30.00
1666.6  190040.67  57000.15  29.99
1670.2  188606.60  56530.57  29.97
1673.8  187110.56  56004.64  29.93
1677.4  185923.65  55523.59  29.86
1681.0  185072.18  55075.48  29.76
1684.6  184646.58  54681.56  29.61
1688.2  183964.15  54115.66  29.42
1691.8  183261.86  53564.59  29.23
1695.4  182810.80  53077.57  29.03
1699.0  182428.63  52620.63  28.84
1702.6  182062.00  52146.71  28.64
1706.2  181415.33  51542.73  28.41
1709.8  180434.18  50863.55  28.19
1713.4  179667.89  50309.01  28.00
1717.0  178755.25  49814.96  27.87
1720.6  177920.55  49388.60  27.76
1724.2  177159.75  49009.44  27.66
1727.8  176431.15  48663.10  27.58
1731.4  175964.25  48384.88  27.50
1735.0  175782.93  48175.97  27.41
1738.6  175558.35  47899.41  27.28
1742.2  175027.05  47471.01  27.12
1745.8  174423.98  46975.46  26.93
1749.4  173490.90  46375.61  26.73
1753.0  171985.07  45623.62  26.53
1756.6  170304.46  44864.50  26.34
1760.1  168963.29  44218.69  26.17
1763.7  167179.33  43494.10  26.02
1767.3  165680.65  42865.04  25.87
1770.9  164408.88  42296.86  25.73
1774.5  162921.77  41704.91  25.60
1778.0  161760.87  41245.37  25.50
1781.6  160635.45  40874.70  25.45
1785.2  159460.33  40546.04  25.43
1788.8  158278.20  40256.60  25.43
1792.3  157009.97  39959.21  25.45
1795.9  156465.83  39851.20  25.47
1799.5  156322.00  39856.00  25.50
1803.1  157618.30  40239.15  25.53
1806.6  160081.02  40925.11  25.57
1810.2  162060.73  41475.93  25.59
1813.8  162938.75  41734.00  25.61
1817.3  162381.20  41595.51  25.62
1820.9  161059.55  41244.42  25.61
1824.5  159593.45  40825.75  25.58
1828.0  158436.67  40457.94  25.54
1831.6  158014.63  40245.52  25.47
1835.2  157873.33  40032.97  25.36
1838.7  157715.73  39734.14  25.19
1842.3  157500.00  39347.14  24.98
1845.8  156173.79  38569.96  24.70
1849.4  155508.28  37812.06  24.32
1852.9  154573.88  36817.61  23.82
1856.5  153462.90  35574.09  23.18
1860.0  152352.62  34096.74  22.38
1863.6  152371.10  32610.54  21.40
1867.1  153200.95  31009.65  20.24
1870.7  154225.50  29070.71  18.85
1874.2  153079.65  26391.41  17.24
1877.8  150134.00  23307.57  15.52
1881.3  146839.50  20173.54  13.74
1884.9  144791.72  17390.92  12.01
1888.4  143112.94  14867.83  10.39
1891.9  141403.13  12722.27  9.00
1895.5  139933.48  11027.34  7.88
1899.0  139200.50  9818.52  7.05
1901.3  180741.50  9328.83  5.16
1904.1  180696.75  8503.25  4.71
1906.8  179549.40  7820.80  4.36
1909.6  177155.65  7247.92  4.09
1912.4  174901.88  6840.99  3.91
1915.1  173280.25  6545.92  3.78
1917.9  171628.17  6315.45  3.68
1920.6  170179.30  6148.16  3.61
1923.3  168598.97  6013.70  3.57
1926.1  166672.30  5899.77  3.54
1928.8  164838.67  5837.33  3.54
1931.6  163395.90  5803.00  3.55
1934.3  162096.92  5786.24  3.57
1937.0  160880.57  5790.45  3.60
1939.8  159514.08  5814.83  3.65
1942.5  157828.00  5841.00  3.70
1945.2  155736.35  5865.93  3.77
1947.9  154011.67  5912.98  3.84
1950.7  152682.30  5986.97  3.92
1953.4  150756.30  6057.88  4.02
1956.1  149254.17  6136.53  4.11
1958.8  147939.35  6242.17  4.22
1961.5  146362.80  6348.00  4.34
1964.2  144753.70  6467.07  4.47
1966.9  143089.55  6579.35  4.60
1969.6  141768.00  6705.00  4.73
1972.3  140317.40  6855.97  4.89
1975.0  139228.20  7018.05  5.04
1977.7  138077.82  7179.71  5.20
1980.4  136900.27  7346.47  5.37
1983.1  135762.08  7513.77  5.53
1985.8  134815.20  7708.20  5.72
1988.4  133752.67  7889.55  5.90
1991.1  132789.30  8072.17  6.08
1993.8  131895.32  8266.26  6.27
1996.5  131240.45  8478.80  6.46
1999.1  130542.50  8691.34  6.66
2001.8  129828.07  8900.97  6.86
2004.5  129127.20  9102.68  7.05
2007.1  128383.30  9301.63  7.25
2009.8  127592.03  9496.66  7.44
2012.4  126992.43  9699.49  7.64
2015.1  126435.17  9899.55  7.83
2017.8  125623.63  10075.10  8.02
2020.4  125114.00  10279.68  8.22
2023.1  124743.03  10475.11  8.40
2025.7  124496.67  10683.11  8.58
2028.3  124158.67  10873.78  8.76
2031.0  123754.87  11048.09  8.93
2033.6  123461.70  11223.00  9.09
2036.2  123200.70  11388.30  9.24
2038.9  122574.30  11524.60  9.40
2041.5  122207.67  11671.62  9.55
2044.1  121626.00  11794.30  9.70
2046.8  121243.20  11921.90  9.83
2049.4  120590.70  12014.70  9.96
2052.0  120292.93  12136.42  10.09
2054.6  119883.75  12247.08  10.22
2057.2  119297.33  12340.20  10.34
2059.8  118948.00  12465.38  10.48
2062.4  118041.10  12525.85  10.61
2065.0  117498.27  12616.76  10.74
2067.6  116594.13  12662.41  10.86
2070.2  115966.53  12743.77  10.99
2072.8  115304.07  12819.31  11.12
2075.4  114852.50  12912.08  11.24
2078.0  114209.68  12970.06  11.36
2080.6  113634.40  13047.47  11.48
2083.2  112914.67  13106.17  11.61
2085.8  112400.32  13172.07  11.72
2088.4  111724.00  13217.61  11.83
2090.9  110904.85  13254.39  11.95
2093.5  110004.13  13266.89  12.06
2096.1  109211.97  13286.25  12.17
2098.7  108421.47  13315.53  12.28
2101.2  107428.73  13315.42  12.39
2103.8  106730.07  13341.62  12.50
2106.4  106057.60  13373.64  12.61
2108.9  105385.13  13402.75  12.72
2111.5  104520.53  13391.11  12.81
2114.0  103865.53  13411.49  12.91
2116.6  103320.00  13451.67  13.02
2119.1  102745.33  13477.29  13.12
2121.7  102235.00  13507.08  13.21
2124.2  101816.07  13532.81  13.29
2126.8  100999.55  13508.77  13.38
2129.3  100592.80  13537.33  13.46
2131.9  99976.80  13546.13  13.55
2134.4  99527.10  13561.15  13.63
2136.9  99129.12  13579.65  13.70
2139.4  98597.33  13583.73  13.78
2142.0  98127.40  13592.60  13.85
2144.5  97837.70  13619.97  13.92
2147.0  97587.73  13659.07  14.00
2149.5  97060.67  13650.13  14.06
2152.1  96903.22  13687.61  14.13
2154.6  96850.13  13742.04  14.19
2157.1  96301.50  13724.92  14.25
2159.6  95865.50  13712.81  14.30
2162.1  95704.70  13725.83  14.34
2164.6  95434.20  13739.58  14.40
2167.1  95102.60  13750.51  14.46
2169.6  94756.55  13748.19  14.51
2172.1  94290.80  13726.89  14.56
2174.6  93964.00  13720.85  14.60
2177.1  93511.02  13708.39  14.66
2179.5  93092.13  13692.39  14.71
2182.0  92593.05  13663.47  14.76
2184.5  92050.50  13640.24  14.82
2187.0  91418.43  13593.43  14.87
2189.5  90717.57  13535.88  14.92
2191.9  89927.00  13467.83  14.98
2194.4  89273.40  13420.93  15.03
2196.9  88512.00  13353.60  15.09
2199.3  87812.00  13282.00  15.13
2201.8  86899.20  13178.93  15.17
2204.3  86425.93  13141.25  15.21
2206.7  85773.80  13067.67  15.24
2209.2  85273.40  13016.35  15.26
2211.6  84635.10  12939.30  15.29
2214.1  84326.25  12911.78  15.31
2216.5  83738.00  12833.87  15.33
2219.0  83380.40  12787.51  15.34
2221.4  82992.58  12719.78  15.33
2223.9  82526.50  12637.14  15.31
2226.3  82010.83  12537.97  15.29
2228.7  81438.67  12423.35  15.25
2231.1  80833.50  12295.80  15.21
2233.6  80201.73  12141.84  15.14
2236.0  79640.75  11992.56  15.06
2238.4  79144.92  11837.19  14.96
2240.9  78672.00  11684.91  14.85
2243.3  78115.73  11502.80  14.73
2245.7  77530.40  11309.83  14.59
2248.1  77022.40  11122.80  14.44
2250.5  76492.30  10931.75  14.29
2252.9  75836.37  10714.16  14.13
2255.3  75251.85  10507.20  13.96
2257.7  74780.00  10316.67  13.80
2260.1  74276.77  10113.60  13.62
2262.5  73650.00  9906.67  13.45
2264.9  73097.97  9707.13  13.28
2267.3  72470.00  9513.33  13.13
2269.7  71969.10  9347.72  12.99
2272.1  71408.82  9175.26  12.85
2274.5  70821.77  9008.30  12.72
2276.8  70327.02  8864.75  12.61
2279.2  69736.95  8713.35  12.49
2281.6  69288.87  8580.16  12.38
2284.0  68811.30  8436.87  12.26
2286.3  68329.07  8299.20  12.15
2288.7  67922.83  8163.64  12.02
2291.1  67355.80  8019.52  11.91
2293.4  66897.60  7881.38  11.78
2295.8  66249.60  7711.27  11.64
2298.2  65639.70  7558.95  11.52
2300.5  64956.60  7403.70  11.40
2302.9  64190.67  7243.67  11.28
2305.2  63448.00  7082.97  11.16
2307.6  62756.28  6943.12  11.06
2309.9  61958.67  6813.11  11.00
2312.2  61349.00  6706.33  10.93
2314.6  60723.45  6606.75  10.88
2316.9  60009.30  6496.35  10.83
2319.2  59442.47  6389.32  10.75
2321.6  58800.82  6275.00  10.67
2323.9  58229.17  6173.61  10.60
2326.2  57675.47  6058.29  10.50
2328.6  57140.60  5963.47  10.44
2330.9  56637.00  5869.50  10.36
2333.2  56155.17  5782.03  10.30
2335.5  55693.50  5699.53  10.23
2337.8  55221.45  5614.52  10.17
2340.1  54639.15  5510.28  10.08
2342.4  54199.17  5416.67  9.99
2344.8  53742.75  5334.61  9.93
2347.1  53155.43  5227.45  9.83
2349.4  52604.58  5133.77  9.76
2351.6  52009.68  5038.29  9.69
2353.9  51503.60  4942.93  9.60
2356.2  50981.03  4869.10  9.55
2358.5  50377.60  4778.67  9.49
2360.8  49772.80  4689.07  9.42
2363.1  49308.47  4610.05  9.35
2365.4  48849.90  4527.53  9.27
2367.7  48370.20  4449.80  9.20
2369.9  47815.20  4366.27  9.13
2372.2  47173.87  4277.07  9.07
2374.5  46581.15  4196.50  9.01
2376.7  45932.30  4104.56  8.94
2379.0  45288.57  4001.87  8.84
2381.3  44660.00  3904.45  8.74
2383.5  44129.07  3809.42  8.63
2385.8  43513.13  3714.34  8.54
2388.0  42963.80  3630.47  8.45
2390.3  42447.07  3548.13  8.36
2392.5  41952.00  3464.00  8.26
2394.8  41466.70  3383.97  8.16
2397.0  40974.27  3296.22  8.04
2399.3  40485.22  3220.46  7.95
2401.5  40033.00  3160.50  7.89
2403.8  39511.87  3066.85  7.76
2406.0  38988.33  2996.56  7.69
2408.2  38571.87  2917.20  7.56
2410.4  38136.58  2846.20  7.46
2412.7  37725.13  2793.99  7.41
2414.9  37368.10  2728.18  7.30
2417.1  36944.30  2667.00  7.22
2419.3  36518.40  2598.40  7.12
2421.6  36127.92  2527.36  7.00
2423.8  35749.10  2472.31  6.92
2426.0  35340.63  2397.59  6.78
2428.2  34966.40  2338.93  6.69
2430.4  34658.10  2289.37  6.61
2432.6  34400.00  2235.56  6.50
2434.8  34085.00  2183.22  6.41
2437.0  33704.23  2135.90  6.34
2439.2  33359.13  2068.05  6.20
2441.4  33033.57  2013.19  6.09
2443.6  32786.95  1966.57  6.00
2445.7  32500.88  1915.90  5.89
2447.9  32217.08  1878.75  5.83
2450.1  31935.65  1835.87  5.75
2452.3  31536.63  1783.41  5.66
2454.5  31146.60  1739.82  5.59
2456.6  30758.93  1678.71  5.46
2458.8  30373.20  1630.20  5.37
2461.0  30044.33  1595.44  5.31
2463.1  29754.75  1566.55  5.26
2465.3  29500.80  1521.87  5.16
2467.5  29234.50  1489.75  5.10
2469.6  29012.92  1466.81  5.06
2471.8  28681.83  1421.58  4.96
2473.9  28356.67  1382.64  4.88
2476.1  27997.67  1354.89  4.84
2478.2  27648.50  1325.30  4.79
2480.4  27338.35  1309.87  4.79
2482.5  26971.97  1269.63  4.71
2484.6  26647.50  1236.28  4.64
2486.8  26376.00  1219.37  4.62
2488.9  26074.07  1194.27  4.58
2491.1  25704.00  1174.13  4.57
2493.2  25307.17  1149.60  4.54
2495.3  24867.70  1116.99  4.49
2497.4  24536.40  1089.43  4.44
2499.5  24210.27  1068.10  4.41
2501.7  24091.27  1062.69  4.41
2503.8  23988.42  1053.15  4.39
2505.9  23950.83  1042.08  4.35
2508.0  23945.28  1039.32  4.34
2510.1  23963.67  1049.16  4.38
2512.2  24075.20  1039.83  4.32
2514.3  24279.68  1044.09  4.30
2516.4  24506.80  1063.80  4.34
