/*** Spectra Vista SIG Data ***/
name= 32_20220721_TITO_35_avg.sig
comm= Averaged Ref/Tar of files: HR.072122.0018_moc.sig,HR.072122.0019_moc.sig,HR.072122.0020_moc.sig
data=
337.3  3324.88  330.83  9.95
338.8  3463.20  314.25  9.07
340.3  3607.45  318.58  8.83
341.8  3840.90  310.93  8.10
343.2  3996.00  313.76  7.85
344.7  4179.70  301.39  7.21
346.2  4330.10  294.12  6.79
347.7  4522.38  298.87  6.61
349.2  4725.00  302.40  6.40
350.6  4994.60  293.80  5.88
352.1  5251.58  304.85  5.80
353.6  5517.30  296.11  5.37
355.1  5758.43  305.32  5.30
356.6  6063.38  305.90  5.05
358.0  6316.20  310.49  4.92
359.5  6612.60  317.24  4.80
361.0  6912.68  319.20  4.62
362.5  7260.20  335.69  4.62
364.0  7598.88  355.57  4.68
365.4  7952.30  348.44  4.38
366.9  8287.50  353.60  4.27
368.4  8618.90  367.30  4.26
369.9  8945.28  374.75  4.19
371.3  9345.00  388.04  4.15
372.8  9743.85  407.10  4.18
374.3  10158.75  412.08  4.06
375.8  10564.40  420.42  3.98
377.2  10948.30  430.40  3.93
378.7  11351.80  433.99  3.82
380.2  11701.50  441.16  3.77
381.7  12215.30  454.02  3.72
383.1  12639.55  456.35  3.61
384.6  13109.85  474.76  3.62
386.1  13566.55  482.85  3.56
387.6  14014.00  495.88  3.54
389.0  14472.00  510.99  3.53
390.5  14894.55  516.84  3.47
392.0  15446.80  532.53  3.45
393.4  15975.20  546.52  3.42
394.9  16495.20  556.80  3.38
396.4  17025.75  572.70  3.36
397.9  17527.50  580.83  3.31
399.3  18056.73  601.05  3.33
400.8  18594.05  614.82  3.31
402.2  19198.10  631.75  3.29
403.7  19765.58  645.21  3.26
405.2  20360.50  659.74  3.24
406.6  20880.00  671.25  3.21
408.1  21447.40  684.03  3.19
409.6  22037.80  696.55  3.16
411.0  22652.35  720.21  3.18
412.5  23303.18  738.59  3.17
414.0  23920.25  757.95  3.17
415.4  24625.13  776.45  3.15
416.9  25230.98  796.70  3.16
418.4  25883.55  814.23  3.15
419.8  26553.80  832.35  3.13
421.3  27236.60  855.60  3.14
422.7  27996.60  879.28  3.14
424.2  28755.00  904.50  3.15
425.7  29486.70  930.19  3.15
427.1  30194.10  955.83  3.17
428.6  30922.50  979.60  3.17
430.0  31624.70  1001.55  3.17
431.5  32446.95  1026.84  3.16
432.9  33284.80  1050.89  3.16
434.4  34136.48  1082.97  3.17
435.9  34930.00  1108.80  3.17
437.3  35722.50  1136.67  3.18
438.8  36503.18  1160.21  3.18
440.2  37325.75  1191.19  3.19
441.7  38243.60  1222.08  3.20
443.1  39114.00  1247.27  3.19
444.6  40020.50  1287.29  3.22
446.0  40897.20  1319.99  3.23
447.5  41799.45  1349.37  3.23
448.9  42686.10  1379.44  3.23
450.4  43641.50  1414.14  3.24
451.8  44473.00  1443.87  3.25
453.3  45331.03  1478.35  3.26
454.7  46296.95  1516.00  3.27
456.2  47120.68  1544.68  3.28
457.6  48042.23  1580.61  3.29
459.1  48969.38  1611.44  3.29
460.5  49848.63  1640.67  3.29
462.0  50840.48  1677.10  3.30
463.4  51813.40  1709.76  3.30
464.8  52766.63  1740.85  3.30
466.3  53715.75  1772.76  3.30
467.7  54667.30  1810.98  3.31
469.2  55680.70  1844.76  3.31
470.6  56593.40  1878.95  3.32
472.0  57566.75  1910.45  3.32
473.5  58519.88  1939.83  3.31
474.9  59479.50  1976.00  3.32
476.4  60595.20  2017.92  3.33
477.8  61610.50  2057.07  3.34
479.2  62596.50  2091.87  3.34
480.7  63646.58  2128.79  3.34
482.1  64707.10  2169.43  3.35
483.6  65848.65  2206.03  3.35
485.0  66874.50  2254.24  3.37
486.4  68006.70  2295.02  3.37
487.9  69044.63  2338.05  3.39
489.3  70164.63  2381.52  3.39
490.7  71195.38  2422.75  3.40
492.2  72368.10  2479.40  3.43
493.6  73425.80  2529.57  3.45
495.0  74470.50  2585.70  3.47
496.5  75590.93  2643.46  3.50
497.9  76647.53  2704.11  3.53
499.3  77748.15  2772.60  3.57
500.7  78934.20  2847.96  3.61
502.2  80022.60  2929.73  3.66
503.6  81205.20  3021.23  3.72
505.0  82215.80  3119.47  3.79
506.5  83463.98  3240.65  3.88
507.9  84606.28  3376.15  3.99
509.3  85943.60  3534.24  4.11
510.7  87165.00  3710.85  4.26
512.2  88471.20  3915.97  4.43
513.6  89859.70  4159.59  4.63
515.0  91210.70  4428.72  4.86
516.4  92506.05  4732.56  5.12
517.8  94030.13  5081.23  5.40
519.3  95259.60  5449.84  5.72
520.7  96734.25  5867.28  6.07
522.1  97964.75  6290.61  6.42
523.5  99273.80  6744.28  6.79
524.9  100649.25  7205.64  7.16
526.3  101971.10  7659.07  7.51
527.8  103356.00  8114.04  7.85
529.2  104449.00  8548.63  8.18
530.6  105961.85  8995.61  8.49
532.0  107534.00  9421.07  8.76
533.4  108803.63  9777.62  8.99
534.8  109727.83  10075.69  9.18
536.3  111301.20  10400.84  9.34
537.7  113185.80  10730.16  9.48
539.1  114523.90  10993.90  9.60
540.5  115655.90  11224.17  9.70
541.9  117279.00  11489.26  9.80
543.3  118528.00  11716.99  9.89
544.7  119722.80  11944.16  9.98
546.1  121397.93  12208.57  10.06
547.5  122572.80  12417.07  10.13
549.0  124245.00  12663.20  10.19
550.4  125683.13  12870.42  10.24
551.8  127120.95  13046.79  10.26
553.2  128559.68  13187.33  10.26
554.6  129833.60  13267.63  10.22
556.0  131279.40  13323.90  10.15
557.4  132789.83  13339.90  10.05
558.8  134332.65  13323.90  9.92
560.2  135694.63  13248.18  9.76
561.6  137265.98  13156.35  9.58
563.0  138762.33  13016.93  9.38
564.4  140251.70  12849.90  9.16
565.8  141695.00  12640.92  8.92
567.2  143329.75  12424.13  8.67
568.6  144746.25  12172.75  8.41
570.0  146110.18  11896.90  8.14
571.4  147749.55  11645.23  7.88
572.8  149386.50  11394.97  7.63
574.2  150920.00  11158.19  7.39
575.6  152358.75  10936.50  7.18
577.0  153793.00  10742.53  6.99
578.4  155439.38  10587.85  6.81
579.8  156863.25  10437.66  6.65
581.2  158496.48  10318.73  6.51
582.5  159822.00  10202.40  6.38
583.9  161258.80  10111.81  6.27
585.3  162955.13  10050.39  6.17
586.7  164333.65  9987.16  6.08
588.1  165748.75  9939.27  6.00
589.5  167310.50  9909.43  5.92
590.9  168850.80  9896.85  5.86
592.3  170567.05  9911.15  5.81
593.7  171911.03  9918.61  5.77
595.0  173458.13  9943.65  5.73
596.4  174825.00  9959.41  5.70
597.8  176224.85  9973.61  5.66
599.2  177698.40  9980.96  5.62
600.6  179341.18  9993.75  5.57
602.0  180566.25  9968.51  5.52
603.3  182261.05  9954.73  5.46
604.7  183833.03  9915.29  5.39
606.1  185251.20  9851.36  5.32
607.5  186789.95  9779.06  5.24
608.9  188396.45  9703.87  5.15
610.2  189689.85  9603.09  5.06
611.6  191195.78  9515.62  4.98
613.0  192661.85  9429.11  4.89
614.4  193966.05  9335.28  4.81
615.8  195346.13  9252.75  4.74
617.1  196788.90  9192.40  4.67
618.5  198334.80  9146.40  4.61
619.9  199756.20  9110.22  4.56
621.3  201296.48  9093.24  4.52
622.6  202779.25  9091.03  4.48
624.0  204156.30  9099.02  4.46
625.4  205514.93  9118.67  4.44
626.8  207009.08  9157.94  4.42
628.1  208280.33  9194.17  4.41
629.5  210065.80  9256.20  4.41
630.9  211599.85  9309.01  4.40
632.2  212917.43  9347.57  4.39
633.6  214456.38  9375.37  4.37
635.0  215911.60  9384.32  4.35
636.3  217357.20  9369.68  4.31
637.7  218664.38  9326.90  4.27
639.1  220220.00  9282.00  4.21
640.4  221609.15  9219.28  4.16
641.8  222741.20  9133.53  4.10
643.2  224249.03  9060.57  4.04
644.5  225551.75  8969.27  3.98
645.9  227193.30  8905.20  3.92
647.2  229090.75  8868.60  3.87
648.6  230910.75  8847.90  3.83
650.0  232308.00  8821.44  3.80
651.3  232632.40  8780.02  3.77
652.7  233473.45  8743.63  3.75
654.0  235389.10  8753.91  3.72
655.4  236928.33  8745.60  3.69
656.8  237305.80  8701.67  3.67
658.1  238508.90  8683.51  3.64
659.5  240672.08  8698.90  3.61
660.8  242347.50  8688.00  3.58
662.2  243152.00  8658.35  3.56
663.5  244624.60  8659.17  3.54
664.9  245973.00  8660.25  3.52
666.2  246708.60  8675.76  3.52
667.6  248298.65  8730.56  3.52
668.9  249374.28  8793.76  3.53
670.3  250376.25  8854.53  3.54
671.6  251937.38  8956.20  3.55
673.0  253043.63  9062.40  3.58
674.3  254216.30  9172.97  3.61
675.7  255496.05  9297.99  3.64
677.0  256569.23  9435.51  3.68
678.4  257868.70  9602.90  3.72
679.7  258903.88  9770.29  3.77
681.1  260131.80  9960.24  3.83
682.4  261222.00  10160.11  3.89
683.8  262459.60  10375.21  3.95
685.1  263420.25  10605.25  4.03
686.4  264690.60  10889.84  4.11
687.8  265909.75  11228.83  4.22
689.1  266933.25  11659.00  4.37
690.5  268222.35  12241.84  4.56
691.8  269003.28  13017.52  4.84
693.1  270237.15  14103.40  5.22
694.5  271407.50  15521.57  5.72
695.8  272567.75  17326.40  6.36
697.1  273682.50  19561.97  7.15
698.5  274715.40  22249.03  8.10
699.8  275773.35  25396.00  9.21
701.1  276861.75  28990.74  10.47
702.5  277613.05  32941.04  11.87
703.8  278527.50  37245.00  13.37
705.1  279617.33  41860.00  14.97
706.5  280649.63  46689.17  16.64
707.8  281565.30  51705.98  18.36
709.1  282433.58  56851.36  20.13
710.5  283549.83  62155.78  21.92
711.8  284391.90  67506.56  23.74
713.1  285350.80  72959.65  25.57
714.4  286242.80  78430.59  27.40
715.8  287023.30  83901.52  29.23
717.1  288315.00  89513.24  31.05
718.4  289206.40  94990.93  32.85
719.7  290287.10  100475.24  34.61
721.0  290812.50  105711.00  36.35
722.4  291548.95  110906.91  38.04
723.7  292479.45  116058.60  39.68
725.0  293493.38  121115.16  41.27
726.3  294396.85  125945.31  42.78
727.6  294944.65  130470.74  44.24
729.0  295870.05  134951.83  45.61
730.3  296631.08  139175.38  46.92
731.6  297523.80  143249.11  48.15
732.9  298292.40  147060.76  49.30
734.2  299083.13  150690.83  50.38
735.5  300061.38  154204.81  51.39
736.8  300824.10  157418.56  52.33
738.1  301618.00  160458.23  53.20
739.5  302550.13  163364.98  54.00
740.8  303220.78  165973.13  54.74
742.1  303964.48  168463.39  55.42
743.4  304725.00  170796.67  56.05
744.7  305725.20  173106.66  56.62
746.0  306582.90  175185.40  57.14
747.3  307142.33  176949.51  57.61
748.6  307867.00  178674.10  58.04
749.9  308594.00  180284.00  58.42
751.2  309380.65  181805.26  58.76
752.5  310295.90  183301.04  59.07
753.8  310918.30  184537.99  59.35
755.1  311584.00  185716.27  59.60
756.4  312167.55  186736.01  59.82
757.7  313108.60  187896.45  60.01
759.0  314831.13  189459.89  60.18
760.3  315981.60  190618.56  60.33
761.6  317524.20  191963.33  60.46
762.9  318057.50  192646.37  60.57
764.2  318442.20  193206.56  60.67
765.5  318759.88  193657.55  60.75
766.8  319219.20  194175.36  60.83
768.1  319785.40  194700.75  60.88
769.3  320380.55  195249.55  60.94
770.6  321033.70  195828.88  61.00
771.9  321758.50  196413.56  61.04
773.2  322169.60  196789.28  61.08
774.5  322808.20  197286.61  61.12
775.8  323523.90  197807.14  61.14
777.1  324089.70  198262.75  61.18
778.4  324469.48  198579.52  61.20
779.6  325250.95  199125.79  61.22
780.9  325740.00  199504.00  61.25
782.2  326246.25  199871.83  61.26
783.5  326563.50  200145.07  61.29
784.8  327114.90  200539.23  61.31
786.0  327542.25  200855.20  61.32
787.3  327969.50  201163.02  61.34
788.6  328434.00  201486.20  61.35
789.9  328923.00  201833.89  61.36
791.2  329561.28  202290.75  61.38
792.4  330277.60  202756.68  61.39
793.7  330760.20  203094.27  61.40
795.0  331417.35  203531.79  61.41
796.2  332085.18  203976.44  61.42
797.5  332839.13  204470.06  61.43
798.8  333510.30  204920.26  61.44
800.0  334239.08  205383.35  61.45
801.3  334755.30  205721.87  61.45
802.6  335356.20  206133.06  61.47
803.8  336024.83  206579.00  61.48
805.1  336518.00  206922.45  61.49
806.4  336994.50  207233.52  61.49
807.7  337579.65  207616.23  61.50
808.9  338124.95  208003.39  61.52
810.2  338666.65  208370.49  61.53
811.4  339205.90  208717.83  61.53
812.7  339828.13  209126.67  61.54
814.0  340680.85  209667.48  61.54
815.2  341306.25  210097.13  61.56
816.5  341708.83  210405.49  61.57
817.7  342200.10  210742.01  61.58
819.0  342690.15  211097.48  61.60
820.2  342892.00  211246.93  61.61
821.5  343581.75  211712.44  61.62
822.7  343954.18  211977.55  61.63
824.0  344295.90  212223.24  61.64
825.2  344794.73  212562.09  61.65
826.5  345107.50  212781.62  61.66
827.7  345635.93  213166.97  61.67
829.0  346093.68  213447.98  61.67
830.2  346397.25  213670.15  61.68
831.5  346837.40  214000.08  61.70
832.7  347155.73  214231.29  61.71
834.0  347488.55  214444.95  61.71
835.2  347873.08  214722.20  61.72
836.4  348108.75  214957.82  61.75
837.7  348506.00  215239.04  61.76
838.9  348955.20  215563.55  61.77
840.1  349371.90  215845.65  61.78
841.4  349821.20  216189.65  61.80
842.6  350152.40  216449.44  61.82
843.8  350486.60  216726.24  61.84
845.1  350936.55  217070.65  61.85
846.3  351284.50  217353.65  61.87
847.5  351697.50  217656.60  61.89
848.8  352136.40  217948.00  61.89
850.0  352468.90  218197.42  61.91
851.2  352972.35  218581.02  61.93
852.5  353328.50  218851.48  61.94
853.7  353785.50  219170.40  61.95
854.9  354229.90  219460.81  61.95
856.1  354701.10  219774.53  61.96
857.4  354860.40  219951.95  61.98
858.6  355332.40  220265.81  61.99
859.8  355685.63  220557.00  62.01
861.0  356194.80  220886.64  62.01
862.2  356654.35  221185.40  62.02
863.5  356970.25  221431.69  62.03
864.7  357482.40  221768.80  62.04
865.9  357971.80  222059.47  62.03
867.1  358218.65  222252.27  62.04
868.3  358681.20  222554.00  62.05
869.5  359110.55  222854.81  62.06
870.8  359626.50  223216.80  62.07
872.0  360179.85  223541.42  62.06
873.2  360584.10  223821.60  62.07
874.4  360994.73  224099.46  62.08
875.6  361300.98  224359.21  62.10
876.8  361876.55  224669.39  62.08
878.0  362362.70  224983.85  62.09
879.2  362833.50  225292.88  62.09
880.4  363350.63  225597.95  62.09
881.6  363841.65  225905.46  62.09
882.8  364228.00  226200.85  62.10
884.0  364827.05  226561.00  62.10
885.2  365358.20  226874.05  62.10
886.5  365973.15  227266.45  62.10
887.7  366491.78  227583.20  62.10
888.8  367108.05  227968.44  62.10
890.0  367673.65  228314.52  62.10
891.2  368241.00  228690.47  62.10
892.4  368887.05  229073.60  62.10
893.6  369502.25  229428.62  62.09
894.8  370374.75  229986.20  62.10
896.0  371294.25  230498.20  62.08
897.2  372069.75  231013.03  62.09
898.4  372883.50  231470.80  62.08
899.6  373326.75  231807.45  62.09
900.8  373837.05  232061.51  62.08
902.0  374111.10  232238.36  62.08
903.2  374519.78  232489.49  62.08
904.3  374890.50  232692.68  62.07
905.5  375564.00  233103.04  62.07
906.7  376139.00  233477.07  62.07
907.9  376655.65  233800.56  62.07
909.1  377066.48  234001.53  62.06
910.2  377302.05  234149.91  62.06
911.4  377523.90  234349.44  62.08
912.6  377898.95  234494.26  62.05
913.8  378177.53  234653.26  62.05
915.0  378723.45  234889.34  62.02
916.2  378855.75  234994.50  62.03
917.3  379001.25  235023.60  62.01
918.5  379241.50  235168.76  62.01
919.7  379521.75  235386.80  62.02
920.8  379653.35  235471.99  62.02
922.0  379860.25  235507.07  62.00
923.2  380152.50  235617.20  61.98
924.4  380531.25  235698.75  61.94
925.5  380774.20  235872.36  61.95
926.7  381422.63  236228.60  61.93
927.9  382322.40  236758.40  61.93
929.0  383620.05  237539.34  61.92
930.2  385757.00  238759.07  61.89
931.4  388118.93  240072.93  61.86
932.5  390905.35  241567.09  61.80
933.7  392098.83  242343.95  61.81
934.9  392870.63  242726.17  61.78
936.0  392587.00  242489.22  61.77
937.2  390792.90  241248.16  61.73
938.3  389292.35  240183.41  61.70
939.5  387975.60  239203.68  61.65
940.7  388150.20  239261.88  61.64
941.8  389618.93  240028.18  61.61
943.0  391123.50  240744.70  61.55
944.2  391966.90  241171.06  61.53
945.3  391618.50  240849.70  61.50
946.5  391062.60  240267.06  61.44
947.6  391507.10  240256.57  61.37
948.8  391348.43  240021.86  61.33
949.9  391444.20  239906.80  61.29
951.1  391424.80  239480.32  61.18
952.2  391272.00  239115.20  61.11
953.4  391080.75  238696.73  61.04
954.5  391294.80  238455.36  60.94
955.7  391343.40  238161.84  60.86
956.8  391130.50  237830.59  60.81
958.0  390947.50  237359.40  60.71
959.1  390729.98  237131.64  60.69
960.3  390497.55  236874.25  60.66
961.4  390525.75  236739.13  60.62
962.6  390552.75  236649.23  60.59
963.7  390802.73  236558.72  60.53
964.9  390594.90  236432.08  60.53
966.0  390648.83  236395.26  60.51
967.2  390677.85  236396.64  60.51
968.3  390472.65  236291.58  60.51
969.5  390566.28  236184.96  60.47
970.6  390644.93  236254.04  60.48
971.8  391049.05  236386.06  60.45
972.9  390905.70  236333.51  60.46
974.0  391080.00  236516.49  60.48
975.2  391270.38  236422.37  60.42
976.3  390792.25  236435.29  60.50
977.5  391032.95  236586.28  60.50
978.6  391297.80  236645.81  60.48
979.7  391596.45  236656.77  60.43
980.9  391402.90  236645.44  60.46
982.0  391639.20  236711.34  60.44
983.2  391879.48  236660.46  60.39
984.3  391536.00  236734.27  60.46
985.4  391695.28  236907.18  60.48
986.6  391811.75  236970.37  60.48
987.7  392639.45  237583.83  60.51
988.9  392268.60  237705.12  60.60
990.0  393685.70  238200.47  60.51
993.1  337902.02  203811.42  60.32
996.9  338721.95  204909.29  60.49
1000.7  339947.48  206144.70  60.64
1004.5  340547.83  206992.89  60.78
1008.4  340482.96  207417.67  60.92
1012.2  340608.46  207951.87  61.05
1016.0  340807.80  208526.93  61.19
1019.8  341146.58  209114.03  61.30
1023.7  341323.23  209581.34  61.40
1027.5  341214.62  209869.65  61.51
1031.3  341568.08  210366.48  61.59
1035.1  341564.77  210611.41  61.66
1038.9  341555.87  210814.27  61.72
1042.7  341412.33  210902.83  61.77
1046.5  341320.50  210999.03  61.82
1050.3  341361.28  211154.85  61.86
1054.2  341072.67  211119.61  61.90
1058.0  340629.80  210931.67  61.92
1061.8  340525.38  210928.06  61.94
1065.6  340247.63  210813.98  61.96
1069.4  340371.67  210920.50  61.97
1073.2  340121.77  210765.30  61.97
1077.0  339732.88  210495.27  61.96
1080.8  339269.79  210122.45  61.93
1084.6  338215.15  209367.92  61.90
1088.4  337536.70  208849.75  61.87
1092.2  336726.00  208234.00  61.84
1096.0  336241.22  207776.03  61.79
1099.8  335831.60  207374.94  61.75
1103.6  335247.43  206850.17  61.70
1107.4  334432.40  206133.38  61.64
1111.2  334172.80  205761.75  61.57
1114.9  333496.33  205107.13  61.50
1118.7  332825.63  204405.30  61.42
1122.5  332098.87  203571.72  61.30
1126.3  331016.53  202378.22  61.14
1130.1  330555.63  201292.17  60.90
1133.9  329137.20  199314.89  60.56
1137.7  327906.30  197124.71  60.12
1141.4  326349.51  194473.02  59.59
1145.2  325708.22  192230.83  59.02
1149.0  324721.25  189876.62  58.47
1152.8  323274.40  187534.72  58.01
1156.6  321786.85  185578.84  57.67
1160.3  320251.00  183954.59  57.44
1164.1  318014.03  182256.21  57.31
1167.9  316393.75  181087.73  57.23
1171.7  315252.00  180306.00  57.19
1175.4  314241.00  179665.97  57.17
1179.2  313356.23  179076.31  57.15
1183.0  313133.67  178835.85  57.11
1186.7  312611.83  178431.09  57.08
1190.5  311563.93  177715.97  57.04
1194.3  310443.27  177018.84  57.02
1198.0  309347.23  176416.96  57.03
1201.8  308051.90  175735.04  57.05
1205.6  306949.33  175272.00  57.10
1209.3  306053.68  175022.71  57.19
1213.1  305075.63  174772.75  57.29
1216.8  304106.28  174566.70  57.40
1220.6  303072.00  174350.81  57.53
1224.3  301912.75  174060.02  57.65
1228.1  300835.80  173832.62  57.78
1231.9  299719.85  173520.68  57.89
1235.6  298413.90  173064.50  57.99
1239.4  297217.75  172637.19  58.08
1243.1  296124.23  172203.22  58.15
1246.9  295032.45  171741.46  58.21
1250.6  294142.53  171354.99  58.26
1254.3  293203.99  170909.36  58.29
1258.1  292348.58  170466.70  58.31
1261.8  291221.73  169853.63  58.32
1265.6  289917.20  169068.73  58.32
1269.3  288537.40  168200.65  58.29
1273.1  288453.53  168028.35  58.25
1276.8  288722.00  168034.40  58.20
1280.6  288675.27  167831.07  58.14
1284.3  287492.00  166897.33  58.05
1288.0  286178.17  165805.76  57.94
1291.8  284943.80  164668.84  57.79
1295.5  283624.00  163437.84  57.62
1299.2  282388.83  162197.83  57.44
1302.9  281059.26  160793.58  57.21
1306.7  279641.37  159242.38  56.95
1310.4  278289.91  157593.01  56.63
1314.1  277034.63  155893.06  56.27
1317.9  275940.00  154121.25  55.85
1321.6  274665.33  152136.10  55.39
1325.3  273166.95  149888.43  54.87
1329.0  271936.35  147691.34  54.31
1332.8  270008.20  144992.71  53.70
1336.5  268296.40  142373.54  53.07
1340.2  267873.67  140433.22  52.43
1343.9  267271.25  138412.73  51.79
1347.6  266265.30  136220.93  51.16
1351.4  265887.00  134374.67  50.54
1355.1  265494.90  132559.13  49.93
1358.8  265056.00  130616.89  49.28
1362.5  264348.03  128397.15  48.57
1366.2  262922.00  125507.03  47.74
1369.9  261620.00  122301.00  46.75
1373.6  260015.47  118386.85  45.53
1377.3  258184.20  113603.73  44.00
1381.0  256872.17  108043.63  42.06
1384.8  255076.25  101183.33  39.67
1388.4  253191.98  93740.48  37.02
1392.2  251655.92  86013.67  34.18
1395.9  250214.35  78298.15  31.29
1399.6  248833.48  71085.66  28.57
1403.3  247878.58  64815.78  26.15
1407.0  247070.90  59569.29  24.11
1410.7  246207.23  55353.65  22.48
1414.3  245328.59  52127.58  21.25
1418.1  244467.88  49762.48  20.36
1421.7  243825.11  48101.24  19.73
1425.4  243116.90  46965.53  19.32
1429.1  242402.25  46244.58  19.08
1432.8  241140.42  45728.51  18.96
1436.5  240430.77  45558.99  18.95
1440.2  239679.97  45554.99  19.01
1443.9  238540.68  45586.81  19.11
1447.6  237113.80  45638.76  19.25
1451.2  236208.32  45832.60  19.40
1454.9  235112.85  46052.63  19.59
1458.6  234147.21  46398.49  19.82
1462.3  233076.80  46883.96  20.12
1466.0  231839.49  47541.02  20.51
1469.7  230327.83  48340.96  20.99
1473.3  229397.50  49431.26  21.55
1477.0  227702.00  50495.44  22.18
1480.7  226299.33  51687.56  22.84
1484.4  224589.29  52840.69  23.53
1488.0  223212.00  54100.44  24.24
1491.7  221764.15  55338.09  24.95
1495.4  220194.79  56551.04  25.68
1499.0  218761.50  57764.78  26.41
1502.7  217590.75  59031.44  27.13
1506.4  216308.29  60237.99  27.85
1510.0  215054.63  61409.52  28.56
1513.7  213746.17  62530.81  29.25
1517.4  212549.00  63627.26  29.94
1521.0  211432.00  64719.94  30.61
1524.7  210348.67  65734.74  31.25
1528.3  209191.25  66695.11  31.88
1532.0  208079.67  67615.70  32.50
1535.7  206828.17  68412.88  33.08
1539.3  205678.11  69202.79  33.65
1543.0  204801.83  70035.44  34.20
1546.6  204166.08  70908.02  34.73
1550.3  203261.35  71636.27  35.24
1553.9  202290.50  72277.90  35.73
1557.6  201155.53  72809.41  36.20
1561.2  200001.15  73271.60  36.64
1564.9  198811.65  73689.38  37.06
1568.5  197629.25  74047.53  37.47
1572.2  196587.60  74433.78  37.86
1575.8  195608.00  74812.89  38.25
1579.5  194689.45  75171.64  38.61
1583.1  193798.72  75512.98  38.96
1586.8  192696.00  75743.11  39.31
1590.4  191751.47  76007.65  39.64
1594.0  190551.51  76143.02  39.96
1597.7  189501.28  76306.56  40.27
1601.3  188272.35  76381.20  40.57
1604.9  187066.88  76420.67  40.85
1608.6  185824.52  76411.15  41.12
1612.2  184891.58  76489.23  41.37
1615.8  183855.10  76496.04  41.61
1619.5  182837.17  76470.54  41.82
1623.1  181650.47  76354.21  42.03
1626.7  180515.08  76228.97  42.23
1630.3  179413.67  76087.06  42.41
1634.0  178388.00  75954.67  42.58
1637.6  177465.07  75828.71  42.73
1641.2  176552.30  75651.44  42.85
1644.8  175437.13  75360.45  42.96
1648.5  174426.65  75083.53  43.05
1652.1  173514.60  74802.07  43.11
1655.7  172672.00  74477.42  43.13
1659.3  171868.01  74142.47  43.14
1662.9  170552.50  73534.45  43.12
1666.6  169222.00  72884.09  43.07
1670.2  167926.79  72200.48  43.00
1673.8  166584.78  71450.78  42.89
1677.4  165523.05  70758.92  42.75
1681.0  164790.10  70149.80  42.57
1684.6  164422.92  69631.13  42.35
1688.2  163857.00  68941.94  42.07
1691.8  163251.40  68219.40  41.79
1695.4  162874.00  67585.69  41.50
1699.0  162558.90  66982.07  41.20
1702.6  162267.67  66353.78  40.89
1706.2  161719.13  65583.53  40.55
1709.8  160894.61  64714.71  40.22
1713.4  160253.42  63981.25  39.93
1717.0  159477.00  63257.84  39.67
1720.6  158757.38  62626.30  39.45
1724.2  158145.30  62048.20  39.23
1727.8  157483.20  61504.33  39.05
1731.4  157042.88  61068.03  38.89
1735.0  156838.18  60734.79  38.72
1738.6  156570.30  60327.10  38.53
1742.2  155998.33  59717.42  38.28
1745.8  155339.78  59009.26  37.99
1749.4  154414.43  58164.70  37.67
1753.0  153018.87  57121.24  37.33
1756.6  151460.75  56055.35  37.01
1760.1  150260.24  55144.19  36.70
1763.7  148687.33  54147.11  36.42
1767.3  147394.78  53287.86  36.15
1770.9  146263.78  52523.28  35.91
1774.5  144959.14  51723.60  35.68
1778.0  143895.47  51060.88  35.48
1781.6  142864.50  50479.80  35.33
1785.2  141820.98  49946.44  35.22
1788.8  140747.10  49470.96  35.15
1792.3  139598.27  49007.33  35.11
1795.9  139115.17  48798.75  35.08
1799.5  138571.67  48587.56  35.06
1803.1  137725.93  48267.18  35.05
1806.6  137773.42  48259.84  35.03
1810.2  138547.27  48504.04  35.01
1813.8  139253.35  48719.78  34.99
1817.3  139226.00  48671.78  34.96
1820.9  138485.77  48359.69  34.92
1824.5  137365.95  47886.46  34.86
1828.0  136545.29  47471.93  34.77
1831.6  135669.68  46975.15  34.62
1835.2  134866.67  46432.04  34.43
1838.7  134447.87  45912.41  34.15
1842.3  134130.00  45316.67  33.79
1845.8  133588.00  44485.16  33.30
1849.4  133193.33  43522.58  32.68
1852.9  132695.15  42303.10  31.88
1856.5  131979.38  40735.77  30.87
1860.0  131363.46  38889.10  29.60
1863.6  131003.20  36844.65  28.12
1867.1  130562.95  34444.82  26.38
1870.7  130246.85  31620.02  24.28
1874.2  129740.40  28326.90  21.83
1877.8  129063.53  24946.42  19.33
1881.3  128158.63  21559.47  16.82
1884.9  127480.93  18464.85  14.48
1888.4  126617.68  15640.25  12.35
1891.9  125743.33  13304.61  10.58
1895.5  124667.60  11482.81  9.21
1899.0  124076.50  10220.86  8.24
1901.3  147681.75  8120.92  5.50
1904.1  147519.56  7409.44  5.02
1906.8  146886.75  6873.75  4.68
1909.6  145521.60  6448.58  4.43
1912.4  144262.30  6150.20  4.26
1915.1  143314.88  5937.11  4.14
1917.9  142224.63  5781.84  4.07
1920.6  141375.25  5673.53  4.01
1923.3  140576.45  5616.10  4.00
1926.1  139609.65  5561.19  3.98
1928.8  138732.00  5540.33  3.99
1931.6  138038.86  5543.94  4.02
1934.3  137386.39  5573.10  4.06
1937.0  136744.20  5621.22  4.11
1939.8  135985.44  5684.52  4.18
1942.5  134994.75  5750.25  4.26
1945.2  133668.56  5815.43  4.35
1947.9  132590.50  5904.62  4.45
1950.7  131710.83  6016.27  4.57
1953.4  130242.90  6123.94  4.70
1956.1  129088.38  6252.67  4.84
1958.8  128052.93  6395.89  4.99
1961.5  126815.10  6534.30  5.15
1964.2  125525.40  6686.23  5.33
1966.9  124163.74  6837.28  5.51
1969.6  123093.00  7011.00  5.70
1972.3  121865.48  7188.98  5.90
1975.0  120948.53  7394.18  6.11
1977.7  119970.59  7604.38  6.34
1980.4  118974.63  7815.48  6.57
1983.1  118028.03  8034.59  6.81
1985.8  117221.63  8265.00  7.05
1988.4  116324.00  8499.83  7.31
1991.1  115488.10  8739.09  7.57
1993.8  114715.84  8982.88  7.83
1996.5  114147.14  9249.99  8.10
1999.1  113539.66  9514.95  8.38
2001.8  112924.00  9783.73  8.66
2004.5  112324.58  10046.97  8.94
2007.1  111675.83  10295.66  9.22
2009.8  111020.35  10534.83  9.49
2012.4  110502.29  10801.00  9.77
2015.1  110023.20  11059.30  10.05
2017.8  109310.95  11285.93  10.32
2020.4  108847.89  11531.26  10.59
2023.1  108533.95  11782.35  10.86
2025.7  108309.50  12038.00  11.11
2028.3  108004.00  12272.00  11.36
2031.0  107664.65  12495.32  11.61
2033.6  107414.55  12717.23  11.84
2036.2  107179.65  12921.68  12.06
2038.9  106664.18  13080.45  12.26
2041.5  106358.59  13262.41  12.47
2044.1  105868.13  13415.40  12.67
2046.8  105548.40  13578.53  12.86
2049.4  104980.73  13704.68  13.05
2052.0  104701.75  13868.53  13.25
2054.6  104343.75  14021.87  13.44
2057.2  103856.80  14161.10  13.64
2059.8  103568.60  14331.40  13.84
2062.4  102795.65  14434.80  14.04
2065.0  102343.75  14586.85  14.25
2067.6  101560.06  14687.59  14.46
2070.2  101043.60  14820.51  14.67
2072.8  100474.84  14946.91  14.88
2075.4  100078.13  15093.75  15.08
2078.0  99497.60  15212.74  15.29
2080.6  98986.80  15331.80  15.49
2083.2  98381.73  15435.91  15.69
2085.8  97949.54  15561.87  15.89
2088.4  97347.75  15657.09  16.08
2090.9  96641.69  15735.55  16.28
2093.5  95863.50  15795.34  16.48
2096.1  95176.20  15864.90  16.67
2098.7  94484.51  15932.97  16.86
2101.2  93625.70  15964.53  17.05
2103.8  93036.20  16036.58  17.24
2106.4  92440.15  16106.45  17.42
2108.9  91857.20  16174.13  17.61
2111.5  91097.40  16206.88  17.79
2114.0  90527.55  16274.57  17.98
2116.6  90076.88  16342.81  18.14
2119.1  89597.53  16406.82  18.31
2121.7  89171.25  16478.44  18.48
2124.2  88808.53  16558.04  18.64
2126.8  88101.23  16565.37  18.80
2129.3  87747.00  16616.60  18.94
2131.9  87225.60  16627.60  19.06
2134.4  86838.41  16666.76  19.19
2136.9  86499.24  16705.11  19.31
2139.4  86037.70  16704.80  19.42
2142.0  85645.35  16711.45  19.51
2144.5  85393.28  16743.13  19.61
2147.0  85183.80  16779.03  19.70
2149.5  84748.30  16761.17  19.78
2152.1  84602.79  16798.83  19.86
2154.6  84517.20  16827.73  19.91
2157.1  84039.00  16783.73  19.97
2159.6  83677.94  16761.02  20.03
2162.1  83538.00  16769.03  20.07
2164.6  83323.40  16771.08  20.13
2167.1  83042.59  16759.59  20.18
2169.6  82742.63  16735.16  20.23
2172.1  82324.40  16689.25  20.27
2174.6  82044.75  16677.68  20.33
2177.1  81656.20  16649.66  20.39
2179.5  81285.59  16632.58  20.46
2182.0  80854.13  16593.92  20.52
2184.5  80361.21  16547.51  20.59
2187.0  79813.08  16491.83  20.66
2189.5  79204.80  16420.40  20.73
2191.9  78524.63  16328.13  20.79
2194.4  77978.14  16270.82  20.87
2196.9  77320.80  16183.20  20.93
2199.3  76734.00  16097.42  20.98
2201.8  75934.60  15967.53  21.03
2204.3  75524.53  15905.45  21.06
2206.7  74946.19  15814.18  21.10
2209.2  74547.51  15746.62  21.12
2211.6  73997.55  15642.00  21.14
2214.1  73722.04  15596.63  21.16
2216.5  73203.70  15493.52  21.16
2219.0  72905.70  15431.43  21.17
2221.4  72567.69  15346.04  21.15
2223.9  72136.31  15229.52  21.11
2226.3  71697.50  15093.17  21.05
2228.7  71197.06  14938.66  20.98
2231.1  70656.30  14753.48  20.88
2233.6  70126.85  14579.65  20.79
2236.0  69652.19  14384.13  20.65
2238.4  69220.81  14188.27  20.50
2240.9  68823.10  13988.62  20.33
2243.3  68346.30  13762.63  20.14
2245.7  67841.59  13524.54  19.94
2248.1  67402.08  13293.04  19.72
2250.5  66953.23  13050.71  19.49
2252.9  66392.95  12782.25  19.25
2255.3  65886.41  12524.56  19.01
2257.7  65490.00  12282.50  18.75
2260.1  65068.68  12045.02  18.51
2262.5  64537.50  11790.00  18.27
2264.9  64063.05  11543.23  18.02
2267.3  63517.50  11300.00  17.79
2269.7  63067.03  11084.33  17.58
2272.1  62586.64  10873.09  17.37
2274.5  62093.84  10664.70  17.18
2276.8  61662.60  10474.93  16.99
2279.2  61136.66  10273.61  16.80
2281.6  60762.40  10099.38  16.62
2284.0  60350.03  9923.25  16.44
2286.3  59948.80  9748.27  16.26
2288.7  59587.78  9587.61  16.09
2291.1  59089.83  9401.88  15.91
2293.4  58704.80  9232.30  15.73
2295.8  58153.80  9040.83  15.55
2298.2  57621.04  8851.84  15.36
2300.5  57038.85  8650.01  15.17
2302.9  56381.25  8450.08  14.99
2305.2  55728.15  8270.90  14.84
2307.6  55145.16  8106.32  14.70
2309.9  54443.75  7938.58  14.58
2312.2  53885.75  7806.83  14.49
2314.6  53336.14  7687.47  14.41
2316.9  52699.61  7550.33  14.33
2319.2  52170.25  7425.13  14.23
2321.6  51615.55  7289.10  14.12
2323.9  51125.00  7166.67  14.02
2326.2  50627.75  7037.28  13.90
2328.6  50167.84  6910.06  13.77
2330.9  49714.88  6788.25  13.65
2333.2  49299.81  6667.50  13.52
2335.5  48888.30  6556.43  13.41
2337.8  48476.48  6434.95  13.27
2340.1  47966.96  6305.56  13.15
2342.4  47580.00  6191.25  13.01
2344.8  47217.31  6072.40  12.86
2347.1  46701.55  5941.19  12.72
2349.4  46195.64  5825.06  12.61
2351.6  45675.10  5709.39  12.50
2353.9  45255.98  5602.18  12.38
2356.2  44780.71  5497.19  12.28
2358.5  44242.80  5384.40  12.17
2360.8  43730.40  5272.40  12.06
2363.1  43341.20  5182.10  11.96
2365.4  42917.40  5087.83  11.85
2367.7  42484.95  4978.95  11.72
2369.9  42001.46  4871.98  11.60
2372.2  41443.40  4758.67  11.48
2374.5  40921.65  4654.65  11.37
2376.7  40338.88  4542.12  11.26
2379.0  39794.73  4435.21  11.15
2381.3  39235.00  4325.42  11.02
2383.5  38772.80  4221.07  10.89
2385.8  38221.08  4109.51  10.75
2388.0  37754.10  4006.10  10.61
2390.3  37291.00  3913.03  10.49
2392.5  36864.00  3825.00  10.38
2394.8  36445.20  3723.78  10.22
2397.0  36008.70  3621.80  10.06
2399.3  35581.43  3533.17  9.93
2401.5  35178.94  3451.44  9.81
2403.8  34705.29  3359.37  9.68
2406.0  34251.38  3265.58  9.53
2408.2  33884.40  3185.23  9.40
2410.4  33489.66  3102.11  9.26
2412.7  33110.03  3022.29  9.13
2414.9  32788.80  2950.62  9.00
2417.1  32413.58  2876.55  8.87
2419.3  32035.20  2793.60  8.72
2421.6  31707.19  2718.96  8.58
2423.8  31372.85  2654.93  8.46
2426.0  31043.15  2586.93  8.33
2428.2  30703.40  2515.33  8.19
2430.4  30420.13  2451.48  8.06
2432.6  30160.00  2400.00  7.96
2434.8  29894.55  2342.51  7.84
2437.0  29570.13  2276.95  7.70
2439.2  29236.55  2209.98  7.56
2441.4  28957.20  2160.89  7.46
2443.6  28745.58  2107.04  7.33
2445.7  28509.43  2044.32  7.17
2447.9  28264.75  2004.00  7.09
2450.1  27977.06  1959.97  7.01
2452.3  27622.79  1891.63  6.85
2454.5  27295.83  1847.38  6.77
2456.6  26974.70  1794.03  6.65
2458.8  26651.63  1744.60  6.55
2461.0  26360.88  1693.96  6.43
2463.1  26091.79  1658.70  6.36
2465.3  25835.15  1624.30  6.29
2467.5  25609.69  1593.00  6.22
2469.6  25384.44  1555.07  6.13
2471.8  25104.11  1512.93  6.03
2473.9  24808.31  1478.17  5.96
2476.1  24479.00  1440.83  5.89
2478.2  24152.45  1412.89  5.85
2480.4  23876.93  1389.18  5.82
2482.5  23573.38  1354.79  5.75
2484.6  23281.50  1305.10  5.61
2486.8  23043.68  1271.70  5.52
2488.9  22739.84  1246.89  5.48
2491.1  22407.70  1221.73  5.45
2493.2  22081.90  1197.50  5.42
2495.3  21705.13  1174.44  5.41
2497.4  21384.83  1151.15  5.38
2499.5  21070.70  1116.65  5.30
2501.7  20964.83  1101.04  5.25
2503.8  20862.40  1082.41  5.19
2505.9  20794.69  1080.52  5.20
2508.0  20783.53  1077.28  5.18
2510.1  20762.55  1059.59  5.10
2512.2  20836.43  1068.89  5.13
2514.3  20957.60  1072.56  5.12
2516.4  21113.48  1103.20  5.23
