/*** Spectra Vista SIG Data ***/
name= 18_20220926_ACSA_02_avg.sig
comm= Averaged Ref/Tar of files: HR.092622.0051_moc.sig,HR.092622.0052_moc.sig,HR.092622.0053_moc.sig
data=
337.3  6217.05  508.06  8.17
338.8  6413.33  513.07  8.00
340.3  6805.80  516.74  7.59
341.8  7016.07  471.77  6.72
343.2  7461.30  497.42  6.67
344.7  7843.25  469.45  5.99
346.2  8225.00  471.57  5.73
347.7  8548.20  453.79  5.31
349.2  8820.00  473.76  5.37
350.6  9253.00  457.78  4.95
352.1  9763.50  471.67  4.83
353.6  10320.00  486.19  4.71
355.1  10777.05  496.72  4.61
356.6  11409.82  511.92  4.49
358.0  11905.10  531.93  4.47
359.5  12398.25  544.71  4.39
361.0  13046.00  537.65  4.12
362.5  13649.75  545.99  4.00
364.0  14370.05  565.75  3.94
365.4  15085.28  582.76  3.86
366.9  15710.75  613.98  3.91
368.4  16391.33  648.53  3.96
369.9  17101.33  671.33  3.93
371.3  17998.57  700.33  3.89
372.8  18702.00  720.37  3.85
374.3  19567.20  722.37  3.69
375.8  20390.45  753.64  3.70
377.2  21130.20  765.18  3.62
378.7  21947.92  786.61  3.58
380.2  22777.20  801.42  3.52
381.7  23702.33  808.83  3.41
383.1  24710.45  836.57  3.39
384.6  25621.55  862.23  3.37
386.1  26573.40  885.78  3.33
387.6  27444.15  911.30  3.32
389.0  28484.25  929.67  3.26
390.5  29515.52  957.26  3.24
392.0  30601.50  979.80  3.20
393.4  31715.50  1000.10  3.15
394.9  32711.73  1018.00  3.11
396.4  33834.53  1065.97  3.15
397.9  34936.40  1102.20  3.15
399.3  35875.72  1118.03  3.12
400.8  37057.90  1142.24  3.08
402.2  38280.00  1173.92  3.07
403.7  39500.60  1201.92  3.04
405.2  40629.47  1229.33  3.03
406.6  41887.40  1262.36  3.01
408.1  42939.05  1297.27  3.02
409.6  44143.80  1323.17  3.00
411.0  45372.98  1362.02  3.00
412.5  46740.63  1400.33  3.00
414.0  48093.73  1435.40  2.98
415.4  49407.00  1475.76  2.99
416.9  50683.77  1511.01  2.98
418.4  52041.62  1564.40  3.01
419.8  53378.50  1602.53  3.00
421.3  54862.50  1653.96  3.01
422.7  56310.80  1708.03  3.03
424.2  57815.10  1756.74  3.04
425.7  59244.17  1800.52  3.04
427.1  60724.60  1850.19  3.05
428.6  62211.80  1901.58  3.06
430.0  63734.55  1961.67  3.08
431.5  65389.78  2020.89  3.09
432.9  67040.67  2073.27  3.09
434.4  68739.52  2125.58  3.09
435.9  70387.73  2186.07  3.11
437.3  72065.00  2243.60  3.11
438.8  73692.62  2301.69  3.12
440.2  75374.13  2353.70  3.12
441.7  77221.93  2423.12  3.14
443.1  79036.20  2486.34  3.15
444.6  80803.63  2552.76  3.16
446.0  82613.77  2621.17  3.17
447.5  84550.00  2686.67  3.18
448.9  86306.97  2748.40  3.18
450.4  88200.00  2816.67  3.19
451.8  89997.75  2884.35  3.20
453.3  91815.65  2952.12  3.22
454.7  93614.85  3020.49  3.23
456.2  95420.73  3083.03  3.23
457.6  97333.20  3153.24  3.24
459.1  99161.30  3220.77  3.25
460.5  100992.97  3281.50  3.25
462.0  103025.40  3354.72  3.26
463.4  104995.33  3421.16  3.26
464.8  106975.05  3491.46  3.26
466.3  108895.65  3563.07  3.27
467.7  110921.60  3623.04  3.27
469.2  112763.00  3688.78  3.27
470.6  114811.08  3761.33  3.28
472.0  116852.50  3829.86  3.28
473.5  118846.27  3905.78  3.29
474.9  120999.60  3985.57  3.29
476.4  123079.87  4058.80  3.30
477.8  125178.67  4132.80  3.30
479.2  127252.18  4207.49  3.31
480.7  129393.70  4282.04  3.31
482.1  131601.22  4360.02  3.31
483.6  133789.80  4449.12  3.33
485.0  136051.75  4543.14  3.34
486.4  138166.43  4630.50  3.35
487.9  140421.33  4723.40  3.36
489.3  142579.80  4820.88  3.38
490.7  144772.57  4927.54  3.40
492.2  147001.42  5039.40  3.43
493.6  149273.07  5158.15  3.46
495.0  151572.85  5296.85  3.49
496.5  153770.40  5428.08  3.53
497.9  156062.50  5584.20  3.58
499.3  158332.50  5750.67  3.63
500.7  160630.80  5935.45  3.70
502.2  162989.97  6141.76  3.77
503.6  165289.60  6384.48  3.86
505.0  167551.82  6639.38  3.96
506.5  170005.73  6943.36  4.08
507.9  172470.57  7291.10  4.23
509.3  174802.80  7673.34  4.39
510.7  177435.05  8116.81  4.57
512.2  180084.40  8612.57  4.78
513.6  182892.58  9189.91  5.02
515.0  185621.10  9832.39  5.30
516.4  188457.20  10547.17  5.60
517.8  191240.50  11325.10  5.92
519.3  194153.60  12178.35  6.27
520.7  196800.20  13080.27  6.65
522.1  199453.15  14019.81  7.03
523.5  202028.02  14986.23  7.42
524.9  204899.25  15982.68  7.80
526.3  207488.70  16944.48  8.17
527.8  210260.17  17903.98  8.52
529.2  212889.60  18858.24  8.86
530.6  215722.80  19812.72  9.18
532.0  218677.33  20706.01  9.47
533.4  221089.53  21491.81  9.72
534.8  223593.70  22226.38  9.94
536.3  226667.95  22960.91  10.13
537.7  229728.33  23655.07  10.30
539.1  232663.17  24310.22  10.45
540.5  235553.50  24920.90  10.58
541.9  238495.65  25522.98  10.70
543.3  241063.00  26076.13  10.82
544.7  244024.00  26661.07  10.93
546.1  246830.27  27234.95  11.03
547.5  249825.60  27806.40  11.13
549.0  253043.20  28385.39  11.22
550.4  255896.55  28905.24  11.30
551.8  258803.62  29377.12  11.35
553.2  261723.55  29772.92  11.38
554.6  264579.80  30083.02  11.37
556.0  267502.90  30308.04  11.33
557.4  270613.47  30476.19  11.26
558.8  273450.70  30541.04  11.17
560.2  276613.33  30565.33  11.05
561.6  279524.30  30479.20  10.90
563.0  282301.50  30308.29  10.74
564.4  285458.60  30119.79  10.55
565.8  288467.70  29862.45  10.35
567.2  291600.20  29554.22  10.14
568.6  294610.05  29180.61  9.90
570.0  297496.33  28727.18  9.66
571.4  300885.23  28292.91  9.40
572.8  304022.67  27825.71  9.15
574.2  306903.45  27362.58  8.92
575.6  309929.50  26944.75  8.69
577.0  312912.42  26568.23  8.49
578.4  316312.50  26276.25  8.31
579.8  319351.67  25977.86  8.13
581.2  322417.33  25723.97  7.98
582.5  325305.00  25494.00  7.84
583.9  328347.93  25302.93  7.71
585.3  331210.33  25128.93  7.59
586.7  334180.00  25003.44  7.48
588.1  337135.47  24906.15  7.39
589.5  340454.50  24853.10  7.30
590.9  343413.55  24809.77  7.22
592.3  346342.95  24800.46  7.16
593.7  349290.78  24827.72  7.11
595.0  352206.40  24875.52  7.06
596.4  355513.50  24954.60  7.02
597.8  358143.53  24996.25  6.98
599.2  361254.40  25055.94  6.94
600.6  364426.70  25094.19  6.89
602.0  367392.00  25098.24  6.83
603.3  370257.33  25046.67  6.76
604.7  373251.68  24955.71  6.69
606.1  376245.05  24826.49  6.60
607.5  379530.63  24668.96  6.50
608.9  382600.17  24463.41  6.39
610.2  385741.95  24248.40  6.29
611.6  388648.33  23991.00  6.17
613.0  391440.03  23732.60  6.06
614.4  394189.30  23464.45  5.95
615.8  397427.67  23248.07  5.85
617.1  400098.78  23031.60  5.76
618.5  403331.80  22887.81  5.67
619.9  406027.80  22744.28  5.60
621.3  408980.22  22654.06  5.54
622.6  411859.50  22608.30  5.49
624.0  414552.50  22594.00  5.45
625.4  417641.50  22636.45  5.42
626.8  420592.03  22716.98  5.40
628.1  423432.33  22822.57  5.39
629.5  426218.80  22924.25  5.38
630.9  429116.77  23019.40  5.36
632.2  432183.38  23102.19  5.35
633.6  434668.65  23100.05  5.31
635.0  437622.22  23056.12  5.27
636.3  440652.47  22943.83  5.21
637.7  443355.80  22727.65  5.13
639.1  446326.83  22447.19  5.03
640.4  449024.42  22100.05  4.92
641.8  451850.40  21728.40  4.81
643.2  454424.63  21333.47  4.69
644.5  457286.67  20962.67  4.58
645.9  459903.50  20611.41  4.48
647.2  462746.90  20316.19  4.39
648.6  465496.53  20077.71  4.31
650.0  468178.80  19883.04  4.25
651.3  470656.67  19755.89  4.20
652.7  473947.00  19664.70  4.15
654.0  476912.60  19574.64  4.10
655.4  479179.75  19451.88  4.06
656.8  480777.50  19289.20  4.01
658.1  483333.90  19126.52  3.96
659.5  486633.60  18979.20  3.90
660.8  489937.70  18804.24  3.84
662.2  492693.15  18612.28  3.78
663.5  495410.87  18446.39  3.72
664.9  497459.83  18290.04  3.68
666.2  499575.05  18182.36  3.64
667.6  502084.50  18131.70  3.61
668.9  504921.60  18149.76  3.59
670.3  507582.83  18184.72  3.58
671.6  509987.20  18294.19  3.59
673.0  512276.80  18424.21  3.60
674.3  514721.90  18611.41  3.62
675.7  517244.40  18831.96  3.64
677.0  519592.70  19085.70  3.67
678.4  521845.20  19366.99  3.71
679.7  524209.30  19738.78  3.77
681.1  526748.73  20157.99  3.83
682.4  528981.25  20633.80  3.90
683.8  531326.00  21198.80  3.99
685.1  533568.20  21887.22  4.10
686.4  535763.80  22757.76  4.25
687.8  538302.45  23909.38  4.44
689.1  540638.93  25443.51  4.71
690.5  542623.83  27486.85  5.07
691.8  545329.03  30280.07  5.55
693.1  547752.00  33953.20  6.20
694.5  550095.60  38566.71  7.01
695.8  552542.80  44154.48  7.99
697.1  554786.07  50645.39  9.13
698.5  557091.25  58003.80  10.41
699.8  559475.20  66056.91  11.81
701.1  561362.20  74600.40  13.29
702.5  563441.25  83499.77  14.82
703.8  565911.15  92599.97  16.36
705.1  567738.93  101598.11  17.90
706.5  570054.55  110610.86  19.40
707.8  571888.30  119385.77  20.88
709.1  574096.92  128048.14  22.30
710.5  576305.53  136509.72  23.69
711.8  578235.33  144732.27  25.03
713.1  580213.33  152758.93  26.33
714.4  582329.03  160672.56  27.59
715.8  584642.62  168446.22  28.81
717.1  586868.77  176040.49  30.00
718.4  589088.15  183434.07  31.14
719.7  591303.75  190618.38  32.24
721.0  593071.65  197441.01  33.29
722.4  594920.40  204084.12  34.30
723.7  596915.43  210532.62  35.27
725.0  598646.33  216667.76  36.19
726.3  600972.67  222738.53  37.06
727.6  602685.00  228389.00  37.90
729.0  604549.63  233789.22  38.67
730.3  606537.58  238951.68  39.40
731.6  608095.67  243687.27  40.07
732.9  610073.32  248342.03  40.71
734.2  611685.25  252629.85  41.30
735.5  613475.13  256729.51  41.85
736.8  615507.67  260667.19  42.35
738.1  617359.65  264288.24  42.81
739.5  619114.00  267671.34  43.23
740.8  621044.05  270904.74  43.62
742.1  622613.70  273813.85  43.98
743.4  624438.97  276643.36  44.30
744.7  626416.00  279352.27  44.60
746.0  627907.25  281691.79  44.86
747.3  629533.33  283912.91  45.10
748.6  631154.47  285968.67  45.31
749.9  632998.32  287982.65  45.50
751.2  634366.88  289673.93  45.66
752.5  635998.08  291359.51  45.81
753.8  637353.90  292848.54  45.95
755.1  638999.73  294360.56  46.07
756.4  640092.82  295570.38  46.18
757.7  642110.33  297096.43  46.27
759.0  645760.27  299278.22  46.35
760.3  648430.27  301003.89  46.42
761.6  651312.58  302729.67  46.48
762.9  652776.67  303767.57  46.53
764.2  653616.90  304446.67  46.58
765.5  654536.97  305138.33  46.62
766.8  655126.90  305640.85  46.65
768.1  656201.70  306355.98  46.69
769.3  657464.20  307126.51  46.71
770.6  658933.27  307956.39  46.74
771.9  660165.67  308684.36  46.76
773.2  661638.90  309478.65  46.77
774.5  662559.90  310037.60  46.79
775.8  663670.85  310661.00  46.81
777.1  664873.48  311356.50  46.83
778.4  666221.83  312081.63  46.84
779.6  667554.00  312797.84  46.86
780.9  668290.50  313246.98  46.87
782.2  669281.98  313805.64  46.89
783.5  670235.67  314324.83  46.90
784.8  671048.00  314811.35  46.91
786.0  671966.62  315279.56  46.92
787.3  672833.13  315776.00  46.93
788.6  673774.75  316307.78  46.95
789.9  674496.93  316736.76  46.96
791.2  675830.97  317453.69  46.97
792.4  677054.58  318084.25  46.98
793.7  678620.58  318905.81  46.99
795.0  679689.40  319479.67  47.00
796.2  681080.07  320189.11  47.01
797.5  682385.42  320859.67  47.02
798.8  683830.58  321606.37  47.03
800.0  684973.33  322224.00  47.04
801.3  686259.00  322878.15  47.05
802.6  687312.00  323424.00  47.06
803.8  688446.15  323989.54  47.06
805.1  689549.25  324587.05  47.07
806.4  690534.98  325129.59  47.08
807.7  691763.17  325748.40  47.09
808.9  692908.37  326353.62  47.10
810.2  693861.00  326826.92  47.10
811.4  695068.53  327377.23  47.10
812.7  696398.47  328087.68  47.11
814.0  697735.50  328768.44  47.12
815.2  699120.70  329490.92  47.13
816.5  700245.00  330083.83  47.14
817.7  701184.67  330518.37  47.14
819.0  701988.00  330896.53  47.14
820.2  702843.70  331359.56  47.15
821.5  703980.40  331942.53  47.15
822.7  704998.93  332511.04  47.16
824.0  705934.67  332957.82  47.17
825.2  706743.70  333337.16  47.17
826.5  707490.17  333739.33  47.17
827.7  708685.43  334278.21  47.17
829.0  709589.20  334752.67  47.18
830.2  710500.53  335250.80  47.19
831.5  711443.40  335716.47  47.19
832.7  712485.00  336212.64  47.19
834.0  713135.25  336556.35  47.19
835.2  714218.87  337075.96  47.20
836.4  715009.33  337453.55  47.20
837.7  715777.50  337881.75  47.20
838.9  717017.57  338495.45  47.21
840.1  717911.70  338990.52  47.22
841.4  719019.47  339475.41  47.21
842.6  719894.93  339926.72  47.22
843.8  720656.73  340343.12  47.23
845.1  721409.70  340765.92  47.24
846.3  722341.20  341221.58  47.24
847.5  723263.67  341718.43  47.25
848.8  724163.33  342163.11  47.25
850.0  725385.47  342727.92  47.25
851.2  726361.47  343191.59  47.25
852.5  727605.13  343780.08  47.25
853.7  728254.35  344160.99  47.26
854.9  729375.40  344706.96  47.26
856.1  730307.30  345204.09  47.27
857.4  731253.75  345652.69  47.27
858.6  732324.13  346127.04  47.26
859.8  733365.07  346709.96  47.28
861.0  734397.07  347208.26  47.28
862.2  735392.00  347679.08  47.28
863.5  736346.23  348128.87  47.28
864.7  737341.67  348545.83  47.27
865.9  738408.08  349055.07  47.27
867.1  739075.00  349366.67  47.27
868.3  740339.52  349987.67  47.27
869.5  741452.77  350543.11  47.28
870.8  742579.50  351059.64  47.28
872.0  743485.93  351510.67  47.28
873.2  744466.27  351906.97  47.27
874.4  745491.10  352300.12  47.26
875.6  746611.03  352883.94  47.26
876.8  748073.70  353561.12  47.26
878.0  748995.10  354025.23  47.27
879.2  750036.60  354544.86  47.27
880.4  751094.67  355040.80  47.27
881.6  752192.00  355455.49  47.26
882.8  753548.23  356084.70  47.25
884.0  754521.52  356480.76  47.25
885.2  755896.50  357119.57  47.24
886.5  757153.60  357764.49  47.25
887.7  758284.15  358207.85  47.24
888.8  759791.63  358811.33  47.22
890.0  760725.00  359219.00  47.22
891.2  761908.55  359662.55  47.21
892.4  763382.95  360342.95  47.20
893.6  765110.57  361158.77  47.20
894.8  766620.45  361905.01  47.21
896.0  768378.10  362682.89  47.20
897.2  770224.95  363474.54  47.19
898.4  772158.80  364405.72  47.19
899.6  773530.13  364999.19  47.19
900.8  774155.63  365257.01  47.18
902.0  774933.87  365451.77  47.16
903.2  775222.73  365554.76  47.15
904.3  776441.25  366093.00  47.15
905.5  777694.50  366676.20  47.15
906.7  778968.08  367238.58  47.14
907.9  780078.97  367729.65  47.14
909.1  781230.45  368176.78  47.13
910.2  781830.00  368392.50  47.12
911.4  781942.80  368393.28  47.11
912.6  782466.67  368600.00  47.11
913.8  783587.23  369042.19  47.10
915.0  784113.60  369211.76  47.09
916.2  784391.15  369377.23  47.09
917.3  785254.38  369714.67  47.08
918.5  785742.20  369856.86  47.07
919.7  785797.67  369776.83  47.06
920.8  786162.45  369852.49  47.05
922.0  786316.48  369915.15  47.04
923.2  787046.80  370137.49  47.03
924.4  787828.00  370382.43  47.01
925.5  788673.07  370728.72  47.01
926.7  789688.45  371026.42  46.98
927.9  791294.63  371711.91  46.98
929.0  794413.80  373093.92  46.96
930.2  798732.13  375009.84  46.95
931.4  803839.65  377291.63  46.94
932.5  808454.17  379295.40  46.92
933.7  811601.70  380573.67  46.89
934.9  813044.17  381161.67  46.88
936.0  812371.20  380623.92  46.85
937.2  809461.95  379163.20  46.84
938.3  805408.50  377107.03  46.82
939.5  803462.40  375899.16  46.78
940.7  803548.90  375724.58  46.76
941.8  806450.67  377015.69  46.75
943.0  808763.65  377790.04  46.71
944.2  810568.00  378541.60  46.70
945.3  810147.20  378085.20  46.67
946.5  808937.50  377153.00  46.62
947.6  809899.00  377391.50  46.60
948.8  808757.23  376676.48  46.57
949.9  809211.08  376698.98  46.55
951.1  809577.75  376567.77  46.51
952.2  809442.22  375845.63  46.43
953.4  809495.50  375339.32  46.37
954.5  807777.25  374333.05  46.34
955.7  807544.87  373854.87  46.30
956.8  807933.07  373785.80  46.26
958.0  807320.70  373129.92  46.22
959.1  807105.60  372738.24  46.18
960.3  806908.33  372158.33  46.12
961.4  807633.00  372361.32  46.11
962.6  807216.00  371898.24  46.07
963.7  807522.80  372099.65  46.08
964.9  808370.47  371931.39  46.01
966.0  808679.90  371985.83  46.00
967.2  809345.60  372099.84  45.98
968.3  810474.37  372459.30  45.96
969.5  810886.12  372773.45  45.97
970.6  810904.87  373063.07  46.01
971.8  810989.08  373014.53  46.00
972.9  812569.33  373258.20  45.94
974.0  813234.73  373452.91  45.92
975.2  812261.25  373059.00  45.93
976.3  813670.07  373433.78  45.89
977.5  813841.50  373138.65  45.85
978.6  813858.70  373334.65  45.87
979.7  813530.67  373361.71  45.89
980.9  814007.40  373514.51  45.89
982.0  813942.30  373333.41  45.87
983.2  814823.33  373778.53  45.87
984.3  814273.60  372766.19  45.78
985.4  813491.93  372621.67  45.81
986.6  814000.27  372972.25  45.82
987.7  813319.75  372661.17  45.82
988.9  815096.32  373016.52  45.76
990.0  814793.93  373266.37  45.81
993.1  834171.00  380481.43  45.61
996.9  835824.60  381993.63  45.70
1000.7  836461.88  382987.61  45.79
1004.5  835865.53  383386.26  45.87
1008.4  836975.92  384579.87  45.95
1012.2  838696.00  385939.58  46.02
1016.0  839269.98  386796.19  46.09
1019.8  838985.85  387186.30  46.15
1023.7  838887.73  387568.38  46.20
1027.5  837940.40  387547.72  46.25
1031.3  837532.62  387676.97  46.29
1035.1  837244.50  387808.96  46.32
1038.9  837053.63  387946.54  46.35
1042.7  836815.30  388040.20  46.37
1046.5  836059.00  387817.50  46.39
1050.3  834560.94  387188.16  46.39
1054.2  832604.03  386449.37  46.41
1058.0  831675.60  386020.29  46.41
1061.8  830438.50  385555.92  46.43
1065.6  828860.54  384763.06  46.42
1069.4  827481.13  384064.57  46.41
1073.2  826483.13  383512.54  46.40
1077.0  825319.73  382873.33  46.39
1080.8  824242.83  382134.24  46.36
1084.6  822818.33  381233.02  46.33
1088.4  821155.22  380357.88  46.32
1092.2  819648.90  379387.47  46.29
1096.0  818326.83  378514.90  46.25
1099.8  817008.63  377587.11  46.22
1103.6  815485.97  376523.10  46.17
1107.4  814182.99  375532.33  46.12
1111.2  812734.47  374510.26  46.08
1114.9  811615.50  373533.43  46.02
1118.7  810759.08  372573.43  45.95
1122.5  810509.27  371747.77  45.87
1126.3  807855.30  369693.45  45.76
1130.1  807266.23  368216.30  45.61
1133.9  803917.88  365069.58  45.41
1137.7  801454.80  361918.83  45.16
1141.4  797993.48  357973.15  44.86
1145.2  797323.38  354961.36  44.52
1149.0  795441.15  351605.78  44.20
1152.8  792269.60  347932.91  43.92
1156.6  788875.79  344702.63  43.70
1160.3  785673.60  342041.38  43.53
1164.1  781027.00  339162.22  43.43
1167.9  777782.42  337197.79  43.35
1171.7  775270.37  335732.91  43.31
1175.4  773247.26  334590.78  43.27
1179.2  771645.75  333588.43  43.23
1183.0  771921.00  333386.20  43.19
1186.7  771512.00  332894.33  43.15
1190.5  769537.54  331753.70  43.11
1194.3  766630.08  330224.53  43.07
1198.0  763868.68  328944.88  43.06
1201.8  761530.00  327961.33  43.07
1205.6  759788.75  327385.45  43.09
1209.3  758322.75  327113.14  43.14
1213.1  756514.67  326707.62  43.19
1216.8  754187.20  326190.82  43.25
1220.6  751862.33  325658.93  43.31
1224.3  749466.67  325082.74  43.38
1228.1  747556.16  324733.03  43.44
1231.9  745488.90  324242.19  43.49
1235.6  743257.63  323578.12  43.54
1239.4  741092.90  323020.28  43.59
1243.1  739023.30  322350.17  43.62
1246.9  737167.66  321680.12  43.64
1250.6  735188.77  320941.96  43.65
1254.3  733339.20  320221.71  43.67
1258.1  731512.00  319448.28  43.67
1261.8  729183.47  318441.10  43.67
1265.6  726676.38  317291.79  43.66
1269.3  723849.27  315895.45  43.64
1273.1  724066.83  315765.97  43.61
1276.8  724754.27  315767.90  43.57
1280.6  725027.31  315566.26  43.52
1284.3  722958.82  314304.59  43.47
1288.0  720891.49  312928.77  43.41
1291.8  718653.60  311310.00  43.32
1295.5  716387.65  309636.27  43.22
1299.2  713990.55  307795.52  43.11
1302.9  711238.73  305664.01  42.98
1306.7  708307.43  303286.05  42.82
1310.4  705458.45  300708.30  42.63
1314.1  703201.88  298237.23  42.41
1317.9  700893.38  295520.34  42.16
1321.6  698220.25  292444.97  41.88
1325.3  695466.00  289087.55  41.57
1329.0  692866.53  285675.13  41.23
1332.8  688967.50  281517.50  40.86
1336.5  685329.88  277433.95  40.48
1340.2  683374.85  274016.09  40.10
1343.9  682418.95  271009.85  39.71
1347.6  681607.25  268041.16  39.32
1351.4  680992.50  265287.86  38.96
1355.1  681683.29  263068.89  38.59
1358.8  680307.08  259933.27  38.21
1362.5  679951.07  256926.73  37.79
1366.2  677552.00  252676.87  37.29
1369.9  673400.00  247186.43  36.71
1373.6  669493.83  240886.06  35.98
1377.3  666886.23  233756.19  35.05
1381.0  664249.75  224879.51  33.85
1384.8  660433.85  213721.41  32.36
1388.4  656111.15  201112.44  30.65
1392.2  651989.53  187541.75  28.76
1395.9  650024.47  174170.37  26.79
1399.6  646125.57  160752.71  24.88
1403.3  643820.40  148847.83  23.12
1407.0  641631.38  138470.95  21.58
1410.7  640291.73  130016.76  20.31
1414.3  638385.00  123177.07  19.30
1418.1  636343.75  117937.50  18.53
1421.7  634562.60  114013.40  17.97
1425.4  633300.01  111236.56  17.56
1429.1  629931.75  108948.00  17.30
1432.8  628648.95  107724.02  17.14
1436.5  625395.88  106588.16  17.04
1440.2  621909.83  105824.12  17.02
1443.9  619547.95  105523.94  17.03
1447.6  615848.00  105211.20  17.08
1451.2  612933.70  105119.01  17.15
1454.9  611229.03  105361.62  17.24
1458.6  607603.21  105552.66  17.37
1462.3  606713.47  106510.02  17.56
1466.0  606724.96  107998.29  17.80
1469.7  604973.60  109612.07  18.12
1473.3  602853.53  111485.73  18.49
1477.0  598786.95  113251.53  18.91
1480.7  595680.71  115356.54  19.37
1484.4  592021.08  117384.82  19.83
1488.0  588967.83  119625.32  20.31
1491.7  585432.40  121721.25  20.79
1495.4  581940.58  123836.47  21.28
1499.0  578915.35  125951.06  21.76
1502.7  576166.01  128113.53  22.24
1506.4  573441.72  130189.83  22.70
1510.0  570727.08  132192.20  23.16
1513.7  568104.42  134118.57  23.61
1517.4  565565.47  135980.53  24.04
1521.0  563207.88  137800.21  24.47
1524.7  560721.41  139450.59  24.87
1528.3  558302.87  141044.05  25.26
1532.0  555752.95  142501.65  25.64
1535.7  553117.50  143779.66  25.99
1539.3  550583.87  145017.98  26.34
1543.0  548981.71  146414.63  26.67
1546.6  547598.08  147822.20  26.99
1550.3  546054.58  149067.17  27.30
1553.9  543675.93  150001.38  27.59
1557.6  541484.80  150900.65  27.87
1561.2  538997.48  151600.96  28.13
1564.9  536370.97  152221.73  28.38
1568.5  533658.67  152746.29  28.62
1572.2  531350.28  153309.33  28.85
1575.8  529570.45  153989.67  29.08
1579.5  527728.05  154588.36  29.29
1583.1  525482.53  155046.45  29.51
1586.8  523352.08  155465.10  29.71
1590.4  521344.63  155872.63  29.90
1594.0  519001.47  156163.58  30.09
1597.7  516703.18  156435.31  30.28
1601.3  514194.08  156617.84  30.46
1604.9  511377.53  156630.52  30.63
1608.6  508574.03  156575.54  30.79
1612.2  506025.88  156543.48  30.94
1615.8  503848.20  156564.08  31.07
1619.5  501731.42  156547.06  31.20
1623.1  498991.35  156287.65  31.32
1626.7  496203.35  155933.39  31.43
1630.3  493653.00  155613.34  31.52
1634.0  491249.09  155280.56  31.61
1637.6  489089.17  154907.50  31.67
1641.2  486820.13  154431.23  31.72
1644.8  484348.09  153719.58  31.74
1648.5  481741.23  152898.89  31.74
1652.1  479561.92  152103.53  31.72
1655.7  477672.43  151338.32  31.68
1659.3  475779.15  150618.38  31.66
1662.9  472590.70  149504.82  31.64
1666.6  469081.53  148320.07  31.62
1670.2  465731.20  147177.56  31.60
1673.8  462500.02  145986.79  31.56
1677.4  459992.33  144944.20  31.51
1681.0  458373.43  144017.84  31.42
1684.6  457492.29  143147.06  31.29
1688.2  456019.20  141887.20  31.11
1691.8  454391.45  140574.81  30.94
1695.4  453506.13  139517.04  30.76
1699.0  452700.80  138489.88  30.59
1702.6  452137.87  137486.97  30.41
1706.2  450650.13  136120.19  30.21
1709.8  448538.63  134586.06  30.01
1713.4  446971.20  133328.74  29.83
1717.0  445355.13  132243.05  29.69
1720.6  443733.72  131263.33  29.58
1724.2  442331.16  130410.11  29.48
1727.8  440950.20  129619.12  29.40
1731.4  440252.26  128987.36  29.30
1735.0  440136.63  128525.14  29.20
1738.6  439609.50  127775.20  29.07
1742.2  438655.35  126781.80  28.90
1745.8  436868.27  125491.20  28.73
1749.4  434483.83  123946.09  28.53
1753.0  430704.40  122013.77  28.33
1756.6  426891.50  120146.25  28.14
1760.1  423674.80  118510.52  27.97
1763.7  419927.47  116778.61  27.81
1767.3  416888.40  115303.77  27.66
1770.9  414278.04  113953.43  27.51
1774.5  411246.77  112565.43  27.37
1778.0  409100.33  111515.29  27.26
1781.6  406913.73  110606.87  27.18
1785.2  404371.33  109729.67  27.14
1788.8  401617.29  108943.90  27.13
1792.3  399358.30  108324.82  27.12
1795.9  398928.10  108237.12  27.13
1799.5  399190.35  108336.21  27.14
1803.1  399597.21  108495.66  27.15
1806.6  400106.25  108665.19  27.16
1810.2  401414.48  109045.35  27.17
1813.8  401228.87  109014.30  27.17
1817.3  401113.63  108980.97  27.17
1820.9  400640.63  108816.52  27.16
1824.5  399861.89  108505.86  27.14
1828.0  400539.20  108519.78  27.09
1831.6  401373.77  108496.64  27.03
1835.2  400812.08  107961.46  26.94
1838.7  401151.33  107440.08  26.78
1842.3  399481.25  106202.50  26.59
1845.8  398083.40  104742.08  26.31
1849.4  397660.43  103193.50  25.95
1852.9  396034.38  100895.39  25.48
1856.5  394540.36  98100.27  24.86
1860.0  394379.52  95007.42  24.09
1863.6  393774.73  91140.95  23.15
1867.1  393466.63  86647.19  22.02
1870.7  394016.09  81287.11  20.63
1874.2  392950.56  74606.33  18.99
1877.8  389795.67  67139.49  17.22
1881.3  386887.85  59456.35  15.37
1884.9  384816.63  52104.61  13.54
1888.4  382908.88  45117.57  11.78
1891.9  381603.40  39079.05  10.24
1895.5  380411.15  34114.57  8.97
1899.0  379917.25  30407.43  8.00
1901.3  389191.47  22570.40  5.80
1904.1  389328.58  20605.61  5.29
1906.8  387893.82  18994.85  4.90
1909.6  384759.87  17704.49  4.60
1912.4  381534.80  16783.31  4.40
1915.1  378103.07  16057.41  4.25
1917.9  374757.75  15519.62  4.14
1920.6  372350.57  15149.02  4.07
1923.3  370274.47  14922.13  4.03
1926.1  367570.05  14746.30  4.01
1928.8  364499.20  14612.87  4.01
1931.6  363965.47  14674.30  4.03
1934.3  360740.30  14718.17  4.08
1937.0  357378.60  14776.80  4.13
1939.8  354594.82  14898.19  4.20
1942.5  350553.42  15009.87  4.28
1945.2  347329.83  15172.50  4.37
1947.9  344805.72  15401.46  4.47
1950.7  340824.85  15603.43  4.58
1953.4  337484.57  15856.65  4.70
1956.1  334901.93  16179.89  4.83
1958.8  332793.42  16532.83  4.97
1961.5  329921.55  16887.85  5.12
1964.2  326615.67  17251.84  5.28
1966.9  323689.33  17632.80  5.45
1969.6  321041.60  18045.31  5.62
1972.3  318546.15  18504.09  5.81
1975.0  316076.00  18965.11  6.00
1977.7  313909.37  19448.39  6.20
1980.4  311757.60  19951.56  6.40
1983.1  309462.83  20446.95  6.61
1985.8  307366.80  20971.20  6.82
1988.4  305372.10  21496.38  7.04
1991.1  303627.10  22045.80  7.26
1993.8  302185.80  22620.97  7.49
1996.5  300703.90  23202.90  7.72
1999.1  299305.13  23784.04  7.95
2001.8  298065.48  24364.88  8.17
2004.5  296852.20  24942.18  8.40
2007.1  295415.87  25474.18  8.62
2009.8  293469.17  25970.00  8.85
2012.4  292154.32  26518.72  9.08
2015.1  290970.67  27026.49  9.29
2017.8  289798.20  27556.91  9.51
2020.4  288692.65  28057.40  9.72
2023.1  288238.65  28566.04  9.91
2025.7  287952.98  29076.37  10.10
2028.3  287148.93  29509.32  10.28
2031.0  286588.27  29970.15  10.46
2033.6  286287.75  30433.33  10.63
2036.2  285873.93  30817.73  10.78
2038.9  284876.80  31137.60  10.93
2041.5  283937.50  31451.39  11.08
2044.1  283166.67  31770.83  11.22
2046.8  282024.20  32009.09  11.35
2049.4  281220.07  32266.82  11.47
2052.0  280987.82  32580.12  11.59
2054.6  280586.93  32878.04  11.72
2057.2  279544.00  33097.62  11.84
2059.8  278103.00  33278.00  11.97
2062.4  276747.47  33458.54  12.09
2065.0  275397.15  33637.90  12.21
2067.6  273538.50  33744.48  12.34
2070.2  272066.17  33877.69  12.45
2072.8  271173.83  34091.75  12.57
2075.4  270129.00  34282.94  12.69
2078.0  269485.30  34525.89  12.81
2080.6  268258.50  34663.86  12.92
2083.2  266969.93  34810.12  13.04
2085.8  265679.40  34914.37  13.14
2088.4  264590.45  35057.82  13.25
2090.9  262966.50  35095.17  13.35
2093.5  261080.00  35117.40  13.45
2096.1  259309.05  35142.25  13.55
2098.7  257842.97  35204.02  13.65
2101.2  255965.40  35195.87  13.75
2103.8  254494.25  35244.69  13.85
2106.4  253106.23  35300.70  13.95
2108.9  252042.47  35404.53  14.05
2111.5  251100.50  35483.00  14.13
2114.0  250510.00  35634.44  14.22
2116.6  248350.67  35550.78  14.31
2119.1  247271.50  35609.70  14.40
2121.7  246744.77  35731.16  14.48
2124.2  246563.83  35894.00  14.56
2126.8  245422.95  35902.88  14.63
2129.3  244344.75  35913.44  14.70
2131.9  244551.20  36128.98  14.77
2134.4  243735.10  36173.28  14.84
2136.9  243491.40  36297.13  14.91
2139.4  242436.25  36300.06  14.97
2142.0  241965.63  36400.52  15.04
2144.5  241438.42  36479.61  15.11
2147.0  241010.42  36573.10  15.17
2149.5  240643.67  36646.74  15.23
2152.1  240966.27  36846.19  15.29
2154.6  241001.60  36988.53  15.35
2157.1  240910.33  37090.69  15.40
2159.6  239835.47  37043.96  15.45
2162.1  239676.13  37157.45  15.50
2164.6  238999.88  37179.85  15.56
2167.1  238082.20  37135.84  15.60
2169.6  238190.48  37265.15  15.65
2172.1  237374.80  37252.13  15.69
2174.6  236992.70  37283.71  15.73
2177.1  235944.42  37248.89  15.79
2179.5  235475.30  37295.10  15.84
2182.0  235156.92  37398.19  15.90
2184.5  234207.00  37414.20  15.97
2187.0  233425.83  37422.43  16.03
2189.5  232394.97  37383.39  16.09
2191.9  231198.92  37331.74  16.15
2194.4  229547.75  37201.67  16.21
2196.9  228483.57  37137.71  16.25
2199.3  227085.20  36999.43  16.29
2201.8  225928.73  36926.32  16.34
2204.3  225206.90  36881.37  16.38
2206.7  224005.05  36800.77  16.43
2209.2  222834.15  36683.25  16.46
2211.6  220901.83  36458.32  16.50
2214.1  220225.48  36388.10  16.52
2216.5  219869.85  36363.40  16.54
2219.0  218576.60  36179.61  16.55
2221.4  218612.70  36193.80  16.56
2223.9  217485.67  35965.51  16.54
2226.3  216222.65  35692.11  16.51
2228.7  215255.73  35490.86  16.49
2231.1  214617.63  35278.50  16.44
2233.6  213601.60  34952.00  16.36
2236.0  212534.95  34592.39  16.28
2238.4  211745.95  34249.68  16.17
2240.9  211034.80  33884.67  16.06
2243.3  210165.05  33483.86  15.93
2245.7  209350.13  33058.68  15.79
2248.1  208416.00  32595.91  15.64
2250.5  207662.40  32130.27  15.47
2252.9  207009.27  31676.91  15.30
2255.3  206241.23  31182.41  15.12
2257.7  205341.03  30689.63  14.95
2260.1  204451.60  30208.13  14.78
2262.5  203429.20  29706.40  14.60
2264.9  202473.77  29201.03  14.42
2267.3  201572.80  28762.07  14.27
2269.7  200647.50  28354.34  14.13
2272.1  199843.83  27977.95  14.00
2274.5  199093.40  27615.78  13.87
2276.8  198438.13  27264.53  13.74
2279.2  197657.80  26946.23  13.63
2281.6  197108.85  26671.88  13.53
2284.0  196732.80  26373.60  13.41
2286.3  196242.93  26061.95  13.28
2288.7  195678.55  25786.63  13.18
2291.1  195139.00  25498.00  13.07
2293.4  194453.80  25174.00  12.95
2295.8  193707.80  24858.96  12.83
2298.2  192995.80  24497.47  12.69
2300.5  191876.45  24122.15  12.57
2302.9  190530.45  23746.63  12.46
2305.2  189089.42  23361.14  12.35
2307.6  187607.47  22996.09  12.26
2309.9  186529.10  22699.82  12.17
2312.2  185601.67  22463.06  12.10
2314.6  184554.73  22235.90  12.05
2316.9  183545.73  22004.21  11.99
2319.2  182854.47  21779.33  11.91
2321.6  182274.13  21547.91  11.82
2323.9  181495.60  21331.47  11.75
2326.2  180655.97  21077.65  11.67
2328.6  179980.45  20851.60  11.59
2330.9  179660.13  20685.64  11.51
2333.2  179171.00  20514.08  11.45
2335.5  178631.70  20318.86  11.37
2337.8  178176.60  20119.60  11.29
2340.1  177556.20  19932.85  11.23
2342.4  177147.00  19743.75  11.15
2344.8  176449.87  19535.87  11.07
2347.1  175720.30  19333.83  11.00
2349.4  175082.67  19155.96  10.94
2351.6  174306.00  18924.00  10.86
2353.9  173275.20  18679.80  10.78
2356.2  172560.18  18506.57  10.72
2358.5  171707.45  18279.84  10.65
2360.8  171000.00  18063.19  10.56
2363.1  170563.92  17922.58  10.51
2365.4  170100.00  17766.00  10.44
2367.7  169633.87  17536.51  10.34
2369.9  168922.05  17395.76  10.30
2372.2  167716.10  17157.55  10.23
2374.5  166515.00  16872.50  10.13
2376.7  165633.30  16622.23  10.04
2379.0  164458.25  16395.13  9.97
2381.3  162998.00  16036.90  9.84
2383.5  162038.33  15812.22  9.76
2385.8  161430.50  15571.11  9.65
2388.0  160598.00  15364.18  9.57
2390.3  159884.05  15143.84  9.47
2392.5  159375.92  14919.50  9.36
2394.8  158500.08  14639.81  9.24
2397.0  158021.73  14423.95  9.13
2399.3  157452.27  14209.03  9.02
2401.5  156675.40  13968.33  8.92
2403.8  156003.93  13725.81  8.80
2406.0  155499.30  13540.15  8.71
2408.2  154710.15  13308.40  8.60
2410.4  153843.68  13075.07  8.50
2412.7  153434.20  12869.47  8.39
2414.9  152822.07  12677.47  8.30
2417.1  152792.40  12489.40  8.17
2419.3  152312.63  12257.57  8.05
2421.6  151518.03  12064.19  7.96
2423.8  150949.93  11818.21  7.83
2426.0  150614.30  11626.57  7.72
2428.2  150265.50  11415.25  7.60
2430.4  150197.42  11213.17  7.47
2432.6  149989.60  11061.53  7.37
2434.8  149486.95  10822.77  7.24
2437.0  148961.80  10692.50  7.18
2439.2  148534.10  10493.02  7.06
2441.4  147642.80  10236.40  6.93
2443.6  147545.53  10015.76  6.79
2445.7  147669.23  9939.90  6.73
2447.9  147646.85  9759.97  6.61
2450.1  146816.25  9543.61  6.50
2452.3  145937.55  9285.10  6.36
2454.5  145328.40  9084.44  6.25
2456.6  144660.50  8865.69  6.13
2458.8  143586.33  8738.02  6.09
2461.0  143173.77  8593.72  6.00
2463.1  142876.50  8428.44  5.90
2465.3  142281.33  8284.00  5.82
2467.5  141882.00  8152.44  5.75
2469.6  141442.67  8041.06  5.69
2471.8  141041.83  7882.12  5.59
2473.9  140449.83  7794.22  5.55
2476.1  139704.58  7687.78  5.50
2478.2  138816.23  7536.94  5.43
2480.4  137923.20  7316.53  5.30
2482.5  137080.20  7183.48  5.24
2484.6  136038.00  7161.33  5.26
2486.8  135261.30  7030.16  5.20
2488.9  134720.00  6932.47  5.15
2491.1  133482.63  6797.33  5.09
2493.2  132319.27  6710.60  5.07
2495.3  130745.90  6540.19  5.00
2497.4  129437.15  6476.24  5.00
2499.5  128606.97  6440.69  5.01
2501.7  128691.00  6335.00  4.92
2503.8  128852.97  6299.06  4.89
2505.9  129485.30  6293.10  4.86
2508.0  130205.25  6298.67  4.84
2510.1  131126.70  6369.30  4.86
2512.2  131870.25  6338.92  4.81
2514.3  133096.60  6461.00  4.85
2516.4  134939.92  6532.36  4.84
