/*** Spectra Vista SIG Data ***/
name= 38_20220721_CECA_41_avg.sig
comm= Averaged Ref/Tar of files: HR.072122.0036_moc.sig,HR.072122.0037_moc.sig,HR.072122.0038_moc.sig
data=
337.3  3275.25  284.52  8.69
338.8  3367.00  269.36  8.00
340.3  3513.75  249.87  7.11
341.8  3658.00  256.06  7.00
343.2  3862.80  248.64  6.44
344.7  4051.75  244.53  6.04
346.2  4207.55  239.65  5.70
347.7  4404.40  241.19  5.48
349.2  4573.80  236.88  5.18
350.6  4774.25  239.94  5.03
352.1  5072.95  233.40  4.60
353.6  5309.10  235.96  4.44
355.1  5590.05  246.95  4.42
356.6  5866.73  240.35  4.10
358.0  6124.80  246.69  4.03
359.5  6396.30  247.20  3.86
361.0  6673.28  251.37  3.77
362.5  7026.00  257.62  3.67
364.0  7340.80  259.99  3.54
365.4  7699.40  269.76  3.50
366.9  8011.25  268.88  3.36
368.4  8346.15  276.39  3.31
369.9  8675.03  291.87  3.36
371.3  9051.30  295.48  3.26
372.8  9425.25  311.52  3.31
374.3  9809.38  315.33  3.21
375.8  10241.00  319.81  3.12
377.2  10625.50  322.80  3.04
378.7  11002.10  322.80  2.93
380.2  11351.80  329.97  2.91
381.7  11836.95  335.11  2.83
383.1  12262.25  341.37  2.78
384.6  12759.18  348.88  2.73
386.1  13188.20  363.94  2.76
387.6  13636.70  362.93  2.66
389.0  14070.00  368.05  2.62
390.5  14522.85  382.32  2.63
392.0  15023.60  384.41  2.56
393.4  15528.53  395.88  2.55
394.9  16051.50  407.16  2.54
396.4  16585.88  417.45  2.52
397.9  17117.50  427.08  2.50
399.3  17600.88  432.21  2.46
400.8  18120.48  442.00  2.44
402.2  18707.10  445.17  2.38
403.7  19260.00  462.24  2.40
405.2  19815.98  473.50  2.39
406.6  20369.60  485.65  2.38
408.1  20927.60  497.20  2.38
409.6  21489.05  503.39  2.34
411.0  22118.60  518.09  2.34
412.5  22720.08  533.12  2.35
414.0  23329.38  548.77  2.35
415.4  23989.13  569.75  2.38
416.9  24614.18  591.10  2.40
418.4  25248.60  602.58  2.39
419.8  25916.80  618.80  2.39
421.3  26594.90  634.57  2.39
422.7  27318.00  656.56  2.40
424.2  28046.25  681.75  2.43
425.7  28753.20  699.81  2.43
427.1  29434.50  719.51  2.44
428.6  30194.00  739.87  2.45
430.0  30881.13  760.77  2.46
431.5  31700.70  782.07  2.47
432.9  32523.00  802.82  2.47
434.4  33334.28  825.12  2.48
435.9  34104.00  849.33  2.49
437.3  34883.75  865.33  2.48
438.8  35661.53  888.71  2.49
440.2  36463.35  909.11  2.49
441.7  37359.20  930.85  2.49
443.1  38199.75  955.77  2.50
444.6  39103.50  978.13  2.50
446.0  39975.98  1003.40  2.51
447.5  40868.85  1027.11  2.51
448.9  41718.60  1056.08  2.53
450.4  42644.35  1082.62  2.54
451.8  43446.00  1105.87  2.55
453.3  44311.18  1126.19  2.54
454.7  45269.30  1154.13  2.55
456.2  46075.90  1174.38  2.55
457.6  46980.23  1200.06  2.55
459.1  47876.73  1220.57  2.55
460.5  48738.50  1241.20  2.55
462.0  49731.43  1265.94  2.55
463.4  50690.00  1289.63  2.54
464.8  51601.13  1307.95  2.53
466.3  52537.65  1335.18  2.54
467.7  53456.85  1356.83  2.54
469.2  54442.10  1377.47  2.53
470.6  55342.95  1401.25  2.53
472.0  56300.00  1424.39  2.53
473.5  57220.38  1448.28  2.53
474.9  58182.75  1474.40  2.53
476.4  59256.00  1501.44  2.53
477.8  60262.00  1525.40  2.53
479.2  61219.00  1554.40  2.54
480.7  62242.50  1578.74  2.54
482.1  63291.00  1606.84  2.54
483.6  64389.20  1641.52  2.55
485.0  65412.53  1665.59  2.55
486.4  66522.60  1697.50  2.55
487.9  67523.63  1727.70  2.56
489.3  68633.23  1763.07  2.57
490.7  69649.25  1796.45  2.58
492.2  70809.90  1834.56  2.59
493.6  71828.95  1871.29  2.61
495.0  72832.50  1905.15  2.62
496.5  73932.65  1950.80  2.64
497.9  74959.90  1995.80  2.66
499.3  76045.85  2042.76  2.69
500.7  77234.80  2101.79  2.72
502.2  78299.80  2164.69  2.76
503.6  79453.20  2228.93  2.81
505.0  80443.15  2299.07  2.86
506.5  81646.65  2385.67  2.92
507.9  82767.98  2474.79  2.99
509.3  84064.00  2589.01  3.08
510.7  85263.75  2712.45  3.18
512.2  86560.50  2854.47  3.30
513.6  87908.10  3024.98  3.44
515.0  89219.20  3214.85  3.60
516.4  90493.20  3430.35  3.79
517.8  91996.13  3685.68  4.01
519.3  93204.65  3957.89  4.25
520.7  94654.85  4267.45  4.51
522.1  95854.53  4591.25  4.79
523.5  97133.20  4933.57  5.08
524.9  98459.10  5284.26  5.37
526.3  99746.85  5634.77  5.65
527.8  101113.65  5985.54  5.92
529.2  102214.00  6327.53  6.19
530.6  103707.65  6677.83  6.44
532.0  105294.00  7011.20  6.66
533.4  106523.03  7292.49  6.85
534.8  107400.23  7520.62  7.00
536.3  108979.20  7770.96  7.13
537.7  110854.80  8025.36  7.24
539.1  112194.48  8224.88  7.33
540.5  113294.10  8394.83  7.41
541.9  114912.23  8602.03  7.49
543.3  116131.98  8772.31  7.55
544.7  117306.00  8937.60  7.62
546.1  118951.25  9137.26  7.68
547.5  120120.00  9290.03  7.73
549.0  121781.00  9470.27  7.78
550.4  123196.88  9624.83  7.81
551.8  124594.95  9747.55  7.82
553.2  126024.73  9845.10  7.81
554.6  127285.60  9893.87  7.77
556.0  128712.60  9919.44  7.71
557.4  130208.58  9913.38  7.61
558.8  131724.45  9878.04  7.50
560.2  133069.75  9796.77  7.36
561.6  134638.88  9703.59  7.21
563.0  136112.15  9571.36  7.03
564.4  137593.10  9413.41  6.84
565.8  139017.50  9225.33  6.64
567.2  140631.50  9031.43  6.42
568.6  142049.25  8807.30  6.20
570.0  143388.38  8573.67  5.98
571.4  145020.20  8358.22  5.76
572.8  146649.75  8153.88  5.56
574.2  148153.60  7957.97  5.37
575.6  149591.25  7774.50  5.20
577.0  151001.90  7613.19  5.04
578.4  152629.75  7481.72  4.90
579.8  154040.40  7362.36  4.78
581.2  155672.18  7266.01  4.67
582.5  156990.60  7174.44  4.57
583.9  158403.20  7097.31  4.48
585.3  160093.13  7045.29  4.40
586.7  161447.65  6982.52  4.32
588.1  162863.00  6938.73  4.26
589.5  164407.25  6912.27  4.20
590.9  165936.80  6891.09  4.15
592.3  167630.35  6889.11  4.11
593.7  168983.10  6881.68  4.07
595.0  170495.55  6891.30  4.04
596.4  171859.45  6891.13  4.01
597.8  173243.75  6891.40  3.98
599.2  174688.80  6890.40  3.94
600.6  176329.73  6888.14  3.91
602.0  177545.63  6862.86  3.87
603.3  179225.85  6843.65  3.82
604.7  180769.83  6806.50  3.77
606.1  182173.80  6758.32  3.71
607.5  183712.53  6697.00  3.65
608.9  185291.40  6642.84  3.59
610.2  186585.53  6573.42  3.52
611.6  188072.93  6515.01  3.46
613.0  189526.20  6448.55  3.40
614.4  190823.25  6384.54  3.35
615.8  192187.13  6325.80  3.29
617.1  193599.00  6283.76  3.25
618.5  195138.00  6255.47  3.21
619.9  196547.33  6228.70  3.17
621.3  198085.50  6218.94  3.14
622.6  199561.50  6215.90  3.11
624.0  200942.70  6225.32  3.10
625.4  202301.55  6232.38  3.08
626.8  203808.15  6259.59  3.07
628.1  205067.78  6282.32  3.06
629.5  206810.38  6321.36  3.06
630.9  208345.50  6354.37  3.05
632.2  209658.23  6371.28  3.04
633.6  211185.50  6393.33  3.03
635.0  212643.60  6391.52  3.01
636.3  214070.20  6375.63  2.98
637.7  215363.13  6343.03  2.95
639.1  216930.00  6302.33  2.91
640.4  218321.60  6252.24  2.86
641.8  219461.40  6179.33  2.82
643.2  220950.45  6121.29  2.77
644.5  222230.25  6059.00  2.73
645.9  223853.85  6012.24  2.69
647.2  225809.85  5992.09  2.65
648.6  227650.50  5985.90  2.63
650.0  229024.80  5976.00  2.61
651.3  229299.95  5946.67  2.59
652.7  230039.00  5922.31  2.57
654.0  231999.90  5932.63  2.56
655.4  233489.30  5936.68  2.54
656.8  233810.00  5908.05  2.53
658.1  234967.70  5898.97  2.51
659.5  237150.38  5899.60  2.49
660.8  238905.00  5910.00  2.47
662.2  239702.40  5895.68  2.46
663.5  241191.35  5903.71  2.45
664.9  242525.40  5922.80  2.44
666.2  243223.20  5934.80  2.44
667.6  244815.95  5977.15  2.44
668.9  245927.95  6024.69  2.45
670.3  246818.63  6077.05  2.46
671.6  248419.50  6150.75  2.48
673.0  249525.75  6239.25  2.50
674.3  250724.50  6338.28  2.53
675.7  251964.05  6445.90  2.56
677.0  253045.23  6563.45  2.59
678.4  254344.70  6695.60  2.63
679.7  255401.90  6830.69  2.67
681.1  256621.88  6987.47  2.72
682.4  257708.10  7151.56  2.78
683.8  258945.70  7328.36  2.83
685.1  259880.25  7525.45  2.90
686.4  261116.40  7749.28  2.97
687.8  262372.00  8012.97  3.05
689.1  263395.50  8336.33  3.16
690.5  264713.40  8770.14  3.31
691.8  265474.70  9352.60  3.52
693.1  266681.10  10174.38  3.82
694.5  267813.00  11265.80  4.21
695.8  268973.25  12706.63  4.72
697.1  270110.75  14547.87  5.39
698.5  271151.50  16837.35  6.21
699.8  272190.70  19582.13  7.19
701.1  273279.10  22786.86  8.34
702.5  274050.15  26374.48  9.62
703.8  274950.00  30321.00  11.03
705.1  276051.75  34582.34  12.53
706.5  277092.00  39066.75  14.10
707.8  278034.00  43719.58  15.72
709.1  278883.90  48480.97  17.38
710.5  280000.15  53368.66  19.06
711.8  280846.20  58247.60  20.74
713.1  281827.40  63174.41  22.42
714.4  282697.10  68077.44  24.08
715.8  283499.90  72923.97  25.72
717.1  284761.35  77837.60  27.33
718.4  285689.60  82569.39  28.90
719.7  286781.00  87256.94  30.43
721.0  287302.50  91668.00  31.91
722.4  288053.70  96005.87  33.33
723.7  289014.00  100248.90  34.69
725.0  290016.45  104377.44  35.99
726.3  290950.28  108284.84  37.22
727.6  291475.25  111900.32  38.39
729.0  292408.38  115462.53  39.49
730.3  293177.33  118775.23  40.51
731.6  294074.45  121954.20  41.47
732.9  294847.70  124915.37  42.37
734.2  295670.38  127724.12  43.20
735.5  296650.25  130450.83  43.97
736.8  297411.30  132912.76  44.69
738.1  298248.10  135238.95  45.34
739.5  299213.98  137462.27  45.94
740.8  299892.18  139429.18  46.49
742.1  300644.63  141316.60  47.00
743.4  301375.00  143063.33  47.47
744.7  302376.93  144816.67  47.89
746.0  303236.70  146391.18  48.28
747.3  303798.55  147701.26  48.62
748.6  304519.50  148992.93  48.93
749.9  305266.00  150207.20  49.21
751.2  306033.45  151328.31  49.45
752.5  306922.55  152461.47  49.67
753.8  307554.63  153383.58  49.87
755.1  308282.00  154290.93  50.05
756.4  308868.73  155060.36  50.20
757.7  309823.15  155959.79  50.34
759.0  311579.23  157192.65  50.45
760.3  312708.00  158079.68  50.55
761.6  314279.00  159131.84  50.63
762.9  314847.50  159644.00  50.71
764.2  315241.10  160051.41  50.77
765.5  315570.93  160391.57  50.83
766.8  316064.00  160773.76  50.87
768.1  316579.60  161170.45  50.91
769.3  317200.80  161571.85  50.94
770.6  317875.35  161998.20  50.96
771.9  318631.08  162453.29  50.98
773.2  319074.00  162732.00  51.00
774.5  319719.40  163119.15  51.02
775.8  320436.95  163521.80  51.03
777.1  321028.95  163869.64  51.05
778.4  321409.28  164085.57  51.05
779.6  322219.00  164514.00  51.06
780.9  322740.00  164796.00  51.06
782.2  323221.25  165060.13  51.07
783.5  323605.00  165269.33  51.07
784.8  324155.70  165579.57  51.08
786.0  324583.00  165817.68  51.09
787.3  325042.33  166053.71  51.09
788.6  325537.93  166296.23  51.08
789.9  326057.20  166564.16  51.08
791.2  326694.68  166909.96  51.09
792.4  327408.78  167279.98  51.09
793.7  327887.80  167543.31  51.10
795.0  328609.88  167884.75  51.09
796.2  329312.95  168240.97  51.09
797.5  330095.85  168624.60  51.08
798.8  330797.98  168986.07  51.08
800.0  331492.10  169351.60  51.09
801.3  332011.70  169621.87  51.09
802.6  332605.58  169942.17  51.09
803.8  333311.05  170286.28  51.09
805.1  333884.25  170556.63  51.08
806.4  334365.60  170804.84  51.08
807.7  334963.35  171100.89  51.08
808.9  335554.25  171395.58  51.08
810.2  336056.35  171689.19  51.09
811.4  336599.40  171964.84  51.09
812.7  337268.75  172298.75  51.09
814.0  338088.40  172731.24  51.09
815.2  338801.25  173050.97  51.08
816.5  339214.60  173276.77  51.08
817.7  339714.80  173542.50  51.08
819.0  340256.95  173828.97  51.09
820.2  340472.00  173958.40  51.09
821.5  341170.65  174319.55  51.09
822.7  341554.60  174514.00  51.09
824.0  341909.10  174695.40  51.09
825.2  342419.40  174960.54  51.10
826.5  342743.75  175125.51  51.10
827.7  343330.73  175419.32  51.09
829.0  343754.88  175643.88  51.10
830.2  344073.10  175811.23  51.10
831.5  344580.65  176033.19  51.09
832.7  344915.03  176214.08  51.09
834.0  345264.38  176375.35  51.08
835.2  345614.50  176582.05  51.09
836.4  345921.40  176773.45  51.10
837.7  346338.00  177002.75  51.11
838.9  346807.28  177238.69  51.11
840.1  347186.93  177442.38  51.11
841.4  347602.10  177679.73  51.12
842.6  347956.00  177869.87  51.12
843.8  348318.40  178081.49  51.13
845.1  348859.30  178350.71  51.12
846.3  349301.20  178577.13  51.12
847.5  349687.80  178802.40  51.13
848.8  350097.00  179014.00  51.13
850.0  350401.45  179204.06  51.14
851.2  350941.95  179504.28  51.15
852.5  351335.20  179722.79  51.15
853.7  351828.00  179985.60  51.16
854.9  352246.90  180215.04  51.16
856.1  352692.60  180443.64  51.16
857.4  352893.48  180559.19  51.17
858.6  353410.20  180796.64  51.16
859.8  353812.50  181004.00  51.16
861.0  354299.40  181275.12  51.16
862.2  354735.33  181497.12  51.16
863.5  355174.63  181688.52  51.15
864.7  355740.00  181925.92  51.14
865.9  356136.80  182149.44  51.15
867.1  356439.05  182310.13  51.15
868.3  356884.80  182554.16  51.15
869.5  357370.60  182820.83  51.16
870.8  357867.00  183069.60  51.16
872.0  358478.70  183311.80  51.14
873.2  358942.95  183527.46  51.13
874.4  359336.25  183759.03  51.14
875.6  359785.25  183950.51  51.13
876.8  360263.55  184183.09  51.12
878.0  360729.70  184441.91  51.13
879.2  361263.15  184684.18  51.12
880.4  361929.00  184922.75  51.09
881.6  362403.88  185185.42  51.10
882.8  362772.80  185386.77  51.10
884.0  363355.28  185686.06  51.10
885.2  363955.00  185947.39  51.09
886.5  364551.55  186229.60  51.08
887.7  365051.38  186471.78  51.08
888.8  365738.93  186785.16  51.07
890.0  366471.80  187069.49  51.05
891.2  367022.90  187350.03  51.05
892.4  367651.73  187655.37  51.04
893.6  368249.70  187921.04  51.03
894.8  369104.00  188383.80  51.04
896.0  370004.00  188786.73  51.02
897.2  370760.00  189168.20  51.02
898.4  371655.90  189541.44  51.00
899.6  372288.00  189841.95  50.99
900.8  372677.38  190074.25  51.00
902.0  373041.60  190185.62  50.98
903.2  373434.53  190323.91  50.97
904.3  373899.60  190517.04  50.95
905.5  374558.03  190807.38  50.94
906.7  375117.50  191088.60  50.94
907.9  375734.45  191363.95  50.93
909.1  376132.28  191557.71  50.93
910.2  376473.08  191643.23  50.90
911.4  376804.35  191768.07  50.89
912.6  377048.10  191886.93  50.89
913.8  377314.95  192017.41  50.89
915.0  377848.80  192223.08  50.87
916.2  378095.25  192288.20  50.86
917.3  378230.40  192352.77  50.86
918.5  378591.00  192461.27  50.84
919.7  378864.00  192571.66  50.83
920.8  379121.25  192602.46  50.80
922.0  379186.50  192674.53  50.81
923.2  379606.50  192756.20  50.78
924.4  379839.38  192857.85  50.77
925.5  380213.00  192959.27  50.75
926.7  380995.50  193193.38  50.71
927.9  381888.60  193571.20  50.69
929.0  383472.90  194238.00  50.65
930.2  385606.90  195270.09  50.64
931.4  387812.48  196352.73  50.63
932.5  390435.70  197586.97  50.61
933.7  391939.50  198179.06  50.56
934.9  392546.88  198437.17  50.55
936.0  392422.88  198241.12  50.52
937.2  390462.00  197260.52  50.52
938.3  389125.20  196367.82  50.46
939.5  387975.60  195572.64  50.41
940.7  388150.20  195576.36  50.39
941.8  389794.35  196195.32  50.33
943.0  391302.75  196816.50  50.30
944.2  392332.20  197188.94  50.26
945.3  391989.00  196933.10  50.24
946.5  391437.90  196432.02  50.18
947.6  391507.10  196395.57  50.16
948.8  391736.48  196172.21  50.08
949.9  391839.00  196031.36  50.03
951.1  391825.85  195685.66  49.94
952.2  391680.00  195404.80  49.89
953.4  391495.25  195091.33  49.83
954.5  391716.00  194903.28  49.76
955.7  391771.80  194664.96  49.69
956.8  391784.20  194395.85  49.62
958.0  391390.50  194004.47  49.57
959.1  391181.43  193852.63  49.56
960.3  391187.48  193577.62  49.48
961.4  390994.85  193394.29  49.46
962.6  391511.75  193462.27  49.41
963.7  391538.70  193283.39  49.37
964.9  391347.98  193188.84  49.36
966.0  391420.35  193121.28  49.34
967.2  391470.30  193146.48  49.34
968.3  391286.70  193056.48  49.34
969.5  391405.00  193018.58  49.31
970.6  391799.83  193022.29  49.27
971.8  391947.33  193109.16  49.27
972.9  392154.60  193079.94  49.24
974.0  392383.60  193193.52  49.24
975.2  392293.75  193076.75  49.22
976.3  392226.35  193125.47  49.24
977.5  392167.48  193070.94  49.23
978.6  392498.10  193061.59  49.19
979.7  392870.63  193221.56  49.18
980.9  393206.60  193236.39  49.14
982.0  392599.10  193195.87  49.21
983.2  392390.40  193197.77  49.24
984.3  392623.60  193157.76  49.20
985.4  392852.43  193321.19  49.21
986.6  393040.00  193326.55  49.19
987.7  393943.90  193667.34  49.16
988.9  393647.40  193491.60  49.15
990.0  394413.40  193859.28  49.15
993.1  331134.53  161992.42  48.92
996.9  332205.40  162933.56  49.05
1000.7  333578.58  163933.65  49.14
1004.5  334213.67  164581.39  49.24
1008.4  334144.04  164856.37  49.34
1012.2  334249.04  165195.68  49.42
1016.0  334500.60  165564.00  49.50
1019.8  334880.70  165985.05  49.57
1023.7  335214.63  166347.11  49.62
1027.5  335329.75  166621.69  49.69
1031.3  335938.78  167054.87  49.73
1035.1  336145.78  167286.73  49.77
1038.9  336239.57  167440.01  49.80
1042.7  336160.83  167473.76  49.82
1046.5  336077.33  167491.83  49.84
1050.3  336193.92  167570.32  49.84
1054.2  335971.42  167510.92  49.86
1058.0  335493.61  167271.40  49.86
1061.8  335396.81  167224.96  49.86
1065.6  335202.03  167092.60  49.85
1069.4  335469.13  167192.42  49.84
1073.2  335376.43  167095.05  49.82
1077.0  335109.03  166861.79  49.79
1080.8  334557.29  166443.60  49.75
1084.6  333320.05  165682.30  49.71
1088.4  332514.90  165168.54  49.67
1092.2  331695.00  164610.64  49.63
1096.0  331214.07  164216.11  49.58
1099.8  330864.52  163861.04  49.53
1103.6  330316.50  163417.22  49.47
1107.4  329574.69  162830.38  49.41
1111.2  329353.00  162519.86  49.35
1114.9  328725.83  161958.08  49.27
1118.7  328061.25  161323.68  49.17
1122.5  327343.47  160578.23  49.05
1126.3  326271.34  159599.64  48.92
1130.1  325778.73  158734.57  48.72
1133.9  324423.40  157187.10  48.45
1137.7  323228.90  155518.04  48.11
1141.4  321730.28  153505.39  47.71
1145.2  321147.60  151792.64  47.27
1149.0  320184.38  149989.59  46.84
1152.8  318781.75  148162.76  46.48
1156.6  317373.47  146644.85  46.21
1160.3  315895.33  145409.05  46.03
1164.1  313724.73  144108.71  45.93
1167.9  312081.25  143198.96  45.89
1171.7  310952.25  142603.88  45.86
1175.4  309999.57  142159.99  45.86
1179.2  309186.58  141741.33  45.84
1183.0  308992.00  141577.38  45.82
1186.7  308393.40  141224.93  45.79
1190.5  307282.87  140640.35  45.77
1194.3  306136.03  140072.28  45.75
1198.0  305124.60  139620.53  45.76
1201.8  303862.25  139091.88  45.77
1205.6  302728.33  138661.29  45.80
1209.3  301826.48  138387.33  45.85
1213.1  300849.00  138110.00  45.91
1216.8  299886.95  137873.27  45.98
1220.6  298903.73  137617.33  46.04
1224.3  297795.67  137289.67  46.10
1228.1  296761.80  137011.11  46.17
1231.9  295724.60  136694.63  46.22
1235.6  294517.13  136266.11  46.27
1239.4  293399.63  135890.66  46.32
1243.1  292317.15  135488.78  46.35
1246.9  291284.97  135054.94  46.37
1250.6  290448.27  134689.58  46.37
1254.3  289524.13  134269.64  46.38
1258.1  288701.93  133869.05  46.37
1261.8  287606.13  133340.53  46.36
1265.6  286257.15  132657.79  46.34
1269.3  284813.90  131867.51  46.30
1273.1  284666.83  131654.26  46.25
1276.8  285015.60  131647.48  46.19
1280.6  285140.07  131531.89  46.13
1284.3  284064.40  130832.17  46.06
1288.0  282751.18  129949.58  45.96
1291.8  281403.12  128972.76  45.83
1295.5  279994.00  127946.55  45.70
1299.2  278793.54  126980.32  45.55
1302.9  277500.56  125896.82  45.37
1306.7  276150.12  124716.32  45.16
1310.4  274853.85  123449.37  44.91
1314.1  273656.53  122165.92  44.64
1317.9  272609.38  120825.86  44.32
1321.6  271383.93  119311.01  43.96
1325.3  269939.25  117580.50  43.56
1329.0  268726.85  115889.15  43.13
1332.8  266789.60  113806.00  42.66
1336.5  265090.40  111786.90  42.17
1340.2  264673.50  110313.67  41.68
1343.9  264077.50  108759.14  41.18
1347.6  263082.60  107053.05  40.69
1351.4  262663.00  105619.22  40.21
1355.1  262246.97  104226.67  39.74
1358.8  261664.00  102706.29  39.25
1362.5  260935.10  101001.32  38.71
1366.2  259433.60  98766.48  38.07
1369.9  258238.63  96368.05  37.32
1373.6  256790.57  93454.35  36.39
1377.3  255004.20  89850.90  35.24
1381.0  253655.00  85604.81  33.75
1384.8  251777.50  80323.75  31.90
1388.4  249979.33  74582.80  29.84
1392.2  248519.67  68563.25  27.59
1395.9  247089.48  62440.27  25.27
1399.6  245677.03  56631.63  23.05
1403.3  244758.43  51525.25  21.05
1407.0  243978.00  47205.41  19.35
1410.7  243134.93  43719.82  17.98
1414.3  242336.97  41049.92  16.94
1418.1  241516.58  39116.08  16.20
1421.7  240940.88  37777.76  15.68
1425.4  240275.75  36891.31  15.35
1429.1  239634.75  36359.68  15.17
1432.8  238397.73  36004.87  15.10
1436.5  237730.53  35919.23  15.11
1440.2  236971.37  35950.11  15.17
1443.9  235783.17  36007.06  15.27
1447.6  234341.80  36086.60  15.40
1451.2  233454.10  36267.84  15.54
1454.9  232385.85  36455.23  15.69
1458.6  231475.98  36754.68  15.88
1462.3  230491.07  37160.25  16.12
1466.0  229275.26  37684.01  16.44
1469.7  227760.22  38336.02  16.83
1473.3  226831.33  39221.45  17.29
1477.0  225162.13  40089.39  17.80
1480.7  223778.50  41061.86  18.35
1484.4  222097.95  41990.59  18.91
1488.0  220748.00  43011.05  19.48
1491.7  219327.34  43987.62  20.06
1495.4  217778.11  44939.50  20.64
1499.0  216340.00  45867.64  21.20
1502.7  215197.58  46850.05  21.77
1506.4  213939.17  47768.12  22.33
1510.0  212698.50  48659.90  22.88
1513.7  211416.63  49490.00  23.41
1517.4  210255.67  50303.86  23.93
1521.0  209177.87  51111.35  24.43
1524.7  208095.33  51848.80  24.92
1528.3  206931.25  52540.96  25.39
1532.0  205849.23  53203.70  25.85
1535.7  204599.05  53758.80  26.28
1539.3  203455.25  54317.43  26.70
1543.0  202588.52  54904.66  27.10
1546.6  201969.08  55526.56  27.49
1550.3  201083.60  56033.41  27.87
1553.9  200143.40  56484.17  28.22
1557.6  199009.80  56840.04  28.56
1561.2  197880.75  57133.22  28.87
1564.9  196705.18  57397.26  29.18
1568.5  195518.98  57619.80  29.47
1572.2  194494.15  57861.92  29.75
1575.8  193522.00  58098.00  30.02
1579.5  192639.65  58324.33  30.28
1583.1  191740.28  58530.24  30.53
1586.8  190666.00  58652.00  30.76
1590.4  189758.73  58805.68  30.99
1594.0  188578.87  58852.84  31.21
1597.7  187505.48  58914.29  31.42
1601.3  186231.15  58905.23  31.63
1604.9  184981.31  58870.96  31.83
1608.6  183768.97  58811.90  32.00
1612.2  182900.03  58838.88  32.17
1615.8  181940.53  58810.79  32.32
1619.5  180958.42  58754.18  32.47
1623.1  179792.90  58616.10  32.60
1626.7  178670.38  58459.42  32.72
1630.3  177576.67  58294.93  32.83
1634.0  176568.00  58134.00  32.92
1637.6  175664.53  57966.73  33.00
1641.2  174739.85  57749.51  33.05
1644.8  173631.26  57418.90  33.07
1648.5  172651.10  57091.38  33.07
1652.1  171752.10  56748.47  33.04
1655.7  170911.20  56404.43  33.00
1659.3  170126.53  56097.34  32.97
1662.9  168810.00  55632.50  32.96
1666.6  167491.80  55185.54  32.95
1670.2  166211.68  54739.13  32.93
1673.8  164891.79  54263.68  32.91
1677.4  163851.10  53855.66  32.87
1681.0  163129.25  53509.13  32.80
1684.6  162789.25  53239.03  32.70
1688.2  162215.60  52815.88  32.56
1691.8  161596.83  52407.00  32.43
1695.4  161212.60  52036.91  32.28
1699.0  160907.83  51671.07  32.11
1702.6  160619.33  51290.81  31.93
1706.2  160090.99  50814.08  31.74
1709.8  159277.14  50252.87  31.55
1713.4  158646.50  49762.25  31.37
1717.0  157884.00  49250.25  31.19
1720.6  157176.45  48772.28  31.03
1724.2  156563.25  48305.83  30.85
1727.8  155918.00  47843.95  30.69
1731.4  155469.88  47442.80  30.52
1735.0  155270.87  47128.19  30.35
1738.6  154994.40  46764.94  30.17
1742.2  154431.98  46279.08  29.97
1745.8  153796.20  45743.72  29.74
1749.4  152878.28  45101.45  29.50
1753.0  151465.53  44318.82  29.26
1756.6  149945.83  43515.21  29.02
1760.1  148755.93  42825.15  28.79
1763.7  147215.33  42054.95  28.57
1767.3  145907.63  41384.39  28.36
1770.9  144798.27  40781.71  28.16
1774.5  143488.78  40145.76  27.98
1778.0  142437.07  39617.70  27.81
1781.6  141440.40  39143.27  27.67
1785.2  140378.58  38685.08  27.56
1788.8  139327.70  38274.19  27.47
1792.3  138196.80  37872.24  27.40
1795.9  137751.90  37671.31  27.35
1799.5  137208.67  37467.95  27.31
1803.1  136174.27  37138.03  27.27
1806.6  136049.38  37052.98  27.23
1810.2  136782.33  37207.97  27.20
1813.8  137600.25  37388.32  27.17
1817.3  137685.00  37366.86  27.14
1820.9  137069.17  37148.27  27.10
1824.5  135980.00  36772.50  27.04
1828.0  135242.71  36460.94  26.96
1831.6  134356.88  36080.51  26.85
1835.2  133577.50  35657.50  26.69
1838.7  133139.87  35255.79  26.48
1842.3  132795.00  34806.43  26.21
1845.8  132242.33  34185.61  25.85
1849.4  131862.48  33479.06  25.39
1852.9  131367.25  32571.94  24.79
1856.5  130657.82  31409.08  24.04
1860.0  130058.68  30039.74  23.10
1863.6  129721.79  28516.69  21.98
1867.1  129259.55  26712.35  20.67
1870.7  128880.75  24551.28  19.05
1874.2  128301.30  21997.67  17.15
1877.8  127660.07  19342.51  15.15
1881.3  126910.75  16661.39  13.13
1884.9  126320.43  14152.58  11.20
1888.4  125512.64  11816.77  9.41
1891.9  124728.93  9854.17  7.90
1895.5  123692.22  8315.06  6.72
1899.0  123131.25  7242.18  5.88
1901.3  147263.63  5249.79  3.56
1904.1  147108.38  4652.06  3.16
1906.8  146527.20  4215.90  2.88
1909.6  145223.40  3895.24  2.68
1912.4  143978.19  3660.04  2.54
1915.1  143024.89  3500.20  2.45
1917.9  141928.00  3394.71  2.39
1920.6  141071.08  3341.52  2.37
1923.3  140240.98  3296.77  2.35
1926.1  139189.35  3280.68  2.36
1928.8  138226.00  3278.00  2.37
1931.6  137427.48  3305.64  2.41
1934.3  136665.81  3346.45  2.45
1937.0  135936.80  3403.93  2.50
1939.8  135108.00  3477.90  2.57
1942.5  134103.75  3555.75  2.65
1945.2  132798.60  3641.83  2.74
1947.9  131732.65  3732.40  2.83
1950.7  130883.10  3843.19  2.94
1953.4  129447.86  3944.15  3.05
1956.1  128325.63  4065.65  3.17
1958.8  127319.24  4192.50  3.29
1961.5  126097.50  4326.30  3.43
1964.2  124822.43  4474.93  3.59
1966.9  123491.78  4622.29  3.74
1969.6  122445.00  4785.75  3.91
1972.3  121238.03  4943.95  4.08
1975.0  120311.33  5128.58  4.26
1977.7  119335.79  5307.63  4.45
1980.4  118343.43  5505.47  4.65
1983.1  117387.35  5707.24  4.86
1985.8  116575.65  5913.83  5.07
1988.4  115687.00  6118.67  5.29
1991.1  114866.50  6336.87  5.52
1993.8  114088.98  6557.29  5.75
1996.5  113539.66  6792.09  5.98
1999.1  112938.65  7018.28  6.21
2001.8  112328.30  7252.00  6.46
2004.5  111727.73  7480.09  6.69
2007.1  111098.44  7698.50  6.93
2009.8  110444.08  7905.98  7.16
2012.4  109927.13  8123.36  7.39
2015.1  109453.40  8339.80  7.62
2017.8  108747.63  8538.37  7.85
2020.4  108311.50  8743.77  8.07
2023.1  107996.53  8944.13  8.28
2025.7  107763.50  9147.67  8.49
2028.3  107477.50  9342.67  8.69
2031.0  107150.16  9519.11  8.88
2033.6  106892.55  9696.15  9.07
2036.2  106651.13  9865.80  9.25
2038.9  106129.13  9998.48  9.42
2041.5  105848.66  10139.66  9.58
2044.1  105378.75  10255.13  9.73
2046.8  105045.98  10383.45  9.88
2049.4  104478.30  10481.33  10.03
2052.0  104210.50  10604.45  10.18
2054.6  103851.56  10714.38  10.32
2057.2  103365.55  10818.42  10.47
2059.8  103103.55  10953.78  10.62
2062.4  102344.56  11028.77  10.78
2065.0  101885.25  11130.63  10.92
2067.6  101102.44  11196.56  11.07
2070.2  100579.44  11294.62  11.23
2072.8  100017.21  11375.25  11.37
2075.4  99625.31  11477.81  11.52
2078.0  99056.24  11547.89  11.66
2080.6  98557.80  11627.00  11.80
2083.2  97947.78  11688.16  11.93
2085.8  97527.94  11758.69  12.06
2088.4  96937.00  11816.79  12.19
2090.9  96231.71  11849.60  12.31
2093.5  95455.85  11867.88  12.43
2096.1  94774.36  11899.22  12.56
2098.7  94082.68  11916.79  12.67
2101.2  93226.15  11914.45  12.78
2103.8  92643.20  11938.47  12.89
2106.4  92060.25  11969.03  13.00
2108.9  91464.20  11982.13  13.10
2111.5  90717.50  11973.40  13.20
2114.0  90160.75  11984.32  13.29
2116.6  89709.38  12007.19  13.38
2119.1  89229.33  12016.91  13.47
2121.7  88797.19  12035.63  13.55
2124.2  88433.75  12049.79  13.63
2126.8  87732.33  12015.60  13.70
2129.3  87390.60  12027.40  13.76
2131.9  86862.60  12009.80  13.83
2134.4  86479.99  12020.51  13.90
2136.9  86139.46  12025.82  13.96
2139.4  85685.25  12016.55  14.02
2142.0  85292.90  12020.98  14.09
2144.5  85059.53  12046.15  14.16
2147.0  84862.20  12073.40  14.23
2149.5  84426.70  12068.93  14.30
2152.1  84279.39  12100.55  14.36
2154.6  84211.20  12140.27  14.42
2157.1  83739.25  12117.17  14.47
2159.6  83364.56  12117.17  14.54
2162.1  83224.05  12132.58  14.58
2164.6  83008.30  12147.33  14.63
2167.1  82725.76  12142.66  14.68
2169.6  82445.39  12133.74  14.72
2172.1  82019.70  12114.13  14.77
2174.6  81732.00  12116.17  14.82
2177.1  81356.81  12100.83  14.87
2179.5  80992.11  12095.36  14.93
2182.0  80566.61  12075.53  14.99
2184.5  80100.83  12050.55  15.04
2187.0  79537.15  12013.35  15.10
2189.5  78934.53  11975.08  15.17
2191.9  78261.00  11920.13  15.23
2194.4  77720.29  11877.81  15.28
2196.9  77061.60  11824.80  15.34
2199.3  76480.25  11776.42  15.40
2201.8  75701.00  11682.43  15.43
2204.3  75274.20  11659.75  15.49
2206.7  74717.18  11605.76  15.53
2209.2  74310.31  11570.91  15.57
2211.6  73752.53  11506.28  15.60
2214.1  73505.63  11479.82  15.62
2216.5  72987.65  11418.37  15.64
2219.0  72682.20  11386.08  15.67
2221.4  72344.56  11337.23  15.67
2223.9  71928.06  11265.34  15.66
2226.3  71481.81  11176.08  15.63
2228.7  70982.10  11076.75  15.60
2231.1  70448.40  10961.78  15.56
2233.6  69933.15  10829.82  15.49
2236.0  69443.94  10690.17  15.39
2238.4  69012.56  10566.21  15.31
2240.9  68621.95  10434.97  15.21
2243.3  68152.60  10273.55  15.07
2245.7  67640.10  10101.74  14.93
2248.1  67207.73  9959.19  14.82
2250.5  66766.04  9793.65  14.67
2252.9  66213.55  9605.38  14.51
2255.3  65707.31  9422.65  14.34
2257.7  65310.00  9265.00  14.19
2260.1  64888.08  9102.75  14.03
2262.5  64350.00  8922.50  13.87
2264.9  63883.35  8765.37  13.72
2267.3  63345.00  8605.00  13.58
2269.7  62901.48  8463.12  13.45
2272.1  62421.36  8306.32  13.31
2274.5  61936.60  8161.38  13.18
2276.8  61512.35  8033.37  13.06
2279.2  60993.45  7886.74  12.93
2281.6  60618.95  7766.43  12.81
2284.0  60190.95  7645.70  12.70
2286.3  59804.40  7513.87  12.56
2288.7  59450.30  7388.01  12.43
2291.1  58967.03  7247.76  12.29
2293.4  58566.20  7114.80  12.15
2295.8  58022.48  6973.10  12.02
2298.2  57489.08  6831.00  11.88
2300.5  56899.13  6683.51  11.75
2302.9  56249.50  6528.08  11.61
2305.2  55612.28  6386.00  11.48
2307.6  55013.63  6257.06  11.37
2309.9  54312.00  6125.08  11.28
2312.2  53777.25  6006.25  11.17
2314.6  53235.23  5904.67  11.09
2316.9  52606.46  5788.24  11.00
2319.2  52076.95  5686.12  10.92
2321.6  51522.10  5573.26  10.82
2323.9  51023.44  5473.96  10.73
2326.2  50533.85  5365.34  10.62
2328.6  50081.63  5266.80  10.52
2330.9  49636.13  5166.00  10.41
2333.2  49204.56  5061.48  10.29
2335.5  48808.05  4970.15  10.18
2337.8  48387.51  4879.46  10.08
2340.1  47878.00  4768.93  9.96
2342.4  47506.88  4680.00  9.85
2344.8  47135.44  4595.92  9.75
2347.1  46619.30  4493.59  9.64
2349.4  46129.54  4392.90  9.52
2351.6  45617.26  4307.52  9.44
2353.9  45181.50  4223.01  9.35
2356.2  44714.01  4138.18  9.25
2358.5  44192.40  4040.40  9.14
2360.8  43671.60  3956.40  9.06
2363.1  43265.49  3872.56  8.95
2365.4  42841.13  3793.98  8.86
2367.7  42425.10  3707.85  8.74
2369.9  41941.35  3632.51  8.66
2372.2  41400.40  3534.60  8.54
2374.5  40869.68  3453.45  8.45
2376.7  40304.03  3365.93  8.35
2379.0  39759.83  3268.97  8.22
2381.3  39208.75  3182.08  8.12
2383.5  38755.20  3094.67  7.99
2385.8  38203.43  3009.33  7.88
2388.0  37745.25  2917.55  7.73
2390.3  37273.20  2842.07  7.62
2392.5  36837.00  2769.00  7.52
2394.8  36427.05  2689.23  7.38
2397.0  35990.50  2617.77  7.27
2399.3  35563.15  2543.27  7.15
2401.5  35160.56  2474.50  7.04
2403.8  34686.81  2404.83  6.93
2406.0  34232.75  2334.33  6.82
2408.2  33865.70  2272.05  6.71
2410.4  33489.66  2200.19  6.57
2412.7  33110.03  2136.33  6.45
2414.9  32779.31  2071.44  6.32
2417.1  32413.58  2022.48  6.24
2419.3  32035.20  1968.00  6.14
2421.6  31697.50  1911.67  6.03
2423.8  31363.13  1844.51  5.88
2426.0  31023.68  1785.21  5.75
2428.2  30683.80  1734.60  5.65
2430.4  30380.43  1680.64  5.53
2432.6  30140.00  1636.67  5.43
2434.8  29894.55  1593.98  5.33
2437.0  29570.13  1544.83  5.22
2439.2  29246.69  1503.73  5.14
2441.4  28957.20  1445.14  4.99
2443.6  28724.85  1402.39  4.88
2445.7  28457.36  1370.98  4.82
2447.9  28212.56  1332.52  4.72
2450.1  27955.99  1289.09  4.61
2452.3  27633.38  1238.74  4.48
2454.5  27306.46  1198.49  4.39
2456.6  26964.00  1155.60  4.29
2458.8  26662.35  1118.98  4.20
2461.0  26371.69  1092.07  4.14
2463.1  26091.79  1058.51  4.06
2465.3  25835.15  1024.34  3.96
2467.5  25609.69  991.94  3.87
2469.6  25362.06  958.40  3.78
2471.8  25081.59  942.30  3.76
2473.9  24797.00  927.63  3.74
2476.1  24490.38  894.84  3.65
2478.2  24175.30  879.73  3.64
2480.4  23888.44  848.09  3.55
2482.5  23573.38  816.75  3.46
2484.6  23269.81  786.96  3.38
2486.8  23020.13  777.15  3.38
2488.9  22728.00  765.49  3.37
2491.1  22383.90  745.73  3.33
2493.2  22045.98  722.49  3.28
2495.3  21681.08  693.44  3.20
2497.4  21384.83  672.18  3.14
2499.5  21070.70  663.52  3.15
2501.7  20964.83  669.66  3.19
2503.8  20874.94  660.31  3.16
2505.9  20794.69  640.63  3.08
2508.0  20770.39  634.98  3.06
2510.1  20762.55  634.86  3.06
2512.2  20836.43  628.49  3.02
2514.3  20943.36  626.45  2.99
2516.4  21069.15  655.03  3.11
