/*** Spectra Vista SIG Data ***/
name= 21_20220926_TITO_18_avg.sig
comm= Averaged Ref/Tar of files: HR.092622.0059_moc.sig,HR.092622.0060_moc.sig,HR.092622.0061_moc.sig
data=
337.3  3126.38  238.20  7.62
338.8  3270.80  259.74  7.94
340.3  3420.05  238.94  6.99
341.8  3612.28  225.58  6.24
343.2  3774.00  226.44  6.00
344.7  3923.80  230.31  5.87
346.2  4085.00  232.85  5.70
347.7  4286.43  230.71  5.38
349.2  4460.40  221.76  4.97
350.6  4700.80  225.25  4.79
352.1  4965.78  231.02  4.65
353.6  5239.70  234.80  4.48
355.1  5522.70  237.97  4.31
356.6  5801.18  242.53  4.18
358.0  6061.00  240.31  3.96
359.5  6334.50  242.05  3.82
361.0  6643.35  266.33  4.01
362.5  6996.73  269.33  3.85
364.0  7340.80  273.37  3.72
365.4  7671.30  284.75  3.71
366.9  8038.88  297.43  3.70
368.4  8427.98  310.03  3.68
369.9  8783.13  319.80  3.64
371.3  9211.50  328.41  3.57
372.8  9611.10  342.50  3.56
374.3  10024.38  351.17  3.50
375.8  10429.65  368.32  3.53
377.2  10840.70  374.81  3.46
378.7  11298.00  384.67  3.40
380.2  11701.50  381.08  3.26
381.7  12215.30  390.06  3.19
383.1  12666.50  401.56  3.17
384.6  13190.78  414.52  3.14
386.1  13674.65  430.60  3.15
387.6  14121.80  438.39  3.10
389.0  14632.80  448.45  3.06
390.5  15106.95  461.09  3.05
392.0  15684.85  476.10  3.04
393.4  16264.23  488.72  3.00
394.9  16808.40  505.47  3.01
396.4  17362.13  519.22  2.99
397.9  17886.25  533.85  2.98
399.3  18461.93  552.09  2.99
400.8  19017.78  562.47  2.96
402.2  19664.55  584.29  2.97
403.7  20271.15  587.43  2.90
405.2  20905.03  610.82  2.92
406.6  21483.20  630.27  2.93
408.1  22102.80  638.07  2.89
409.6  22674.35  660.70  2.91
411.0  23356.90  681.78  2.92
412.5  24032.05  697.64  2.90
414.0  24694.50  715.84  2.90
415.4  25400.25  728.75  2.87
416.9  26079.08  751.08  2.88
418.4  26779.95  773.77  2.89
419.8  27500.20  796.55  2.90
421.3  28234.80  821.14  2.91
422.7  29023.20  846.80  2.92
424.2  29801.25  865.13  2.90
425.7  30546.20  885.63  2.90
427.1  31333.50  905.72  2.89
428.6  32162.50  927.93  2.89
430.0  32914.58  949.96  2.89
431.5  33775.28  978.08  2.90
432.9  34647.25  1000.60  2.89
434.4  35540.33  1024.71  2.88
435.9  36386.00  1048.60  2.88
437.3  37248.75  1074.33  2.88
438.8  38105.03  1097.77  2.88
440.2  38983.18  1124.72  2.89
441.7  39958.80  1153.29  2.89
443.1  40849.75  1183.23  2.90
444.6  41841.40  1210.44  2.89
446.0  42791.55  1242.57  2.90
447.5  43764.05  1273.54  2.91
448.9  44724.30  1302.47  2.91
450.4  45726.45  1332.99  2.92
451.8  46618.00  1360.23  2.92
453.3  47540.70  1390.75  2.93
454.7  48563.05  1423.34  2.93
456.2  49448.28  1455.19  2.94
457.6  50431.73  1486.80  2.95
459.1  51421.18  1512.83  2.94
460.5  52363.13  1541.25  2.94
462.0  53437.28  1573.41  2.94
463.4  54484.90  1604.27  2.94
464.8  55486.13  1637.25  2.95
466.3  56464.65  1669.44  2.96
467.7  57440.08  1699.32  2.96
469.2  58509.78  1727.94  2.95
470.6  59515.80  1759.53  2.96
472.0  60578.80  1790.81  2.96
473.5  61599.13  1823.07  2.96
474.9  62643.00  1856.78  2.96
476.4  63806.40  1891.20  2.96
477.8  64873.00  1928.98  2.97
479.2  65873.50  1962.33  2.98
480.7  66990.30  1996.59  2.98
482.1  68146.20  2028.78  2.98
483.6  69345.55  2064.43  2.98
485.0  70449.83  2108.04  2.99
486.4  71644.20  2145.64  2.99
487.9  72730.13  2185.95  3.01
489.3  73890.05  2230.35  3.02
490.7  74950.25  2271.58  3.03
492.2  76204.80  2314.76  3.04
493.6  77322.70  2361.09  3.05
495.0  78448.50  2413.13  3.08
496.5  79626.55  2468.82  3.10
497.9  80741.85  2525.08  3.13
499.3  81901.18  2583.78  3.15
500.7  83168.05  2654.09  3.19
502.2  84344.20  2727.77  3.23
503.6  85629.00  2813.42  3.29
505.0  86713.35  2908.52  3.35
506.5  88029.45  3019.52  3.43
507.9  89202.03  3141.91  3.52
509.3  90546.40  3282.15  3.62
510.7  91786.50  3438.83  3.75
512.2  93175.58  3628.88  3.89
513.6  94695.65  3842.45  4.06
515.0  96132.55  4086.84  4.25
516.4  97524.00  4355.98  4.47
517.8  99171.63  4674.44  4.71
519.3  100495.50  5001.79  4.98
520.7  102073.25  5375.53  5.27
522.1  103373.08  5763.76  5.58
523.5  104722.60  6168.36  5.89
524.9  106215.30  6594.17  6.21
526.3  107682.40  7008.06  6.51
527.8  109177.20  7430.45  6.81
529.2  110170.60  7830.94  7.11
530.6  111741.85  8258.66  7.39
532.0  113498.00  8679.07  7.65
533.4  114817.35  9039.59  7.87
534.8  115652.63  9343.02  8.08
536.3  117325.50  9680.59  8.25
537.7  119359.80  10032.54  8.41
539.1  120858.95  10329.17  8.55
540.5  122054.45  10587.53  8.67
541.9  123802.35  10892.27  8.80
543.3  125079.45  11148.66  8.91
544.7  126403.20  11406.08  9.02
546.1  128196.75  11707.58  9.13
547.5  129472.00  11948.16  9.23
549.0  131153.00  12221.73  9.32
550.4  132653.13  12463.13  9.40
551.8  134225.33  12683.68  9.45
553.2  135756.00  12867.84  9.48
554.6  137113.60  12995.15  9.48
556.0  138658.95  13094.82  9.44
557.4  140296.10  13156.81  9.38
558.8  141939.90  13186.59  9.29
560.2  143403.25  13154.81  9.17
561.6  145074.30  13099.71  9.03
563.0  146681.43  12999.13  8.86
564.4  148290.80  12867.49  8.68
565.8  149833.75  12695.10  8.47
567.2  151585.75  12513.00  8.25
568.6  153087.38  12290.56  8.03
570.0  154538.98  12040.31  7.79
571.4  156258.05  11803.61  7.55
572.8  158041.75  11574.08  7.32
574.2  159667.20  11345.23  7.11
575.6  161235.00  11136.00  6.91
577.0  162776.50  10950.08  6.73
578.4  164516.63  10799.05  6.56
579.8  166043.25  10654.16  6.42
581.2  167768.05  10540.97  6.28
582.5  169217.10  10422.75  6.16
583.9  170746.00  10332.08  6.05
585.3  172554.75  10267.42  5.95
586.7  174049.85  10198.00  5.86
588.1  175521.50  10144.99  5.78
589.5  177196.25  10115.64  5.71
590.9  178845.20  10094.43  5.64
592.3  180657.25  10103.17  5.59
593.7  182127.08  10101.98  5.55
595.0  183756.60  10118.92  5.51
596.4  185223.85  10129.49  5.47
597.8  186697.93  10142.28  5.43
599.2  188258.40  10158.28  5.40
600.6  190014.50  10172.31  5.35
602.0  191319.68  10151.98  5.31
603.3  193114.60  10146.24  5.25
604.7  194800.38  10107.65  5.19
606.1  196291.20  10046.86  5.12
607.5  197957.80  9981.44  5.04
608.9  199650.50  9904.78  4.96
610.2  201044.03  9810.04  4.88
611.6  202641.45  9718.56  4.80
613.0  204221.85  9628.04  4.71
614.4  205606.05  9529.77  4.63
615.8  207075.38  9441.41  4.56
617.1  208622.40  9365.37  4.49
618.5  210263.60  9311.17  4.43
619.9  211770.83  9265.94  4.38
621.3  213401.70  9243.49  4.33
622.6  215009.75  9238.45  4.30
624.0  216485.40  9241.16  4.27
625.4  217976.55  9258.18  4.25
626.8  219573.90  9298.08  4.23
628.1  220870.93  9333.16  4.23
629.5  222674.38  9388.41  4.22
630.9  224197.88  9438.18  4.21
632.2  225495.90  9462.43  4.20
633.6  227043.25  9483.26  4.18
635.0  228519.20  9474.33  4.15
636.3  230038.10  9441.19  4.10
637.7  231417.63  9366.86  4.05
639.1  233082.50  9280.83  3.98
640.4  234564.93  9172.74  3.91
641.8  235771.28  9047.97  3.84
643.2  237353.20  8935.59  3.76
644.5  238728.25  8817.18  3.69
645.9  240366.60  8709.02  3.62
647.2  241794.70  8608.55  3.56
648.6  243486.00  8541.45  3.51
650.0  244857.60  8491.68  3.47
651.3  245482.88  8440.69  3.44
652.7  247280.40  8441.68  3.41
654.0  249426.80  8450.10  3.39
655.4  250843.85  8435.10  3.36
656.8  250903.10  8368.73  3.34
658.1  252197.00  8344.52  3.31
659.5  254691.15  8336.20  3.27
660.8  256410.00  8310.75  3.24
662.2  257398.40  8256.64  3.21
663.5  258999.95  8222.82  3.17
664.9  260094.90  8199.84  3.15
666.2  260850.00  8175.52  3.13
667.6  262586.65  8190.30  3.12
668.9  263632.60  8204.36  3.11
670.3  265210.88  8245.93  3.11
671.6  266451.38  8286.55  3.11
673.0  267624.00  8350.71  3.12
674.3  268912.80  8429.68  3.13
675.7  270264.23  8518.01  3.15
677.0  271348.00  8603.70  3.17
678.4  272691.53  8714.56  3.20
679.7  273770.75  8847.44  3.23
681.1  275076.58  9000.71  3.27
682.4  276205.80  9170.76  3.32
683.8  277443.40  9367.45  3.38
685.1  278421.00  9578.65  3.44
686.4  279675.60  9880.48  3.53
687.8  280973.00  10262.44  3.65
689.1  282041.00  10776.42  3.82
690.5  283353.30  11494.61  4.06
691.8  284241.33  12475.12  4.39
693.1  285525.90  13836.13  4.85
694.5  286695.50  15599.68  5.44
695.8  287946.75  17818.56  6.19
697.1  289107.00  20506.85  7.09
698.5  290174.10  23658.70  8.15
699.8  291283.05  27244.77  9.35
701.1  292416.80  31218.18  10.68
702.5  293240.20  35471.90  12.10
703.8  294187.50  39987.00  13.59
705.1  295359.68  44716.20  15.14
706.5  296424.00  49563.61  16.72
707.8  297389.10  54487.81  18.32
709.1  298239.68  59454.45  19.94
710.5  299378.25  64530.41  21.55
711.8  300224.90  69577.49  23.18
713.1  301250.70  74685.67  24.79
714.4  302187.30  79788.66  26.40
715.8  302990.10  84859.68  28.01
717.1  304317.60  90060.82  29.59
718.4  305289.60  95107.41  31.15
719.7  306424.15  100151.60  32.68
721.0  306945.00  104932.50  34.19
722.4  307717.30  109681.70  35.64
723.7  308696.85  114390.05  37.06
725.0  309741.75  119000.98  38.42
726.3  310693.90  123404.89  39.72
727.6  311241.70  127482.19  40.96
729.0  312169.73  131524.55  42.13
730.3  313001.85  135327.13  43.24
731.6  313914.00  138987.97  44.28
732.9  314701.28  142396.45  45.25
734.2  315515.75  145634.04  46.16
735.5  316552.40  148791.70  47.00
736.8  317366.70  151648.40  47.78
738.1  318228.50  154349.39  48.50
739.5  319230.88  156953.77  49.17
740.8  319937.20  159253.93  49.78
742.1  320638.05  161405.82  50.34
743.4  321300.00  163408.33  50.86
744.7  322214.83  165390.52  51.33
746.0  323085.75  167216.21  51.76
747.3  323708.05  168776.41  52.14
748.6  324450.00  170296.77  52.49
749.9  325130.00  171682.33  52.80
751.2  325750.55  172935.18  53.09
752.5  326561.20  174204.33  53.35
753.8  327084.80  175263.98  53.58
755.1  327782.00  176310.33  53.79
756.4  328401.93  177236.95  53.97
757.7  329405.48  178316.50  54.13
759.0  331247.98  179781.99  54.27
760.3  332455.20  180855.84  54.40
761.6  334016.20  182095.62  54.52
762.9  334562.25  182726.58  54.62
764.2  334931.90  183224.87  54.71
765.5  335191.08  183629.47  54.78
766.8  335620.80  184093.23  54.85
768.1  336143.20  184593.80  54.92
769.3  336721.70  185107.53  54.97
770.6  337356.50  185626.20  55.02
771.9  338071.83  186186.97  55.07
773.2  338471.20  186521.73  55.11
774.5  339053.00  186980.13  55.15
775.8  339708.75  187458.65  55.18
777.1  340267.95  187876.61  55.21
778.4  340594.38  188166.99  55.25
779.6  341361.90  188679.44  55.27
780.9  341820.00  189009.00  55.29
782.2  342278.75  189348.87  55.32
783.5  342515.00  189598.17  55.35
784.8  343051.43  189955.98  55.37
786.0  343428.75  190226.82  55.39
787.3  343832.90  190504.54  55.41
788.6  344219.20  190804.67  55.43
789.9  344636.60  191123.10  55.46
791.2  345262.43  191521.46  55.47
792.4  345907.75  191946.38  55.49
793.7  346391.40  192264.87  55.51
795.0  347010.68  192643.52  55.52
796.2  347657.55  193059.80  55.53
797.5  348326.48  193494.65  55.55
798.8  349009.30  193903.06  55.56
800.0  349615.00  194301.51  55.58
801.3  350061.70  194609.08  55.59
802.6  350576.33  194974.08  55.62
803.8  351229.40  195369.50  55.62
805.1  351718.50  195682.61  55.64
806.4  352158.30  195974.97  55.65
807.7  352700.33  196314.84  55.66
808.9  353237.55  196655.96  55.67
810.2  353735.20  196980.09  55.69
811.4  354203.30  197302.69  55.70
812.7  354818.75  197682.61  55.71
814.0  355618.30  198196.23  55.73
815.2  356211.00  198583.88  55.75
816.5  356631.90  198865.83  55.76
817.7  357154.75  199173.94  55.77
819.0  357636.95  199507.92  55.79
820.2  357808.00  199647.07  55.80
821.5  358450.20  200070.70  55.82
822.7  358804.38  200332.82  55.83
824.0  359075.70  200552.40  55.85
825.2  359559.00  200868.66  55.87
826.5  359904.58  201084.21  55.87
827.7  360427.63  201448.87  55.89
829.0  360857.35  201718.25  55.90
830.2  361133.35  201925.78  55.91
831.5  361631.65  202256.62  55.93
832.7  361974.90  202503.26  55.94
834.0  362333.63  202729.24  55.95
835.2  362685.13  202993.37  55.97
836.4  362993.40  203222.60  55.99
837.7  363356.80  203497.51  56.00
838.9  363770.38  203803.20  56.03
840.1  364162.50  204065.46  56.04
841.4  364558.30  204360.14  56.06
842.6  364949.20  204637.05  56.07
843.8  365312.40  204904.67  56.09
845.1  365833.40  205242.19  56.10
846.3  366249.40  205521.97  56.12
847.5  366618.00  205799.37  56.13
848.8  367030.20  206088.58  56.15
850.0  367379.60  206356.57  56.17
851.2  367946.55  206724.33  56.18
852.5  368374.70  207007.42  56.19
853.7  368923.50  207351.45  56.20
854.9  369366.80  207661.96  56.22
856.1  369764.85  207957.86  56.24
857.4  369985.38  208107.45  56.25
858.6  370504.05  208428.27  56.26
859.8  370948.13  208707.75  56.26
861.0  371428.20  209025.18  56.28
862.2  371935.48  209330.09  56.28
863.5  372197.15  209568.59  56.31
864.7  372728.40  209918.06  56.32
865.9  373165.60  210173.56  56.32
867.1  373493.55  210393.21  56.33
868.3  373950.60  210672.81  56.34
869.5  374467.50  210965.16  56.34
870.8  375003.00  211308.30  56.35
872.0  375490.20  211633.37  56.36
873.2  375901.50  211916.75  56.38
874.4  376394.85  212197.93  56.38
875.6  376777.33  212406.26  56.37
876.8  377280.70  212709.00  56.38
878.0  377794.55  213016.69  56.38
879.2  378289.05  213322.41  56.39
880.4  378821.25  213647.94  56.40
881.6  379318.88  213915.55  56.39
882.8  379721.60  214162.64  56.40
884.0  380323.98  214480.91  56.39
885.2  380793.40  214794.84  56.41
886.5  381433.05  215132.51  56.40
887.7  381976.08  215429.83  56.40
888.8  382624.80  215777.14  56.39
890.0  383205.25  216108.04  56.39
891.2  383795.20  216403.27  56.39
892.4  384376.13  216767.86  56.39
893.6  385014.60  217105.46  56.39
894.8  385819.25  217562.18  56.39
896.0  386678.00  218075.41  56.40
897.2  387484.50  218520.03  56.39
898.4  388228.50  218935.64  56.39
899.6  388804.13  219235.11  56.39
900.8  389123.68  219480.80  56.40
902.0  389404.95  219607.57  56.40
903.2  389713.28  219752.27  56.39
904.3  389974.20  219928.42  56.40
905.5  390653.63  220245.19  56.38
906.7  391234.50  220598.60  56.39
907.9  391740.30  220876.89  56.38
909.1  392013.68  221023.94  56.38
910.2  392105.18  221048.16  56.37
911.4  392514.53  221193.67  56.35
912.6  392606.50  221269.62  56.36
913.8  392718.08  221398.36  56.38
915.0  393217.65  221648.81  56.37
916.2  393432.00  221715.33  56.35
917.3  393390.45  221683.61  56.35
918.5  393552.50  221764.12  56.35
919.7  393729.15  221907.31  56.36
920.8  393754.00  221899.00  56.35
922.0  393874.25  221951.22  56.35
923.2  394212.00  221994.50  56.31
924.4  394368.75  222036.53  56.30
925.5  394523.60  222169.73  56.31
926.7  395090.63  222432.46  56.30
927.9  395914.80  222857.52  56.29
929.0  397305.00  223594.43  56.28
930.2  399566.20  224769.75  56.25
931.4  401909.18  226144.78  56.27
932.5  404681.75  227555.86  56.23
933.7  406119.43  228227.75  56.20
934.9  406791.88  228443.40  56.16
936.0  406373.50  228111.87  56.13
937.2  404194.35  226793.35  56.11
938.3  402330.05  225724.93  56.10
939.5  400665.60  224816.04  56.11
940.7  400870.80  224799.36  56.08
941.8  402600.38  225549.77  56.02
943.0  403850.25  226159.73  56.00
944.2  404569.75  226431.21  55.97
945.3  404215.50  226066.75  55.93
946.5  403447.50  225473.99  55.89
947.6  403711.90  225490.04  55.85
948.8  403377.98  225178.95  55.82
949.9  403683.00  224930.72  55.72
951.1  403255.78  224447.63  55.66
952.2  403104.00  224162.00  55.61
953.4  402686.75  223747.10  55.56
954.5  402667.20  223509.78  55.51
955.7  402267.60  223203.54  55.49
956.8  402025.50  222831.80  55.43
958.0  401579.50  222386.00  55.38
959.1  401564.78  221970.44  55.28
960.3  401306.38  221619.24  55.22
961.4  401080.50  221376.11  55.19
962.6  401101.75  221369.17  55.19
963.7  400615.73  221152.31  55.20
964.9  400635.90  220994.04  55.16
966.0  400421.48  220784.74  55.14
967.2  400451.40  220750.16  55.13
968.3  400512.60  220462.83  55.05
969.5  400071.83  220351.70  55.08
970.6  400172.85  220316.42  55.06
971.8  400331.23  220456.65  55.07
972.9  399960.23  220264.33  55.07
974.0  400531.10  220427.90  55.03
975.2  400139.63  220264.41  55.05
976.3  400472.43  220194.11  54.98
977.5  400109.15  220097.85  55.01
978.6  400500.10  220108.35  54.96
979.7  400515.68  219993.39  54.93
980.9  399970.48  219961.22  54.99
982.0  399318.40  219769.11  55.04
983.2  399032.43  219544.47  55.02
984.3  398605.40  219205.78  54.99
985.4  398638.18  218971.35  54.93
986.6  398567.13  218976.50  54.94
987.7  399161.70  219321.53  54.95
988.9  398473.20  219068.34  54.98
990.0  399507.30  219377.29  54.91
993.1  375123.18  205822.43  54.87
996.9  374562.98  206064.71  55.01
1000.7  374944.85  206775.28  55.15
1004.5  375213.00  207325.59  55.26
1008.4  374775.46  207556.22  55.38
1012.2  374636.08  207867.50  55.49
1016.0  374402.40  208118.13  55.59
1019.8  374052.53  208278.58  55.68
1023.7  373421.88  208232.30  55.76
1027.5  372361.35  207947.91  55.85
1031.3  371980.03  207971.36  55.91
1035.1  371386.05  207881.35  55.97
1038.9  371123.68  207933.69  56.03
1042.7  370879.08  207985.33  56.08
1046.5  370753.00  208068.30  56.12
1050.3  370758.56  208200.06  56.16
1054.2  370412.58  208137.87  56.19
1058.0  369957.76  207966.80  56.21
1061.8  369887.23  207988.87  56.23
1065.6  369410.00  207783.95  56.25
1069.4  369048.53  207606.21  56.25
1073.2  368208.21  207114.03  56.25
1077.0  367566.05  206712.12  56.24
1080.8  367303.13  206510.88  56.22
1084.6  366769.90  206124.67  56.20
1088.4  366591.40  205946.94  56.18
1092.2  365976.00  205504.00  56.15
1096.0  365392.91  205053.79  56.12
1099.8  364839.37  204587.07  56.08
1103.6  364048.57  203998.69  56.04
1107.4  363051.24  203258.86  55.99
1111.2  362759.20  202936.36  55.94
1114.9  362119.33  202383.74  55.89
1118.7  361711.35  201870.35  55.81
1122.5  361222.33  201237.30  55.71
1126.3  360207.40  200180.39  55.57
1130.1  359771.20  199204.30  55.37
1133.9  358171.10  197300.44  55.09
1137.7  356716.00  195188.65  54.72
1141.4  354796.87  192593.92  54.28
1145.2  353999.08  190465.61  53.80
1149.0  352785.42  188234.86  53.36
1152.8  351065.00  185979.89  52.98
1156.6  349340.02  184056.24  52.69
1160.3  347601.67  182435.11  52.48
1164.1  345252.30  180742.97  52.35
1167.9  343562.50  179559.72  52.26
1171.7  342279.00  178678.50  52.20
1175.4  340955.00  177843.38  52.16
1179.2  339732.78  177040.95  52.11
1183.0  339356.33  176674.30  52.06
1186.7  339053.63  176367.69  52.02
1190.5  338390.40  175875.32  51.97
1194.3  337392.27  175263.19  51.95
1198.0  336052.48  174545.31  51.94
1201.8  334428.68  173767.86  51.96
1205.6  333258.00  173321.56  52.01
1209.3  332539.73  173187.99  52.08
1213.1  331865.93  173135.08  52.17
1216.8  331143.54  173106.61  52.28
1220.6  330093.87  172927.17  52.39
1224.3  328904.75  172645.26  52.49
1228.1  327569.00  172302.18  52.60
1231.9  326164.60  171867.62  52.69
1235.6  324543.00  171286.58  52.78
1239.4  323106.50  170766.42  52.85
1243.1  321835.78  170290.48  52.91
1246.9  320591.74  169788.89  52.96
1250.6  319572.00  169378.34  53.00
1254.3  318432.31  168880.72  53.04
1258.1  317293.78  168348.78  53.06
1261.8  315919.60  167664.47  53.07
1265.6  314575.28  166953.26  53.07
1269.3  313417.15  166305.05  53.06
1273.1  313615.16  166323.23  53.03
1276.8  313699.20  166230.40  52.99
1280.6  313061.60  165707.04  52.93
1284.3  311304.80  164557.60  52.86
1288.0  309907.24  163528.32  52.77
1291.8  309030.19  162698.19  52.65
1295.5  308033.73  161738.46  52.51
1299.2  306871.75  160645.89  52.35
1302.9  305377.04  159277.84  52.16
1306.7  303723.23  157745.88  51.94
1310.4  302126.60  156103.54  51.67
1314.1  300681.33  154425.50  51.36
1317.9  299391.25  152701.81  51.00
1321.6  297938.97  150775.60  50.61
1325.3  296278.50  148633.22  50.17
1329.0  294983.62  146587.54  49.69
1332.8  293015.80  144106.36  49.18
1336.5  291303.27  141735.73  48.66
1340.2  291048.33  140075.96  48.13
1343.9  290844.17  138443.15  47.60
1347.6  290676.30  136852.67  47.08
1351.4  291586.00  135807.55  46.58
1355.1  292818.53  134917.12  46.08
1358.8  293792.00  133820.44  45.55
1362.5  293721.83  132067.08  44.96
1366.2  291927.40  129243.07  44.27
1369.9  289401.25  125733.53  43.45
1373.6  286937.06  121710.11  42.42
1377.3  285246.00  117236.00  41.10
1381.0  284420.17  112139.18  39.43
1384.8  282522.50  105563.61  37.36
1388.4  279724.32  98052.42  35.05
1392.2  277646.58  90388.33  32.56
1395.9  276126.78  82859.93  30.01
1399.6  274435.79  75730.00  27.59
1403.3  273170.71  69473.24  25.43
1407.0  271782.70  64115.31  23.59
1410.7  270299.70  59711.30  22.09
1414.3  268739.98  56225.50  20.92
1418.1  267313.63  53585.40  20.05
1421.7  266147.23  51605.96  19.39
1425.4  264975.43  50149.52  18.93
1429.1  263896.50  49111.17  18.61
1432.8  262311.47  48296.57  18.41
1436.5  261486.41  47865.55  18.31
1440.2  260772.80  47644.38  18.27
1443.9  259609.35  47466.47  18.28
1447.6  258057.80  47339.60  18.34
1451.2  256918.20  47350.88  18.43
1454.9  255565.35  47399.30  18.55
1458.6  254400.23  47612.53  18.72
1462.3  253236.50  47993.08  18.95
1466.0  251906.11  48541.53  19.27
1469.7  250230.50  49218.27  19.67
1473.3  249214.83  50196.00  20.14
1477.0  247267.83  51115.64  20.67
1480.7  245655.13  52175.67  21.24
1484.4  243709.23  53194.48  21.83
1488.0  242161.33  54335.11  22.44
1491.7  240558.22  55471.03  23.06
1495.4  238873.13  56589.86  23.69
1499.0  237307.00  57719.66  24.32
1502.7  236029.67  58903.30  24.96
1506.4  234629.53  60033.78  25.59
1510.0  233228.47  61125.38  26.21
1513.7  231782.25  62156.04  26.82
1517.4  230451.33  63187.70  27.42
1521.0  229236.80  64206.34  28.01
1524.7  227981.00  65162.02  28.58
1528.3  226692.13  66061.06  29.14
1532.0  225485.52  66925.55  29.68
1535.7  224110.88  67676.11  30.20
1539.3  222880.48  68425.65  30.70
1543.0  221920.02  69216.73  31.19
1546.6  221249.17  70053.63  31.66
1550.3  220247.80  70733.94  32.12
1553.9  219186.63  71336.11  32.55
1557.6  217945.20  71834.07  32.96
1561.2  216685.35  72270.30  33.35
1564.9  215386.22  72648.46  33.73
1568.5  214081.00  72989.31  34.09
1572.2  212955.85  73341.00  34.44
1575.8  211890.00  73696.00  34.78
1579.5  210893.95  74035.94  35.11
1583.1  209876.75  74344.68  35.42
1586.8  208600.00  74526.67  35.73
1590.4  207482.83  74732.18  36.02
1594.0  206162.34  74834.23  36.30
1597.7  205180.58  75046.22  36.58
1601.3  204091.65  75193.65  36.84
1604.9  202990.46  75302.74  37.10
1608.6  201723.57  75304.91  37.33
1612.2  200557.50  75323.60  37.56
1615.8  199297.48  75272.46  37.77
1619.5  198145.50  75230.41  37.97
1623.1  196846.20  75097.22  38.15
1626.7  195622.05  74974.32  38.33
1630.3  194443.67  74843.83  38.49
1634.0  193340.00  74713.33  38.64
1637.6  192361.67  74600.22  38.78
1641.2  191361.00  74440.02  38.90
1644.8  190152.12  74162.81  39.00
1648.5  189067.89  73902.96  39.09
1652.1  188108.10  73639.60  39.15
1655.7  187184.40  73341.42  39.18
1659.3  186366.14  73034.98  39.19
1662.9  184960.00  72464.07  39.18
1666.6  183527.80  71840.03  39.14
1670.2  182111.65  71175.78  39.08
1673.8  180660.40  70452.71  39.00
1677.4  179516.85  69797.28  38.88
1681.0  178710.28  69198.96  38.72
1684.6  178309.08  68682.85  38.52
1688.2  177653.25  67998.61  38.28
1691.8  176997.10  67311.19  38.03
1695.4  176548.60  66702.13  37.78
1699.0  176180.20  66128.07  37.53
1702.6  175827.00  65532.00  37.27
1706.2  175219.74  64799.08  36.98
1709.8  174296.48  63960.54  36.70
1713.4  173561.61  63263.82  36.45
1717.0  172707.75  62605.55  36.25
1720.6  171892.35  62025.45  36.08
1724.2  171174.83  61510.90  35.93
1727.8  170471.35  61019.39  35.79
1731.4  170005.00  60634.44  35.67
1735.0  169818.00  60345.92  35.54
1738.6  169594.65  59983.77  35.37
1742.2  169040.83  59417.59  35.15
1745.8  168405.59  58773.65  34.90
1749.4  167471.70  57987.05  34.62
1753.0  165989.20  57017.69  34.35
1756.6  164337.54  56014.13  34.08
1760.1  163008.09  55154.52  33.84
1763.7  161306.67  54208.44  33.61
1767.3  159883.80  53402.51  33.40
1770.9  158652.61  52674.36  33.20
1774.5  157222.23  51915.61  33.02
1778.0  156094.38  51307.32  32.87
1781.6  155014.80  50799.63  32.77
1785.2  153871.03  50340.43  32.72
1788.8  152721.40  49934.02  32.70
1792.3  151510.73  49532.03  32.69
1795.9  151028.26  49383.99  32.70
1799.5  150635.00  49276.89  32.71
1803.1  150837.52  49380.93  32.74
1806.6  152270.36  49888.93  32.76
1810.2  153848.10  50427.12  32.78
1813.8  154808.75  50755.29  32.79
1817.3  154582.40  50672.85  32.78
1820.9  153530.58  50300.96  32.76
1824.5  152219.15  49807.04  32.72
1828.0  151166.13  49365.25  32.66
1831.6  150507.05  48992.97  32.55
1835.2  150025.00  48594.81  32.39
1838.7  149722.40  48150.55  32.16
1842.3  149415.00  47600.00  31.86
1845.8  148420.92  46673.57  31.45
1849.4  147832.68  45699.39  30.91
1852.9  147080.73  44446.01  30.22
1856.5  146129.82  42859.59  29.33
1860.0  145216.63  40979.60  28.22
1863.6  145065.41  39004.37  26.89
1867.1  145277.65  36765.79  25.31
1870.7  145687.38  34104.57  23.41
1874.2  144869.40  30745.90  21.22
1877.8  142968.93  27059.82  18.93
1881.3  140749.13  23343.33  16.59
1884.9  139240.66  19990.69  14.36
1888.4  137929.29  16957.36  12.29
1891.9  136584.73  14398.85  10.54
1895.5  135283.40  12385.10  9.15
1899.0  134548.88  10967.11  8.15
1901.3  173159.50  9626.17  5.56
1904.1  173021.25  8718.25  5.04
1906.8  172048.20  8008.80  4.65
1909.6  169998.85  7405.30  4.36
1912.4  168105.47  6959.83  4.14
1915.1  166686.85  6661.23  4.00
1917.9  165149.50  6428.44  3.89
1920.6  163831.30  6253.96  3.82
1923.3  162502.43  6118.62  3.77
1926.1  160850.37  6019.11  3.74
1928.8  159280.00  5949.78  3.74
1931.6  158021.22  5918.14  3.75
1934.3  156851.65  5933.38  3.78
1937.0  155754.80  5957.63  3.83
1939.8  154521.67  5996.30  3.88
1942.5  153021.00  6046.33  3.95
1945.2  151117.45  6095.83  4.03
1947.9  149597.00  6167.16  4.12
1950.7  148394.73  6266.95  4.22
1953.4  146592.50  6363.48  4.34
1956.1  145186.17  6488.09  4.47
1958.8  143951.82  6627.25  4.60
1961.5  142471.20  6771.20  4.75
1964.2  140940.80  6916.00  4.91
1966.9  139360.95  7077.10  5.08
1969.6  138123.00  7266.00  5.26
1972.3  136730.70  7446.33  5.45
1975.0  135679.35  7652.30  5.64
1977.7  134559.97  7870.35  5.85
1980.4  133411.13  8094.55  6.07
1983.1  132301.57  8315.70  6.29
1985.8  131387.40  8557.90  6.51
1988.4  130364.00  8793.78  6.75
1991.1  129430.93  9047.73  6.99
1993.8  128577.90  9303.13  7.24
1996.5  127931.65  9578.86  7.49
1999.1  127259.55  9851.72  7.74
2001.8  126564.67  10124.02  8.00
2004.5  125883.45  10397.30  8.26
2007.1  125148.20  10659.68  8.52
2009.8  124414.97  10918.29  8.78
2012.4  123838.73  11187.31  9.03
2015.1  123266.73  11459.31  9.30
2017.8  122481.10  11706.80  9.56
2020.4  121986.15  11965.68  9.81
2023.1  121626.40  12230.55  10.06
2025.7  121394.00  12506.00  10.30
2028.3  121056.00  12763.11  10.54
2031.0  120654.92  12998.95  10.77
2033.6  120373.20  13235.60  11.00
2036.2  120120.90  13464.70  11.21
2038.9  119520.60  13644.50  11.42
2041.5  119165.55  13850.79  11.62
2044.1  118607.10  14018.60  11.82
2046.8  118224.30  14198.40  12.01
2049.4  117589.20  14331.80  12.19
2052.0  117314.87  14517.71  12.37
2054.6  116935.00  14688.33  12.56
2057.2  116354.20  14835.02  12.75
2059.8  116004.87  15030.07  12.96
2062.4  115121.02  15140.85  13.15
2065.0  114598.80  15303.71  13.35
2067.6  113708.92  15419.78  13.56
2070.2  113116.18  15570.87  13.77
2072.8  112462.43  15716.15  13.97
2075.4  112026.25  15881.25  14.18
2078.0  111399.02  16012.02  14.37
2080.6  110844.80  16153.87  14.57
2083.2  110153.17  16270.93  14.77
2085.8  109651.13  16401.41  14.96
2088.4  108994.50  16512.45  15.15
2090.9  108198.13  16604.72  15.35
2093.5  107304.00  16674.20  15.54
2096.1  106533.05  16761.53  15.73
2098.7  105768.90  16837.65  15.92
2101.2  104817.47  16878.62  16.10
2103.8  104136.27  16968.87  16.29
2106.4  103472.53  17053.29  16.48
2108.9  102817.53  17126.07  16.66
2111.5  101970.40  17166.82  16.84
2114.0  101332.87  17242.51  17.02
2116.6  100826.25  17333.75  17.19
2119.1  100273.13  17416.45  17.37
2121.7  99785.00  17494.17  17.53
2124.2  99361.40  17583.01  17.70
2126.8  98566.57  17598.87  17.85
2129.3  98172.80  17673.33  18.00
2131.9  97592.00  17702.67  18.14
2134.4  97155.30  17750.15  18.27
2136.9  96757.27  17793.32  18.39
2139.4  96221.07  17801.31  18.50
2142.0  95768.87  17824.96  18.61
2144.5  95505.90  17859.33  18.70
2147.0  95265.07  17905.38  18.80
2149.5  94764.80  17893.47  18.88
2152.1  94603.48  17939.71  18.96
2154.6  94538.13  17985.25  19.02
2157.1  93994.33  17954.72  19.10
2159.6  93585.58  17930.50  19.16
2162.1  93411.50  17954.30  19.22
2164.6  93160.00  17953.09  19.27
2167.1  92843.50  17935.05  19.32
2169.6  92526.12  17923.34  19.37
2172.1  92074.80  17891.12  19.43
2174.6  91749.27  17875.40  19.48
2177.1  91310.87  17848.76  19.55
2179.5  90884.08  17825.89  19.61
2182.0  90386.45  17799.28  19.69
2184.5  89845.42  17762.65  19.77
2187.0  89248.77  17700.08  19.83
2189.5  88583.82  17629.52  19.90
2191.9  87799.00  17540.17  19.98
2194.4  87172.40  17466.95  20.04
2196.9  86428.80  17363.20  20.09
2199.3  85762.67  17287.22  20.16
2201.8  84874.67  17163.11  20.22
2204.3  84413.52  17100.63  20.26
2206.7  83764.40  17001.10  20.30
2209.2  83296.73  16930.15  20.33
2211.6  82674.90  16820.10  20.34
2214.1  82366.10  16779.02  20.37
2216.5  81791.07  16671.44  20.38
2219.0  81453.33  16595.29  20.37
2221.4  81078.67  16507.94  20.36
2223.9  80612.58  16408.78  20.36
2226.3  80096.92  16273.25  20.32
2228.7  79531.18  16096.66  20.24
2231.1  78942.60  15919.20  20.17
2233.6  78354.13  15717.84  20.06
2236.0  77796.25  15512.97  19.94
2238.4  77300.42  15304.72  19.80
2240.9  76844.27  15088.73  19.64
2243.3  76297.93  14850.33  19.46
2245.7  75719.50  14593.33  19.27
2248.1  75228.40  14342.03  19.06
2250.5  74715.27  14089.81  18.86
2252.9  74082.23  13800.51  18.63
2255.3  73510.60  13518.73  18.39
2257.7  73050.00  13250.00  18.14
2260.1  72541.00  12976.44  17.89
2262.5  71940.00  12700.00  17.65
2264.9  71400.80  12449.22  17.44
2267.3  70800.00  12183.33  17.21
2269.7  70313.60  11953.05  17.00
2272.1  69746.05  11722.84  16.81
2274.5  69154.55  11500.80  16.63
2276.8  68694.30  11295.46  16.44
2279.2  68118.90  11085.15  16.27
2281.6  67688.27  10902.20  16.11
2284.0  67215.50  10719.47  15.95
2286.3  66758.40  10528.53  15.77
2288.7  66334.23  10353.05  15.61
2291.1  65779.87  10154.88  15.44
2293.4  65326.80  9975.78  15.27
2295.8  64725.20  9774.70  15.10
2298.2  64107.90  9559.95  14.91
2300.5  63435.15  9352.95  14.74
2302.9  62682.00  9145.00  14.59
2305.2  61954.50  8940.40  14.43
2307.6  61291.32  8765.73  14.30
2309.9  60512.00  8587.00  14.19
2312.2  59923.00  8452.67  14.11
2314.6  59315.85  8321.40  14.03
2316.9  58612.05  8176.50  13.95
2319.2  58042.97  8044.53  13.86
2321.6  57419.83  7884.41  13.73
2323.9  56864.58  7753.47  13.63
2326.2  56329.57  7616.33  13.52
2328.6  55813.45  7482.20  13.41
2330.9  55324.50  7350.00  13.29
2333.2  54832.25  7224.89  13.18
2335.5  54388.10  7104.80  13.06
2337.8  53938.23  6976.82  12.93
2340.1  53377.50  6836.63  12.81
2342.4  52942.50  6713.06  12.68
2344.8  52498.25  6582.75  12.54
2347.1  51916.20  6452.06  12.43
2349.4  51370.72  6323.56  12.31
2351.6  50797.85  6184.02  12.17
2353.9  50312.00  6072.01  12.07
2356.2  49791.55  5965.95  11.98
2358.5  49201.60  5838.93  11.87
2360.8  48630.40  5719.47  11.76
2363.1  48198.02  5623.29  11.67
2365.4  47719.90  5521.93  11.57
2367.7  47253.00  5415.00  11.46
2369.9  46704.55  5297.53  11.34
2372.2  46084.53  5175.29  11.23
2374.5  45495.45  5058.90  11.12
2376.7  44886.80  4944.83  11.02
2379.0  44253.20  4823.95  10.90
2381.3  43621.67  4701.67  10.78
2383.5  43096.53  4583.82  10.64
2385.8  42501.20  4471.33  10.52
2388.0  41984.40  4362.07  10.39
2390.3  41474.00  4252.22  10.25
2392.5  40980.00  4144.00  10.11
2394.8  40510.80  4045.43  9.99
2397.0  40040.00  3951.42  9.87
2399.3  39583.65  3849.93  9.73
2401.5  39138.75  3748.50  9.58
2403.8  38600.43  3645.73  9.44
2406.0  38081.92  3547.03  9.31
2408.2  37699.20  3461.58  9.18
2410.4  37275.23  3374.66  9.05
2412.7  36858.03  3288.28  8.92
2414.9  36495.25  3204.67  8.78
2417.1  36093.40  3128.43  8.67
2419.3  35660.80  3042.13  8.53
2421.6  35262.50  2957.92  8.39
2423.8  34906.27  2878.60  8.25
2426.0  34548.65  2808.73  8.13
2428.2  34169.33  2730.93  7.99
2430.4  33864.10  2673.13  7.89
2432.6  33600.00  2591.11  7.71
2434.8  33309.73  2535.21  7.61
2437.0  32925.10  2476.21  7.52
2439.2  32575.17  2410.47  7.40
2441.4  32256.47  2340.39  7.26
2443.6  31999.40  2284.36  7.14
2445.7  31751.18  2221.33  7.00
2447.9  31479.50  2171.00  6.90
2450.1  31176.95  2112.18  6.77
2452.3  30802.57  2056.33  6.68
2454.5  30437.43  1995.12  6.55
2456.6  30031.33  1930.76  6.43
2458.8  29672.50  1878.07  6.33
2461.0  29381.17  1816.50  6.18
2463.1  29085.45  1775.10  6.10
2465.3  28813.03  1721.85  5.98
2467.5  28570.75  1696.25  5.94
2469.6  28326.75  1665.69  5.88
2471.8  28006.08  1616.80  5.77
2473.9  27693.00  1568.67  5.66
2476.1  27330.33  1536.89  5.62
2478.2  26978.23  1503.02  5.57
2480.4  26678.30  1463.37  5.49
2482.5  26352.63  1419.30  5.39
2484.6  26008.58  1386.92  5.33
2486.8  25748.00  1355.43  5.26
2488.9  25442.73  1346.85  5.29
2491.1  25085.20  1311.65  5.23
2493.2  24700.43  1266.69  5.13
2495.3  24290.50  1234.57  5.08
2497.4  23956.80  1218.23  5.09
2499.5  23611.48  1181.39  5.00
2501.7  23499.67  1166.77  4.97
2503.8  23403.33  1153.45  4.93
2505.9  23352.92  1150.28  4.93
2508.0  23332.20  1132.75  4.85
2510.1  23337.75  1120.69  4.80
2512.2  23432.95  1131.58  4.83
2514.3  23577.30  1126.34  4.78
2516.4  23837.00  1149.17  4.82
