/*** Spectra Vista SIG Data ***/
name= 30_20221021_BENI_58_avg.sig
comm= Averaged Ref/Tar of files: HR.102122.0007_moc.sig,HR.102122.0008_moc.sig,HR.102122.0009_moc.sig
data=
337.3  3176.00  231.59  7.29
338.8  3270.80  224.47  6.86
340.3  3466.90  218.63  6.31
341.8  3612.28  217.74  6.03
343.2  3774.00  215.66  5.71
344.7  3966.45  211.22  5.33
346.2  4166.70  213.98  5.14
347.7  4365.08  224.71  5.15
349.2  4573.80  212.40  4.64
350.6  4774.25  202.86  4.25
352.1  5072.95  197.34  3.89
353.6  5343.80  201.59  3.77
355.1  5590.05  208.46  3.73
356.6  5899.50  212.26  3.60
358.0  6156.70  215.70  3.50
359.5  6458.10  220.71  3.42
361.0  6792.98  228.00  3.36
362.5  7113.83  228.63  3.21
364.0  7455.50  234.86  3.15
365.4  7811.80  238.18  3.05
366.9  8177.00  255.20  3.12
368.4  8509.80  257.16  3.02
369.9  8891.23  270.25  3.04
371.3  9291.60  282.26  3.04
372.8  9717.30  293.31  3.02
374.3  10131.88  296.91  2.93
375.8  10537.45  297.73  2.83
377.2  10948.30  307.43  2.81
378.7  11378.70  307.43  2.70
380.2  11755.30  320.24  2.72
381.7  12242.33  329.45  2.69
383.1  12720.40  336.23  2.64
384.6  13190.78  336.55  2.55
386.1  13647.63  344.89  2.53
387.6  14121.80  351.63  2.49
389.0  14579.20  364.99  2.50
390.5  15053.85  371.70  2.47
392.0  15605.50  380.38  2.44
393.4  16159.13  385.37  2.38
394.9  16677.90  395.23  2.37
396.4  17206.88  401.68  2.33
397.9  17732.50  417.32  2.35
399.3  18284.65  431.73  2.36
400.8  18843.30  441.53  2.34
402.2  19468.15  453.59  2.33
403.7  20078.55  458.57  2.28
405.2  20668.28  466.74  2.26
406.6  21228.00  481.68  2.27
408.1  21831.60  495.05  2.27
409.6  22410.95  510.08  2.28
411.0  23079.35  522.57  2.26
412.5  23740.50  539.47  2.27
414.0  24388.88  553.04  2.27
415.4  25102.13  562.18  2.24
416.9  25751.40  576.41  2.24
418.4  26425.13  594.04  2.25
419.8  27136.20  611.87  2.25
421.3  27878.30  631.51  2.27
422.7  28640.40  651.26  2.27
424.2  29413.13  670.18  2.28
425.7  30171.30  687.70  2.28
427.1  30906.23  703.83  2.28
428.6  31697.50  723.33  2.28
430.0  32428.98  739.96  2.28
431.5  33297.68  761.88  2.29
432.9  34163.80  784.12  2.30
434.4  35053.28  802.20  2.29
435.9  35882.00  825.33  2.30
437.3  36712.50  840.71  2.29
438.8  37548.45  859.75  2.29
440.2  38390.28  882.93  2.30
441.7  39355.80  904.82  2.30
443.1  40280.00  926.24  2.30
444.6  41238.80  953.18  2.31
446.0  42168.75  976.21  2.32
447.5  43104.88  1002.00  2.32
448.9  44014.80  1025.86  2.33
450.4  45014.20  1049.57  2.33
451.8  45877.00  1077.14  2.35
453.3  46795.43  1104.53  2.36
454.7  47812.08  1130.54  2.36
456.2  48681.23  1152.47  2.37
457.6  49635.23  1178.31  2.37
459.1  50595.03  1201.79  2.38
460.5  51533.88  1220.31  2.37
462.0  52585.20  1250.74  2.38
463.4  53608.10  1274.75  2.38
464.8  54584.25  1298.96  2.38
466.3  55581.08  1323.69  2.38
467.7  56581.50  1347.18  2.38
469.2  57637.13  1375.33  2.39
470.6  58616.60  1399.65  2.39
472.0  59649.85  1423.59  2.39
473.5  60652.75  1446.13  2.38
474.9  61674.00  1473.86  2.39
476.4  62827.20  1504.46  2.39
477.8  63901.50  1534.24  2.40
479.2  64916.50  1564.62  2.41
480.7  66020.48  1586.74  2.40
482.1  67149.15  1619.78  2.41
483.6  68319.60  1654.18  2.42
485.0  69393.15  1684.62  2.43
486.4  70582.05  1722.44  2.44
487.9  71647.88  1757.79  2.45
489.3  72815.13  1795.05  2.47
490.7  73890.05  1832.91  2.48
492.2  75117.00  1880.20  2.50
493.6  76209.30  1929.61  2.53
495.0  77322.38  1982.03  2.56
496.5  78496.58  2041.92  2.60
497.9  79611.88  2103.42  2.64
499.3  80771.20  2170.50  2.69
500.7  81996.05  2253.31  2.75
502.2  83161.60  2342.95  2.82
503.6  84402.60  2450.02  2.90
505.0  85468.10  2571.42  3.01
506.5  86788.35  2712.97  3.13
507.9  87986.38  2873.23  3.27
509.3  89377.20  3061.48  3.43
510.7  90645.75  3276.00  3.61
512.2  92017.58  3523.63  3.83
513.6  93490.25  3807.53  4.07
515.0  94909.20  4125.25  4.35
516.4  96290.78  4476.60  4.65
517.8  97914.50  4875.14  4.98
519.3  99228.75  5293.54  5.33
520.7  100794.70  5755.15  5.71
522.1  102101.35  6220.87  6.09
523.5  103471.60  6710.39  6.49
524.9  104945.85  7207.50  6.87
526.3  106362.20  7697.07  7.24
527.8  107840.70  8185.88  7.59
529.2  108948.80  8650.51  7.94
530.6  110470.25  9139.28  8.27
532.0  112182.00  9614.67  8.57
533.4  113487.00  10023.52  8.83
534.8  114343.35  10369.66  9.07
536.3  116022.60  10764.74  9.28
537.7  118011.60  11174.40  9.47
539.1  119478.55  11518.59  9.64
540.5  120680.75  11825.07  9.80
541.9  122412.90  12182.08  9.95
543.3  123667.30  12487.77  10.10
544.7  124978.20  12796.23  10.24
546.1  126764.83  13149.87  10.37
547.5  128004.80  13441.07  10.50
549.0  129679.00  13765.71  10.62
550.4  131197.50  14054.35  10.71
551.8  132772.88  14322.02  10.79
553.2  134310.45  14548.28  10.83
554.6  135657.60  14711.54  10.84
556.0  137199.60  14851.76  10.82
557.4  138809.30  14954.53  10.77
558.8  140449.50  15020.31  10.69
560.2  141898.88  15023.00  10.59
561.6  143552.25  15006.04  10.45
563.0  145131.13  14940.34  10.29
564.4  146739.95  14842.34  10.11
565.8  148271.88  14705.00  9.92
567.2  150027.00  14552.43  9.70
568.6  151532.25  14346.71  9.47
570.0  152958.58  14100.26  9.22
571.4  154688.95  13864.07  8.96
572.8  156439.75  13623.36  8.71
574.2  158065.60  13382.40  8.47
575.6  159615.00  13155.00  8.24
577.0  161149.30  12949.80  8.04
578.4  162878.63  12782.25  7.85
579.8  164379.38  12614.85  7.67
581.2  166101.25  12485.57  7.52
582.5  167532.30  12350.74  7.37
583.9  169070.40  12240.53  7.24
585.3  170849.48  12166.91  7.12
586.7  172330.28  12085.70  7.01
588.1  173824.00  12023.38  6.92
589.5  175481.25  11988.67  6.83
590.9  177096.80  11965.41  6.76
592.3  178925.35  11973.90  6.69
593.7  180365.25  11976.06  6.64
595.0  181986.75  11994.43  6.59
596.4  183449.70  12010.20  6.55
597.8  184932.80  12024.02  6.50
599.2  186502.80  12033.37  6.45
600.6  188255.60  12036.92  6.39
602.0  189561.00  11989.17  6.32
603.3  191339.55  11947.23  6.24
604.7  192995.28  11873.81  6.15
606.1  194497.20  11761.54  6.05
607.5  196133.63  11637.32  5.93
608.9  197838.05  11494.24  5.81
610.2  199229.63  11318.40  5.68
611.6  200836.50  11150.31  5.55
613.0  202415.60  10977.87  5.42
614.4  203801.85  10804.41  5.30
615.8  205247.25  10651.18  5.19
617.1  206799.60  10515.40  5.08
618.5  208413.60  10402.29  4.99
619.9  209949.98  10311.04  4.91
621.3  211547.48  10246.69  4.84
622.6  213134.00  10211.69  4.79
624.0  214585.05  10192.59  4.75
625.4  216001.50  10197.71  4.72
626.8  217567.35  10225.37  4.70
628.1  218875.25  10255.75  4.69
629.5  220707.90  10319.47  4.68
630.9  222285.53  10371.74  4.67
632.2  223645.63  10398.40  4.65
633.6  225245.13  10408.74  4.62
635.0  226730.40  10374.06  4.58
636.3  228256.20  10289.38  4.51
637.7  229610.63  10150.31  4.42
639.1  231245.00  9983.33  4.32
640.4  232691.38  9768.38  4.20
641.8  233899.65  9518.55  4.07
643.2  235496.63  9271.72  3.94
644.5  236866.75  9015.50  3.81
645.9  238521.60  8778.69  3.68
647.2  239868.13  8554.68  3.57
648.6  241521.75  8383.50  3.47
650.0  242892.00  8228.57  3.39
651.3  243634.05  8086.57  3.32
652.7  245482.50  7984.08  3.25
654.0  247571.90  7895.05  3.19
655.4  248953.53  7780.37  3.13
656.8  249041.70  7622.88  3.06
658.1  250403.70  7484.51  2.99
659.5  252817.43  7365.90  2.91
660.8  254452.50  7217.14  2.84
662.2  255472.00  7061.33  2.76
663.5  257050.75  6934.00  2.70
664.9  258172.20  6825.74  2.64
666.2  258940.80  6727.66  2.60
667.6  260689.03  6689.00  2.57
668.9  261740.50  6663.11  2.55
670.3  263286.63  6667.75  2.53
671.6  264548.63  6694.40  2.53
673.0  265721.25  6757.61  2.54
674.3  266990.10  6836.27  2.56
675.7  268299.55  6933.65  2.58
677.0  269387.78  7045.90  2.62
678.4  270709.28  7190.64  2.66
679.7  271832.55  7358.45  2.71
681.1  273156.05  7560.16  2.77
682.4  274305.20  7800.25  2.84
683.8  275564.90  8099.12  2.94
685.1  276562.50  8472.82  3.06
686.4  277855.20  8977.26  3.23
687.8  279170.75  9660.74  3.46
689.1  280261.00  10586.76  3.78
690.5  281610.00  11847.63  4.21
691.8  282510.75  13519.25  4.79
693.1  283849.80  15712.63  5.54
694.5  285080.25  18412.33  6.46
695.8  286354.25  21616.83  7.55
697.1  287560.00  25289.33  8.79
698.5  288653.20  29382.45  10.18
699.8  289763.83  33822.46  11.67
701.1  290920.25  38556.14  13.25
702.5  291751.90  43424.86  14.88
703.8  292702.50  48411.43  16.54
705.1  293879.63  53459.06  18.19
706.5  294924.88  58466.94  19.82
707.8  295914.00  63405.89  21.43
709.1  296766.23  68220.95  22.99
710.5  297927.13  73011.25  24.51
711.8  298797.70  77612.50  25.97
713.1  299801.20  82151.08  27.40
714.4  300715.50  86536.74  28.78
715.8  301562.90  90773.75  30.10
717.1  302909.55  95030.07  31.37
718.4  303856.00  99018.67  32.59
719.7  304985.75  102909.82  33.74
721.0  305527.50  106461.43  34.85
722.4  306296.65  109912.99  35.88
723.7  307247.25  113284.51  36.87
725.0  308310.08  116507.83  37.79
726.3  309278.75  119539.96  38.65
727.6  309826.55  122235.48  39.45
729.0  310771.30  124906.32  40.19
730.3  311574.30  127369.92  40.88
731.6  312525.00  129717.17  41.51
732.9  313281.50  131873.93  42.09
734.2  314089.88  133900.90  42.63
735.5  315117.38  135887.12  43.12
736.8  315921.00  137642.83  43.57
738.1  316722.80  139296.03  43.98
739.5  317707.85  140894.20  44.35
740.8  318370.80  142285.99  44.69
742.1  319151.55  143607.70  45.00
743.4  319900.00  144842.86  45.28
744.7  320880.55  146101.31  45.53
746.0  321767.55  147232.80  45.76
747.3  322355.23  148139.81  45.96
748.6  323085.25  149067.98  46.14
749.9  323856.00  149933.33  46.30
751.2  324547.65  150738.56  46.45
752.5  325462.90  151595.29  46.58
753.8  326067.88  152260.62  46.70
755.1  326742.00  152909.72  46.80
756.4  327310.98  153472.67  46.89
757.7  328258.18  154190.17  46.97
759.0  330015.40  155257.00  47.05
760.3  331188.00  156008.91  47.11
761.6  332766.00  156914.67  47.15
762.9  333305.00  157325.67  47.20
764.2  333667.60  157631.44  47.24
765.5  333920.90  157880.05  47.28
766.8  334342.40  158184.84  47.31
768.1  334882.80  158523.35  47.34
769.3  335505.10  158882.17  47.36
770.6  336126.70  159267.09  47.38
771.9  336832.13  159677.12  47.41
773.2  337221.60  159913.64  47.42
774.5  337823.20  160252.61  47.44
775.8  338497.05  160606.58  47.45
777.1  339072.80  160924.66  47.46
778.4  339387.95  161122.89  47.47
779.6  340113.45  161525.65  47.49
780.9  340590.00  161788.57  47.50
782.2  341068.75  162047.81  47.51
783.5  341356.00  162216.43  47.52
784.8  341880.08  162491.79  47.53
786.0  342276.20  162703.87  47.54
787.3  342636.85  162911.60  47.55
788.6  343041.68  163137.98  47.56
789.9  343509.60  163373.60  47.56
791.2  344122.30  163706.44  47.57
792.4  344819.58  164049.05  47.58
793.7  345289.20  164289.83  47.58
795.0  345928.28  164608.55  47.58
796.2  346528.13  164935.16  47.60
797.5  347215.28  165284.39  47.60
798.8  347917.33  165614.53  47.60
800.0  348544.75  165946.51  47.61
801.3  349014.80  166166.58  47.61
802.6  349586.10  166466.08  47.62
803.8  350188.50  166784.75  47.63
805.1  350665.00  167037.08  47.63
806.4  351129.60  167273.51  47.64
807.7  351699.98  167534.81  47.64
808.9  352263.80  167807.73  47.64
810.2  352746.45  168061.13  47.64
811.4  353240.90  168320.70  47.65
812.7  353843.75  168636.31  47.66
814.0  354671.85  169052.04  47.66
815.2  355250.75  169369.81  47.68
816.5  355701.85  169591.19  47.68
817.7  356212.05  169845.16  47.68
819.0  356724.50  170096.40  47.68
820.2  356884.00  170192.00  47.69
821.5  357557.20  170550.24  47.70
822.7  357944.15  170747.12  47.70
824.0  358249.50  170922.86  47.71
825.2  358720.65  171165.34  47.72
826.5  359053.63  171342.61  47.72
827.7  359659.23  171632.20  47.72
829.0  360077.75  171846.11  47.72
830.2  360342.15  172015.36  47.74
831.5  360829.25  172258.09  47.74
832.7  361160.10  172436.90  47.75
834.0  361557.75  172618.64  47.74
835.2  361897.25  172822.26  47.75
836.4  362193.15  172991.19  47.76
837.7  362598.00  173223.20  47.77
838.9  363054.40  173470.52  47.78
840.1  363490.20  173682.84  47.78
841.4  363989.30  173929.75  47.78
842.6  364371.20  174137.64  47.79
843.8  364785.00  174348.95  47.79
845.1  365299.25  174624.66  47.80
846.3  365708.50  174862.38  47.81
847.5  366130.80  175102.00  47.82
848.8  366535.80  175329.54  47.83
850.0  366878.40  175533.37  47.85
851.2  367438.95  175822.97  47.85
852.5  367860.30  176035.03  47.85
853.7  368466.75  176317.93  47.85
854.9  368904.10  176575.13  47.86
856.1  369363.15  176805.39  47.87
857.4  369646.25  176945.74  47.87
858.6  370160.80  177208.53  47.87
859.8  370601.25  177454.64  47.88
861.0  371077.20  177686.23  47.88
862.2  371580.10  177917.64  47.88
863.5  371981.68  178119.16  47.88
864.7  372438.00  178381.66  47.90
865.9  372945.40  178599.68  47.89
867.1  373271.10  178800.36  47.90
868.3  373726.05  179026.94  47.90
869.5  374240.55  179268.89  47.90
870.8  374773.50  179534.57  47.90
872.0  375335.55  179784.31  47.90
873.2  375823.35  180020.38  47.90
874.4  376236.90  180251.03  47.91
875.6  376617.78  180435.86  47.91
876.8  377119.40  180694.41  47.91
878.0  377631.25  180928.62  47.91
879.2  378206.40  181176.67  47.90
880.4  378737.63  181426.43  47.90
881.6  379234.30  181659.05  47.90
882.8  379636.00  181847.01  47.90
884.0  380323.98  182153.80  47.89
885.2  380793.40  182390.94  47.90
886.5  381344.20  182667.14  47.90
887.7  381886.05  182905.08  47.90
888.8  382533.53  183228.05  47.90
890.0  383205.25  183473.63  47.88
891.2  383795.20  183750.16  47.88
892.4  384281.10  184031.75  47.89
893.6  384918.25  184285.43  47.88
894.8  385819.25  184719.57  47.88
896.0  386777.25  185134.33  47.87
897.2  387585.25  185543.12  47.87
898.4  388330.80  185874.23  47.86
899.6  388908.00  186114.32  47.86
900.8  389123.68  186270.92  47.87
902.0  389404.95  186368.01  47.86
903.2  389821.80  186497.63  47.84
904.3  390194.40  186635.23  47.83
905.5  390765.40  186919.74  47.83
906.7  391461.50  187220.95  47.83
907.9  391970.60  187442.27  47.82
909.1  392130.45  187574.01  47.83
910.2  392342.03  187652.87  47.83
911.4  392634.45  187756.86  47.82
912.6  392849.60  187846.84  47.82
913.8  393210.98  187923.99  47.79
915.0  393592.50  188091.40  47.79
916.2  393685.50  188157.36  47.79
917.3  393647.40  188124.11  47.79
918.5  393812.70  188223.72  47.80
919.7  393992.25  188329.49  47.80
920.8  394020.05  188338.06  47.80
922.0  394278.50  188354.83  47.77
923.2  394621.50  188396.00  47.74
924.4  394783.88  188479.93  47.74
925.5  394944.50  188523.12  47.73
926.7  395375.38  188775.69  47.75
927.9  396348.60  189136.80  47.72
929.0  397746.45  189823.50  47.72
930.2  400016.50  190798.54  47.70
931.4  402522.08  191954.44  47.69
932.5  405307.95  193167.79  47.66
933.7  406597.40  193769.55  47.66
934.9  407277.50  194049.58  47.65
936.0  406701.75  193714.39  47.63
937.2  404690.70  192646.83  47.60
938.3  402998.65  191713.09  47.57
939.5  401342.40  190889.83  47.56
940.7  401558.40  190907.23  47.54
941.8  403126.65  191547.39  47.52
943.0  404567.25  192121.86  47.49
944.2  405117.70  192391.33  47.49
945.3  404771.25  192077.79  47.45
946.5  403822.80  191581.71  47.44
947.6  404093.30  191462.80  47.38
948.8  403766.03  191271.69  47.37
949.9  404077.80  191196.00  47.32
951.1  403456.30  190823.41  47.30
952.2  403308.00  190536.00  47.24
953.4  402894.00  190176.55  47.20
954.5  402877.80  189981.26  47.16
955.7  402910.20  189781.20  47.10
956.8  402897.10  189469.24  47.03
958.0  402244.00  189076.62  47.01
959.1  401790.50  188770.59  46.98
960.3  401306.38  188404.28  46.95
961.4  401549.60  188265.47  46.88
962.6  401581.25  188192.33  46.86
963.7  401106.38  188035.77  46.88
964.9  400886.93  187862.33  46.86
966.0  400678.65  187688.76  46.84
967.2  400715.55  187621.97  46.82
968.3  400512.60  187438.24  46.80
969.5  400351.40  187262.00  46.77
970.6  400461.58  187203.79  46.75
971.8  400630.65  187211.92  46.73
972.9  400272.45  187156.59  46.76
974.0  400531.10  187221.79  46.74
975.2  400139.63  187001.48  46.73
976.3  400113.90  186876.89  46.71
977.5  400109.15  186638.37  46.65
978.6  400500.10  186560.91  46.58
979.7  400090.95  186595.85  46.64
980.9  399970.48  186554.11  46.64
982.0  399318.40  186449.15  46.69
983.2  399543.35  186317.32  46.63
984.3  399693.00  186083.18  46.56
985.4  399795.33  186135.84  46.56
986.6  399181.25  185875.17  46.56
987.7  400466.15  186287.88  46.52
988.9  399162.60  186138.00  46.63
990.0  400235.00  186429.81  46.58
993.1  380002.06  176787.70  46.52
996.9  379415.73  176788.65  46.59
1000.7  379737.28  177240.96  46.67
1004.5  380107.58  177637.27  46.73
1008.4  379867.38  177793.17  46.80
1012.2  379856.50  178009.43  46.86
1016.0  379746.00  178129.04  46.91
1019.8  379429.05  178145.92  46.95
1023.7  378695.78  177925.34  46.98
1027.5  377492.67  177541.62  47.03
1031.3  376854.18  177382.34  47.07
1035.1  376064.56  177164.65  47.11
1038.9  375750.83  177129.26  47.14
1042.7  375547.08  177138.56  47.17
1046.5  375449.33  177152.05  47.18
1050.3  375484.81  177222.37  47.20
1054.2  375173.75  177138.76  47.22
1058.0  374759.64  176963.92  47.22
1061.8  374685.89  176961.78  47.23
1065.6  374155.27  176708.51  47.23
1069.4  373655.73  176457.92  47.22
1073.2  372656.96  175942.18  47.21
1077.0  372069.80  175577.62  47.19
1080.8  372076.04  175459.59  47.16
1084.6  371846.30  175268.18  47.13
1088.4  371822.44  175203.12  47.12
1092.2  371299.50  174830.50  47.09
1096.0  370680.08  174424.96  47.06
1099.8  370061.90  173987.58  47.02
1103.6  369203.63  173452.07  46.98
1107.4  368158.78  172804.44  46.94
1111.2  367883.70  172537.58  46.90
1114.9  367355.92  172107.04  46.85
1118.7  367074.68  171740.92  46.79
1122.5  366649.40  171227.24  46.70
1126.3  365672.36  170392.87  46.60
1130.1  365313.45  169625.52  46.43
1133.9  363661.90  168070.86  46.22
1137.7  362138.70  166384.66  45.95
1141.4  360198.58  164326.46  45.62
1145.2  359361.56  162663.98  45.26
1149.0  358140.42  160929.40  44.93
1152.8  356343.25  159126.47  44.66
1156.6  354558.05  157555.81  44.44
1160.3  352736.00  156220.77  44.29
1164.1  350341.30  154807.53  44.19
1167.9  348641.67  153806.03  44.12
1171.7  347382.00  153056.63  44.06
1175.4  346016.60  152299.56  44.02
1179.2  344769.15  151579.83  43.97
1183.0  344468.33  151251.04  43.91
1186.7  344332.57  151022.68  43.86
1190.5  343788.27  150659.79  43.82
1194.3  342782.07  150136.75  43.80
1198.0  341393.53  149476.94  43.78
1201.8  339744.58  148765.11  43.79
1205.6  338595.67  148355.37  43.81
1209.3  337889.78  148243.46  43.87
1213.1  337219.65  148162.39  43.94
1216.8  336475.43  148111.87  44.02
1220.6  335350.40  147889.21  44.10
1224.3  334086.25  147600.70  44.18
1228.1  332651.80  147234.92  44.26
1231.9  331168.18  146788.44  44.32
1235.6  329512.80  146235.29  44.38
1239.4  328042.13  145756.59  44.43
1243.1  326746.35  145299.42  44.47
1246.9  325521.68  144827.32  44.49
1250.6  324521.60  144429.66  44.51
1254.3  323385.98  143975.34  44.52
1258.1  322244.07  143481.32  44.53
1261.8  320862.67  142875.12  44.53
1265.6  319644.37  142276.36  44.51
1269.3  318714.68  141786.37  44.49
1273.1  318929.83  141800.11  44.46
1276.8  318816.00  141626.23  44.42
1280.6  317971.60  141083.00  44.37
1284.3  316159.20  140079.17  44.31
1288.0  314860.95  139256.83  44.23
1291.8  314162.56  138653.30  44.13
1295.5  313244.80  137940.77  44.04
1299.2  312057.87  137051.05  43.92
1302.9  310480.97  135914.64  43.78
1306.7  308766.15  134651.91  43.61
1310.4  307103.49  133306.30  43.41
1314.1  305581.10  131955.07  43.18
1317.9  304227.50  130572.96  42.92
1321.6  302739.53  129032.47  42.62
1325.3  301074.38  127326.19  42.29
1329.0  299782.58  125719.49  41.94
1332.8  297820.60  123737.04  41.55
1336.5  296112.27  121862.89  41.15
1340.2  295962.33  120627.00  40.76
1343.9  295954.17  119433.94  40.36
1347.6  296176.50  118332.04  39.95
1351.4  297739.50  117803.69  39.57
1355.1  299834.70  117491.95  39.19
1358.8  301600.00  116974.48  38.78
1362.5  301906.38  115744.96  38.34
1366.2  299953.95  113403.25  37.81
1369.9  296783.13  110326.71  37.17
1373.6  294019.19  106957.43  36.38
1377.3  292544.10  103434.80  35.36
1381.0  291986.17  99458.36  34.06
1384.8  289948.75  94105.81  32.46
1388.4  286709.03  87820.04  30.63
1392.2  284530.25  81461.83  28.63
1395.9  282985.48  75195.66  26.57
1399.6  281115.35  69145.08  24.60
1403.3  279615.87  63762.97  22.80
1407.0  277921.40  59071.62  21.25
1410.7  276130.80  55185.45  19.99
1414.3  274232.29  52072.06  18.99
1418.1  272573.96  49716.61  18.24
1421.7  271194.64  47954.64  17.68
1425.4  269893.98  46667.31  17.29
1429.1  268739.63  45767.96  17.03
1432.8  267088.05  45071.82  16.88
1436.5  266262.56  44723.82  16.80
1440.2  265520.63  44568.85  16.79
1443.9  264318.82  44451.98  16.82
1447.6  262693.20  44358.60  16.89
1451.2  261437.55  44379.05  16.98
1454.9  260004.30  44422.93  17.09
1458.6  258791.90  44631.33  17.25
1462.3  257626.23  44982.36  17.46
1466.0  256289.16  45472.55  17.74
1469.7  254608.79  46077.01  18.10
1473.3  253546.17  46931.49  18.51
1477.0  251505.87  47710.16  18.97
1480.7  249856.51  48613.10  19.46
1484.4  247836.90  49451.97  19.95
1488.0  246238.67  50413.52  20.47
1491.7  244614.70  51351.09  20.99
1495.4  242920.35  52273.89  21.52
1499.0  241352.50  53182.32  22.04
1502.7  240066.33  54141.22  22.55
1506.4  238606.78  55023.87  23.06
1510.0  237164.93  55871.51  23.56
1513.7  235641.00  56658.97  24.04
1517.4  234278.33  57432.76  24.51
1521.0  233046.00  58201.66  24.97
1524.7  231811.67  58902.09  25.41
1528.3  230534.13  59555.71  25.83
1532.0  229297.02  60175.09  26.24
1535.7  227906.02  60689.80  26.63
1539.3  226618.28  61197.04  27.00
1543.0  225660.24  61759.41  27.37
1546.6  224939.00  62357.20  27.72
1550.3  223942.95  62825.58  28.05
1553.9  222877.40  63240.44  28.37
1557.6  221637.53  63565.86  28.68
1561.2  220354.20  63838.96  28.97
1564.9  219030.96  64067.08  29.25
1568.5  217690.67  64260.22  29.52
1572.2  216524.55  64477.23  29.78
1575.8  215418.00  64696.44  30.03
1579.5  214425.70  64912.97  30.27
1583.1  213381.65  65096.08  30.51
1586.8  212086.00  65180.22  30.73
1590.4  210921.00  65276.83  30.95
1594.0  209596.73  65301.49  31.16
1597.7  208684.02  65441.64  31.36
1601.3  207635.40  65532.83  31.56
1604.9  206569.74  65579.71  31.75
1608.6  205219.40  65516.58  31.93
1612.2  203951.55  65446.22  32.09
1615.8  202581.60  65324.25  32.25
1619.5  201360.25  65223.88  32.39
1623.1  200030.60  65073.58  32.53
1626.7  198808.35  64923.64  32.66
1630.3  197616.67  64760.44  32.77
1634.0  196504.00  64607.78  32.88
1637.6  195512.60  64473.12  32.98
1641.2  194480.10  64284.10  33.05
1644.8  193284.17  63995.18  33.11
1648.5  192196.24  63717.82  33.15
1652.1  191224.20  63437.47  33.17
1655.7  190294.20  63123.51  33.17
1659.3  189452.66  62802.10  33.15
1662.9  188020.00  62267.45  33.12
1666.6  186594.33  61706.89  33.07
1670.2  185162.31  61123.41  33.01
1673.8  183682.60  60490.64  32.93
1677.4  182509.50  59921.91  32.83
1681.0  181694.18  59408.79  32.70
1684.6  181294.75  58972.51  32.53
1688.2  180596.45  58379.08  32.33
1691.8  179910.28  57828.19  32.14
1695.4  179459.60  57333.52  31.95
1699.0  179098.03  56866.01  31.75
1702.6  178751.00  56377.32  31.54
1706.2  178144.63  55768.03  31.30
1709.8  177184.81  55073.18  31.08
1713.4  176439.45  54488.62  30.88
1717.0  175554.50  53922.72  30.72
1720.6  174743.93  53406.23  30.56
1724.2  174040.43  52934.00  30.41
1727.8  173300.75  52490.34  30.29
1731.4  172818.25  52157.00  30.18
1735.0  172648.30  51932.79  30.08
1738.6  172422.00  51661.12  29.96
1742.2  171847.84  51232.64  29.81
1745.8  171212.09  50724.15  29.63
1749.4  170230.50  50099.79  29.43
1753.0  168738.60  49308.97  29.22
1756.6  167073.67  48491.81  29.02
1760.1  165722.05  47791.76  28.84
1763.7  164005.33  47017.36  28.67
1767.3  162554.60  46360.59  28.52
1770.9  161296.57  45782.33  28.38
1774.5  159844.63  45161.25  28.25
1778.0  158707.34  44670.73  28.15
1781.6  157605.45  44246.90  28.07
1785.2  156455.33  43853.68  28.03
1788.8  155288.40  43498.31  28.01
1792.3  154069.93  43145.64  28.00
1795.9  153599.88  43017.16  28.01
1799.5  153314.00  42947.06  28.01
1803.1  153785.68  43116.88  28.04
1806.6  155418.61  43624.32  28.07
1810.2  157050.60  44125.37  28.10
1813.8  158047.20  44414.32  28.10
1817.3  157825.20  44342.30  28.10
1820.9  156862.22  44040.35  28.08
1824.5  155657.88  43644.35  28.04
1828.0  154728.29  43288.43  27.98
1831.6  154336.05  43062.58  27.90
1835.2  154161.67  42816.17  27.77
1838.7  153995.20  42483.70  27.59
1842.3  153765.00  42055.95  27.35
1845.8  152595.54  41251.58  27.03
1849.4  151979.98  40452.63  26.62
1852.9  151096.05  39396.63  26.07
1856.5  150030.05  38076.52  25.38
1860.0  148985.98  36505.32  24.50
1863.6  148976.20  34899.16  23.43
1867.1  149633.75  33133.80  22.14
1870.7  150468.73  30984.05  20.59
1874.2  149463.45  28084.41  18.79
1877.8  146920.80  24774.06  16.86
1881.3  144101.63  21389.19  14.84
1884.9  142374.01  18330.99  12.88
1888.4  140922.95  15522.89  11.02
1891.9  139522.27  13118.44  9.40
1895.5  138300.28  11200.16  8.10
1899.0  137807.50  9805.49  7.12
1901.3  176244.33  8610.28  4.89
1904.1  176246.25  7675.50  4.35
1906.8  175206.60  6937.20  3.96
1909.6  173005.70  6345.03  3.67
1912.4  170935.45  5890.23  3.45
1915.1  169454.45  5582.68  3.29
1917.9  167899.17  5354.95  3.19
1920.6  166617.37  5195.96  3.12
1923.3  165285.63  5080.45  3.07
1926.1  163605.67  4986.52  3.05
1928.8  162037.33  4937.78  3.05
1931.6  160839.82  4941.76  3.07
1934.3  159733.95  4972.62  3.11
1937.0  158703.03  5027.90  3.17
1939.8  157533.33  5100.53  3.24
1942.5  156002.00  5181.00  3.32
1945.2  154022.55  5259.83  3.41
1947.9  152376.23  5364.49  3.52
1950.7  151070.80  5501.89  3.64
1953.4  149171.00  5634.50  3.78
1956.1  147691.00  5794.39  3.92
1958.8  146374.15  5959.56  4.07
1961.5  144817.20  6139.47  4.24
1964.2  143234.00  6315.40  4.41
1966.9  141587.25  6509.97  4.60
1969.6  140292.00  6717.00  4.79
1972.3  138866.70  6924.20  4.99
1975.0  137785.65  7150.80  5.19
1977.7  136649.52  7385.43  5.40
1980.4  135471.30  7627.00  5.63
1983.1  134332.55  7876.96  5.86
1985.8  133397.10  8128.70  6.09
1988.4  132348.67  8380.67  6.33
1991.1  131399.33  8633.33  6.57
1993.8  130499.42  8889.53  6.81
1996.5  129844.55  9165.26  7.06
1999.1  129146.60  9443.87  7.31
2001.8  128446.73  9712.50  7.56
2004.5  127743.20  9964.80  7.80
2007.1  127007.95  10215.65  8.04
2009.8  126227.97  10466.48  8.29
2012.4  125622.38  10724.88  8.54
2015.1  125062.47  10964.33  8.77
2017.8  124250.93  11171.53  8.99
2020.4  123726.72  11405.59  9.22
2023.1  123361.70  11637.73  9.43
2025.7  123127.33  11876.22  9.65
2028.3  122780.67  12087.11  9.84
2031.0  122356.85  12281.13  10.04
2033.6  122078.40  12481.60  10.22
2036.2  121817.40  12667.20  10.40
2038.9  121208.40  12806.40  10.57
2041.5  120856.58  12952.97  10.72
2044.1  120303.60  13079.00  10.87
2046.8  119903.40  13221.10  11.03
2049.4  119250.90  13316.80  11.17
2052.0  118948.00  13455.16  11.31
2054.6  118536.25  13577.08  11.45
2057.2  117961.13  13690.95  11.61
2059.8  117620.53  13830.69  11.76
2062.4  116716.17  13905.99  11.91
2065.0  116188.27  14019.91  12.07
2067.6  115277.92  14086.13  12.22
2070.2  114667.75  14187.83  12.37
2072.8  114014.00  14283.71  12.53
2075.4  113566.25  14399.58  12.68
2078.0  112918.53  14489.57  12.83
2080.6  112349.60  14575.73  12.97
2083.2  111634.73  14649.10  13.12
2085.8  111126.73  14741.36  13.27
2088.4  110443.17  14819.39  13.42
2090.9  109644.07  14864.90  13.56
2093.5  108750.50  14888.72  13.69
2096.1  107964.73  14922.88  13.82
2098.7  107183.02  14969.73  13.97
2101.2  106197.33  14977.67  14.10
2103.8  105498.67  15030.07  14.25
2106.4  104817.47  15076.65  14.38
2108.9  104153.73  15117.40  14.51
2111.5  103289.13  15126.13  14.64
2114.0  102642.87  15163.98  14.77
2116.6  102112.50  15210.42  14.90
2119.1  101544.30  15259.84  15.03
2121.7  101036.25  15300.83  15.14
2124.2  100623.80  15350.44  15.26
2126.8  99822.58  15341.56  15.37
2129.3  99422.40  15379.47  15.47
2131.9  98832.80  15382.40  15.56
2134.4  98385.45  15407.85  15.66
2136.9  97974.28  15427.39  15.75
2139.4  97444.67  15422.09  15.83
2142.0  96983.60  15422.09  15.90
2144.5  96698.50  15450.40  15.98
2147.0  96453.20  15478.49  16.05
2149.5  95935.07  15463.60  16.12
2152.1  95762.33  15493.25  16.18
2154.6  95707.73  15537.24  16.23
2157.1  95157.00  15505.25  16.29
2159.6  94711.92  15487.08  16.35
2162.1  94539.90  15500.33  16.40
2164.6  94292.53  15502.31  16.44
2167.1  93963.87  15495.35  16.49
2169.6  93632.12  15493.22  16.55
2172.1  93155.10  15453.52  16.59
2174.6  92805.67  15444.44  16.64
2177.1  92350.60  15432.00  16.71
2179.5  91936.87  15412.87  16.76
2182.0  91443.00  15383.87  16.82
2184.5  90896.35  15344.88  16.88
2187.0  90267.57  15297.72  16.95
2189.5  89570.08  15233.39  17.01
2191.9  88777.50  15158.83  17.08
2194.4  88127.40  15101.73  17.14
2196.9  87369.60  15014.40  17.18
2199.3  86700.33  14941.45  17.23
2201.8  85799.33  14827.11  17.28
2204.3  85336.28  14780.63  17.32
2206.7  84690.30  14692.92  17.35
2209.2  84215.88  14647.10  17.39
2211.6  83585.70  14562.90  17.42
2214.1  83291.45  14523.68  17.44
2216.5  82744.67  14429.82  17.44
2219.0  82397.00  14373.53  17.44
2221.4  82000.92  14296.53  17.43
2223.9  81515.00  14194.06  17.41
2226.3  81019.17  14078.36  17.38
2228.7  80450.33  13935.50  17.32
2231.1  79823.70  13774.20  17.26
2233.6  79218.33  13602.04  17.17
2236.0  78668.92  13420.56  17.06
2238.4  78173.08  13238.75  16.94
2240.9  77728.33  13049.09  16.79
2243.3  77162.13  12840.49  16.64
2245.7  76575.20  12613.28  16.47
2248.1  76085.53  12395.21  16.29
2250.5  75563.85  12166.35  16.10
2252.9  74929.40  11906.84  15.89
2255.3  74356.35  11654.77  15.67
2257.7  73890.00  11426.67  15.46
2260.1  73393.83  11203.89  15.27
2262.5  72770.00  10963.33  15.07
2264.9  72239.40  10718.77  14.84
2267.3  71610.00  10496.67  14.66
2269.7  71106.23  10304.23  14.49
2272.1  70547.38  10106.82  14.33
2274.5  69973.18  9910.12  14.16
2276.8  69495.63  9746.22  14.02
2279.2  68902.80  9567.60  13.89
2281.6  68463.40  9412.34  13.75
2284.0  67993.20  9251.60  13.61
2286.3  67538.67  9092.98  13.46
2288.7  67118.35  8944.36  13.33
2291.1  66557.60  8783.61  13.20
2293.4  66107.07  8620.58  13.04
2295.8  65477.10  8435.70  12.88
2298.2  64873.80  8273.10  12.75
2300.5  64190.70  8093.70  12.61
2302.9  63436.33  7911.89  12.47
2305.2  62706.40  7735.30  12.34
2307.6  62023.80  7582.75  12.23
2309.9  61256.00  7433.11  12.13
2312.2  60656.67  7326.33  12.08
2314.6  60040.35  7220.85  12.03
2316.9  59346.90  7117.35  11.99
2319.2  58768.63  7011.32  11.93
2321.6  58125.90  6880.69  11.84
2323.9  57572.92  6767.36  11.75
2326.2  57028.60  6656.47  11.67
2328.6  56492.70  6545.18  11.59
2330.9  55986.00  6436.50  11.50
2333.2  55509.58  6332.36  11.41
2335.5  55062.20  6223.83  11.30
2337.8  54585.23  6114.15  11.20
2340.1  54024.50  5999.13  11.10
2342.4  53592.50  5886.11  10.98
2344.8  53142.33  5778.55  10.87
2347.1  52563.23  5662.46  10.77
2349.4  51998.67  5552.40  10.68
2351.6  51403.77  5445.91  10.59
2353.9  50896.77  5351.17  10.51
2356.2  50380.73  5258.18  10.44
2358.5  49795.20  5163.20  10.37
2360.8  49235.20  5062.40  10.28
2363.1  48758.85  4957.77  10.17
2365.4  48262.30  4866.53  10.08
2367.7  47788.80  4780.40  10.00
2369.9  47265.60  4690.68  9.92
2372.2  46646.40  4582.84  9.82
2374.5  46049.85  4477.55  9.72
2376.7  45409.55  4371.74  9.63
2379.0  44776.70  4269.43  9.53
2381.3  44146.67  4168.89  9.44
2383.5  43636.27  4063.64  9.31
2385.8  43007.17  3961.45  9.21
2388.0  42480.00  3866.47  9.10
2390.3  41948.67  3761.73  8.97
2392.5  41460.00  3668.00  8.85
2394.8  40994.80  3569.50  8.71
2397.0  40513.20  3482.27  8.60
2399.3  40046.62  3395.09  8.48
2401.5  39604.25  3311.58  8.36
2403.8  39043.83  3226.97  8.26
2406.0  38528.92  3141.42  8.15
2408.2  38135.53  3062.64  8.03
2410.4  37712.15  2983.52  7.91
2412.7  37297.87  2907.09  7.79
2414.9  36912.70  2833.60  7.68
2417.1  36512.50  2751.67  7.54
2419.3  36083.20  2679.47  7.43
2421.6  35688.75  2613.47  7.32
2423.8  35295.27  2541.47  7.20
2426.0  34925.17  2471.16  7.08
2428.2  34574.40  2399.91  6.94
2430.4  34247.87  2337.89  6.83
2432.6  33973.33  2271.11  6.68
2434.8  33670.63  2218.87  6.59
2437.0  33301.23  2149.33  6.45
2439.2  32953.63  2090.58  6.34
2441.4  32610.93  2031.36  6.23
2443.6  32372.45  1975.79  6.10
2445.7  32084.38  1920.53  5.99
2447.9  31827.42  1860.19  5.84
2450.1  31528.20  1821.82  5.78
2452.3  31155.48  1764.58  5.66
2454.5  30777.83  1711.45  5.56
2456.6  30388.00  1654.93  5.45
2458.8  30015.70  1596.83  5.32
2461.0  29727.17  1542.59  5.19
2463.1  29420.10  1503.50  5.11
2465.3  29120.33  1463.33  5.03
2467.5  28865.75  1430.75  4.96
2469.6  28625.08  1407.14  4.92
2471.8  28306.42  1366.52  4.83
2473.9  27979.58  1317.28  4.71
2476.1  27618.50  1299.28  4.70
2478.2  27298.13  1264.37  4.63
2480.4  27000.65  1217.77  4.51
2482.5  26646.82  1187.06  4.45
2484.6  26335.83  1153.17  4.38
2486.8  26046.30  1140.87  4.38
2488.9  25726.83  1110.09  4.31
2491.1  25386.67  1068.36  4.21
2493.2  25003.80  1037.83  4.15
2495.3  24579.10  1004.75  4.09
2497.4  24230.50  987.47  4.08
2499.5  23886.60  965.61  4.04
2501.7  23762.60  953.13  4.01
2503.8  23687.52  941.71  3.98
2505.9  23609.17  922.50  3.91
2508.0  23612.47  922.54  3.91
2510.1  23606.00  912.05  3.86
2512.2  23744.90  917.50  3.86
2514.3  23919.00  936.51  3.92
2516.4  24132.50  939.03  3.89
