/*** Spectra Vista SIG Data ***/
name= 36_20220825_QUPH_11_avg.sig
comm= Averaged Ref/Tar of files: HR.082522.0027_moc.sig,HR.082522.0028_moc.sig
data=
337.3  3424.13  310.51  9.07
338.8  3607.50  291.35  8.08
340.3  3748.00  281.10  7.50
341.8  3978.08  283.50  7.13
343.2  4173.60  260.06  6.23
344.7  4307.65  258.34  6.00
346.2  4493.50  253.27  5.64
347.7  4719.00  262.92  5.57
349.2  4914.00  252.72  5.14
350.6  5178.23  240.29  4.64
352.1  5465.93  238.85  4.37
353.6  5725.50  232.00  4.05
355.1  6027.83  241.50  4.01
356.6  6325.58  248.16  3.92
358.0  6667.10  247.91  3.72
359.5  6952.50  250.73  3.61
361.0  7271.78  257.36  3.54
362.5  7640.78  260.13  3.40
364.0  8029.00  260.54  3.24
365.4  8373.80  268.96  3.21
366.9  8757.13  269.94  3.08
368.4  9137.13  281.32  3.08
369.9  9539.83  297.28  3.12
371.3  9959.10  310.49  3.12
372.8  10381.05  326.95  3.15
374.3  10830.63  321.73  2.97
375.8  11265.10  321.09  2.85
377.2  11701.50  320.50  2.74
378.7  12131.90  340.48  2.81
380.2  12562.30  336.64  2.68
381.7  13080.10  338.20  2.59
383.1  13609.75  342.65  2.52
384.6  14134.90  350.68  2.48
386.1  14620.53  359.05  2.46
387.6  15118.95  372.68  2.46
389.0  15624.40  372.14  2.38
390.5  16115.85  386.87  2.40
392.0  16716.40  385.42  2.31
393.4  17288.95  395.63  2.29
394.9  17878.50  409.40  2.29
396.4  18448.88  418.44  2.27
397.9  19039.38  428.31  2.25
399.3  19601.55  442.10  2.26
400.8  20164.33  452.21  2.24
402.2  20842.95  467.15  2.24
403.7  21474.90  481.50  2.24
405.2  22136.13  501.24  2.26
406.6  22736.00  519.68  2.29
408.1  23345.80  529.49  2.27
409.6  23969.40  539.97  2.25
411.0  24659.25  561.81  2.28
412.5  25344.03  573.58  2.26
414.0  26018.88  587.97  2.26
415.4  26771.63  610.45  2.28
416.9  27466.88  625.06  2.28
418.4  28199.25  642.96  2.28
419.8  28919.80  655.20  2.27
421.3  29660.80  680.92  2.30
422.7  30484.80  703.96  2.31
424.2  31303.13  725.63  2.32
425.7  32111.00  742.35  2.31
427.1  32900.18  760.96  2.31
428.6  33712.50  784.75  2.33
430.0  34477.60  799.51  2.32
431.5  35387.18  827.27  2.34
432.9  36302.70  844.26  2.33
434.4  37245.00  864.00  2.32
435.9  38108.00  880.80  2.31
437.3  38981.25  900.04  2.31
438.8  39842.63  925.04  2.32
440.2  40734.93  952.49  2.34
441.7  41754.40  981.27  2.35
443.1  42691.50  1003.97  2.35
444.6  43701.60  1033.78  2.37
446.0  44672.93  1063.21  2.38
447.5  45676.95  1091.24  2.39
448.9  46646.40  1120.09  2.40
450.4  47681.90  1152.92  2.42
451.8  48594.00  1181.52  2.43
453.3  49554.25  1212.62  2.45
454.7  50618.35  1239.96  2.45
456.2  51524.60  1271.11  2.47
457.6  52542.45  1298.68  2.47
459.1  53539.85  1326.41  2.48
460.5  54516.50  1353.55  2.48
462.0  55628.33  1389.99  2.50
463.4  56704.30  1426.76  2.52
464.8  57733.88  1454.50  2.52
466.3  58778.78  1489.46  2.53
467.7  59804.68  1518.09  2.54
469.2  60916.60  1549.06  2.54
470.6  61918.35  1587.65  2.56
472.0  62999.70  1624.26  2.58
473.5  64056.88  1657.07  2.59
474.9  65136.75  1695.35  2.60
476.4  66340.80  1735.82  2.62
477.8  67454.00  1778.95  2.64
479.2  68527.00  1820.79  2.66
480.7  69668.18  1868.10  2.68
482.1  70862.80  1919.38  2.71
483.6  72105.50  1968.92  2.73
485.0  73243.50  2026.92  2.77
486.4  74496.00  2089.38  2.80
487.9  75611.25  2157.40  2.85
489.3  76835.05  2235.68  2.91
490.7  77954.15  2317.30  2.97
492.2  79247.70  2409.12  3.04
493.6  80399.20  2507.25  3.12
495.0  81563.63  2616.62  3.21
496.5  82796.35  2736.26  3.30
497.9  83955.68  2877.14  3.43
499.3  85159.03  3036.05  3.57
500.7  86464.30  3221.75  3.73
502.2  87673.00  3428.08  3.91
503.6  88972.40  3663.77  4.12
505.0  90082.85  3927.88  4.36
506.5  91442.48  4234.52  4.63
507.9  92715.55  4583.89  4.94
509.3  94142.80  4982.95  5.29
510.7  95457.38  5411.67  5.67
512.2  96924.60  5901.67  6.09
513.6  98441.00  6433.31  6.54
515.0  99916.40  7007.64  7.01
516.4  101351.25  7612.79  7.51
517.8  103013.63  8265.15  8.02
519.3  104394.28  8907.06  8.53
520.7  106007.25  9577.29  9.03
522.1  107355.95  10215.73  9.52
523.5  108781.40  10843.19  9.97
524.9  110232.90  11448.17  10.39
526.3  111643.00  12008.90  10.76
527.8  113231.25  12556.74  11.09
529.2  114536.30  13060.07  11.40
530.6  116134.65  13556.58  11.67
532.0  117908.00  14031.60  11.90
533.4  119269.95  14419.76  12.09
534.8  120215.25  14729.63  12.25
536.3  121943.70  15116.96  12.40
537.7  123996.60  15527.52  12.52
539.1  125505.48  15878.83  12.65
540.5  126753.95  16203.47  12.78
541.9  128606.55  16600.73  12.91
543.3  129929.38  16939.52  13.04
544.7  131328.00  17286.64  13.16
546.1  133169.03  17680.49  13.28
547.5  134433.60  17980.80  13.38
549.0  136268.00  18334.80  13.45
550.4  137816.88  18621.98  13.51
551.8  139414.15  18874.94  13.54
553.2  141014.45  19085.15  13.53
554.6  142407.20  19223.36  13.50
556.0  143999.55  19329.66  13.42
557.4  145654.78  19390.94  13.31
558.8  147352.95  19405.07  13.17
560.2  148860.50  19328.33  12.98
561.6  150578.70  19217.45  12.76
563.0  152233.18  19034.87  12.50
564.4  153882.30  18801.91  12.22
565.8  155443.75  18513.91  11.91
567.2  157261.75  18222.48  11.59
568.6  158818.50  17871.67  11.25
570.0  160311.83  17508.58  10.92
571.4  162114.55  17180.86  10.60
572.8  163926.88  16867.41  10.29
574.2  165614.40  16568.96  10.00
575.6  167208.75  16291.61  9.74
577.0  168776.80  16043.74  9.51
578.4  170579.50  15851.23  9.29
579.8  172147.95  15670.92  9.10
581.2  173925.95  15545.56  8.94
582.5  175394.70  15416.59  8.79
583.9  176964.60  15323.82  8.66
585.3  178827.30  15279.68  8.54
586.7  180350.95  15232.93  8.45
588.1  181911.38  15209.95  8.36
589.5  183615.25  15218.35  8.29
590.9  185293.20  15247.75  8.23
592.3  187170.70  15302.76  8.18
593.7  188654.70  15329.15  8.13
595.0  190335.83  15362.15  8.07
596.4  191841.30  15353.15  8.00
597.8  193379.25  15319.79  7.92
599.2  194977.20  15252.04  7.82
600.6  196783.60  15157.38  7.70
602.0  198126.15  14985.75  7.56
603.3  199984.45  14805.51  7.40
604.7  201719.93  14580.68  7.23
606.1  203260.20  14315.73  7.04
607.5  204948.15  14042.37  6.85
608.9  206703.60  13773.02  6.66
610.2  208117.35  13484.88  6.48
611.6  209789.63  13228.94  6.31
613.0  211389.05  12995.09  6.15
614.4  212822.85  12772.41  6.00
615.8  214329.38  12593.38  5.88
617.1  215898.90  12453.42  5.77
618.5  217589.60  12347.43  5.67
619.9  219158.70  12276.88  5.60
621.3  220833.68  12247.79  5.55
622.6  222482.25  12248.37  5.51
624.0  223978.65  12280.55  5.48
625.4  225484.88  12332.64  5.47
626.8  227122.35  12417.86  5.47
628.1  228480.45  12505.77  5.47
629.5  230408.08  12641.16  5.49
630.9  232065.35  12760.51  5.50
632.2  233491.13  12858.81  5.51
633.6  235177.63  12947.48  5.51
635.0  236758.00  12999.27  5.49
636.3  238359.40  12993.79  5.45
637.7  239775.00  12920.55  5.39
639.1  241465.00  12795.00  5.30
640.4  242978.23  12588.64  5.18
641.8  244238.15  12306.89  5.04
643.2  245879.03  12006.20  4.88
644.5  247305.75  11653.41  4.71
645.9  249056.55  11296.15  4.54
647.2  250855.33  10951.78  4.37
648.6  252740.25  10639.93  4.21
650.0  254318.40  10318.01  4.06
651.3  254909.60  9978.44  3.91
652.7  256154.65  9666.51  3.77
654.0  258289.10  9381.81  3.63
655.4  259817.20  9113.26  3.51
656.8  260142.00  8808.90  3.39
658.1  261322.40  8566.98  3.28
659.5  263743.73  8359.85  3.17
660.8  265545.00  8193.86  3.09
662.2  266470.40  8055.68  3.02
663.5  268214.35  7976.53  2.97
664.9  269575.80  7930.75  2.94
666.2  270396.00  7925.40  2.93
667.6  272253.38  7992.99  2.94
668.9  273408.45  8081.97  2.96
670.3  274586.00  8193.09  2.98
671.6  276230.63  8351.24  3.02
673.0  277469.63  8541.52  3.08
674.3  278747.30  8771.81  3.15
675.7  280109.68  9031.83  3.22
677.0  281281.28  9331.68  3.32
678.4  282712.90  9688.49  3.43
679.7  283858.20  10108.22  3.56
681.1  285231.08  10621.23  3.72
682.4  286438.10  11255.22  3.93
683.8  287719.90  12070.39  4.20
685.1  288753.38  13103.69  4.54
686.4  290131.80  14448.40  4.98
687.8  291452.75  16164.95  5.55
689.1  292565.25  18329.55  6.27
690.5  294014.25  21053.06  7.16
691.8  294894.48  24376.39  8.27
693.1  296307.30  28378.51  9.58
694.5  297524.50  32926.40  11.07
695.8  298798.50  37946.35  12.70
697.1  300049.75  43345.90  14.45
698.5  301183.60  49046.92  16.28
699.8  302325.78  54955.13  18.18
701.1  303527.55  60971.78  20.09
702.5  304334.80  66890.39  21.98
703.8  305370.00  72723.86  23.81
705.1  306572.18  78415.74  25.58
706.5  307723.38  83835.93  27.24
707.8  308765.25  88988.12  28.82
709.1  309692.40  93796.26  30.29
710.5  310897.95  98394.57  31.65
711.8  311798.60  102606.76  32.91
713.1  312869.00  106598.46  34.07
714.4  313850.20  110300.90  35.14
715.8  314742.20  113729.37  36.13
717.1  316140.75  117112.09  37.04
718.4  317161.60  120129.28  37.88
719.7  318335.90  123013.38  38.64
721.0  318870.00  125472.22  39.35
722.4  319691.35  127863.01  40.00
723.7  320724.00  130192.20  40.59
725.0  321831.45  132402.35  41.14
726.3  322836.80  134441.21  41.64
727.6  323453.08  136194.17  42.11
729.0  324411.68  137982.96  42.53
730.3  325228.13  139617.02  42.93
731.6  326206.65  141215.00  43.29
732.9  327060.30  142683.73  43.63
734.2  327951.25  144076.82  43.93
735.5  329020.65  145493.39  44.22
736.8  329880.30  146736.86  44.48
738.1  330752.10  147943.05  44.73
739.5  331753.53  149120.38  44.95
740.8  332492.88  150129.65  45.15
742.1  333298.08  151121.84  45.34
743.4  334075.00  152072.15  45.52
744.7  335154.78  153092.77  45.68
746.0  336115.65  154012.12  45.82
747.3  336700.28  154720.15  45.95
748.6  337505.25  155484.39  46.07
749.9  338286.00  156206.52  46.18
751.2  339087.05  156902.24  46.27
752.5  340054.60  157665.08  46.36
753.8  340748.10  158262.59  46.45
755.1  341510.00  158873.37  46.52
756.4  342116.73  159383.34  46.59
757.7  343147.00  160073.68  46.65
759.0  345042.33  161118.91  46.70
760.3  346315.20  161865.19  46.74
761.6  348007.80  162800.36  46.78
762.9  348606.00  163206.34  46.82
764.2  349027.50  163526.64  46.85
765.5  349352.18  163785.40  46.88
766.8  349846.40  164119.36  46.91
768.1  350418.60  164482.99  46.94
769.3  351072.05  164881.69  46.97
770.6  351806.65  165302.69  46.99
771.9  352581.95  165747.09  47.01
773.2  353040.40  166037.76  47.03
774.5  353724.80  166419.32  47.05
775.8  354451.10  166841.20  47.07
777.1  355105.30  167209.40  47.09
778.4  355483.43  167460.20  47.11
779.6  356343.30  167913.13  47.12
780.9  356880.00  168233.15  47.14
782.2  357373.50  168541.77  47.16
783.5  357734.50  168780.03  47.18
784.8  358340.63  169120.04  47.20
786.0  358816.85  169374.12  47.20
787.3  359255.65  169645.76  47.22
788.6  359749.80  169926.41  47.23
789.9  360253.60  170239.56  47.26
791.2  360963.58  170629.71  47.27
792.4  361735.75  171033.79  47.28
793.7  362256.40  171352.50  47.30
795.0  362976.08  171730.49  47.31
796.2  363709.08  172121.44  47.32
797.5  364508.33  172539.60  47.33
798.8  365248.03  172923.55  47.34
800.0  365989.83  173327.50  47.36
801.3  366523.30  173632.75  47.37
802.6  367226.78  174007.16  47.38
803.8  367920.98  174385.80  47.40
805.1  368461.63  174675.68  47.41
806.4  368960.40  174966.09  47.42
807.7  369552.38  175286.61  47.43
808.9  370219.75  175616.65  47.44
810.2  370820.80  175942.13  47.45
811.4  371406.20  176238.36  47.45
812.7  372084.38  176599.20  47.46
814.0  372942.45  177070.80  47.48
815.2  373620.75  177425.57  47.49
816.5  374091.48  177666.13  47.49
817.7  374637.55  177952.38  47.50
819.0  375234.20  178243.08  47.50
820.2  375452.00  178376.00  47.51
821.5  376220.90  178767.12  47.52
822.7  376597.45  179000.54  47.53
824.0  376976.70  179177.87  47.53
825.2  377536.95  179453.48  47.53
826.5  377869.08  179631.50  47.54
827.7  378485.03  179919.49  47.54
829.0  378934.33  180147.46  47.54
830.2  379232.05  180332.85  47.55
831.5  379735.80  180572.96  47.55
832.7  380104.20  180741.56  47.55
834.0  380489.10  180914.84  47.55
835.2  380911.30  181124.21  47.55
836.4  381239.10  181287.88  47.55
837.7  381676.40  181512.71  47.56
838.9  382165.43  181774.25  47.56
840.1  382538.70  181967.60  47.57
841.4  382993.90  182213.31  47.58
842.6  383387.40  182413.50  47.58
843.8  383830.00  182622.72  47.58
845.1  384409.95  182892.96  47.58
846.3  384760.20  183102.38  47.59
847.5  385253.40  183335.10  47.59
848.8  385693.80  183568.96  47.59
850.0  386111.95  183756.03  47.59
851.2  386664.30  184006.82  47.59
852.5  387086.00  184232.36  47.59
853.7  387585.00  184487.85  47.60
854.9  388073.10  184734.39  47.60
856.1  388577.80  184961.81  47.60
857.4  388840.73  185049.86  47.59
858.6  389382.80  185302.04  47.59
859.8  389818.13  185506.77  47.59
861.0  390241.80  185713.10  47.59
862.2  390770.35  185962.66  47.59
863.5  391158.95  186139.62  47.59
864.7  391749.60  186389.09  47.58
865.9  392249.60  186603.77  47.57
867.1  392624.25  186754.19  47.57
868.3  393037.35  186951.78  47.57
869.5  393531.30  187209.98  47.57
870.8  394128.00  187470.90  47.57
872.0  394744.13  187725.22  47.56
873.2  395204.55  187941.82  47.56
874.4  395664.75  188159.07  47.56
875.6  396162.65  188319.15  47.54
876.8  396717.35  188557.40  47.53
878.0  397227.25  188788.80  47.53
879.2  397711.80  189041.81  47.53
880.4  398389.50  189286.38  47.51
881.6  398940.28  189515.66  47.50
882.8  399409.60  189696.94  47.49
884.0  400063.08  190027.18  47.50
885.2  400613.60  190251.37  47.49
886.5  401335.45  190514.71  47.47
887.7  401871.60  190765.55  47.47
888.8  402614.03  191082.91  47.46
890.0  403174.45  191334.52  47.46
891.2  403847.00  191613.83  47.45
892.4  404521.43  191915.21  47.44
893.6  405248.10  192190.72  47.43
894.8  406249.00  192628.95  47.42
896.0  407123.50  193063.94  47.42
897.2  408037.50  193442.88  47.41
898.4  408893.10  193805.89  47.40
899.6  409475.25  194074.12  47.40
900.8  409997.83  194250.08  47.38
902.0  410260.20  194386.21  47.38
903.2  410658.60  194545.02  47.37
904.3  411003.30  194678.82  47.37
905.5  411779.10  195009.05  47.36
906.7  412459.00  195268.65  47.34
907.9  413158.20  195514.83  47.32
909.1  413500.28  195671.53  47.32
910.2  413776.95  195746.38  47.31
911.4  413981.10  195906.06  47.32
912.6  414363.95  195966.39  47.29
913.8  414652.13  196121.39  47.30
915.0  415208.85  196296.45  47.28
916.2  415486.50  196375.59  47.26
917.3  415488.15  196412.58  47.27
918.5  415799.60  196514.19  47.26
919.7  416224.20  196640.94  47.24
920.8  416368.25  196603.35  47.22
922.0  416512.25  196611.80  47.20
923.2  416871.00  196712.10  47.19
924.4  417200.63  196824.60  47.18
925.5  417532.80  196945.13  47.17
926.7  418155.38  197173.11  47.15
927.9  419050.80  197527.73  47.14
929.0  420701.85  198164.81  47.10
930.2  422981.80  199152.68  47.08
931.4  425659.05  200282.59  47.05
932.5  428633.90  201515.64  47.01
933.7  430177.50  202169.77  47.00
934.9  430911.25  202408.50  46.97
936.0  430499.88  202126.97  46.95
937.2  428515.50  201059.57  46.92
938.3  426901.10  200135.86  46.88
939.5  425199.60  199259.59  46.86
940.7  425452.50  199315.60  46.85
941.8  427159.88  199949.42  46.81
943.0  428586.75  200509.05  46.78
944.2  429592.80  200805.41  46.74
945.3  429409.50  200488.14  46.69
946.5  428967.90  199975.93  46.62
947.6  429075.00  199891.74  46.59
948.8  428795.25  199679.45  46.57
949.9  429147.60  199498.08  46.49
951.1  428722.45  199109.87  46.44
952.2  428808.00  198783.43  46.36
953.4  428593.00  198314.57  46.27
954.5  428571.00  198126.47  46.23
955.7  428614.20  197816.76  46.15
956.8  428609.30  197498.34  46.08
958.0  428159.50  197014.76  46.01
959.1  427974.60  196670.97  45.95
960.3  427753.50  196398.65  45.91
961.4  427819.20  196157.52  45.85
962.6  427953.75  196149.75  45.83
963.7  427846.80  196000.66  45.81
964.9  427746.60  195942.95  45.81
966.0  427939.20  195857.13  45.77
967.2  427923.00  195840.81  45.77
968.3  427647.60  195612.34  45.74
969.5  427470.18  195574.70  45.75
970.6  427601.73  195598.82  45.74
971.8  427878.33  195635.74  45.72
972.9  427748.25  195595.58  45.73
974.0  427906.70  195726.23  45.74
975.2  428111.88  195640.06  45.70
976.3  428078.85  195703.43  45.72
977.5  428472.28  195808.21  45.70
978.6  428107.00  195923.26  45.77
979.7  428547.53  195943.85  45.72
980.9  428829.68  195585.50  45.61
982.0  428595.35  195682.47  45.66
983.2  428666.08  195830.26  45.68
984.3  428514.40  195814.61  45.70
985.4  428145.50  196070.80  45.80
986.6  428045.13  196081.34  45.81
987.7  429164.05  196524.71  45.79
988.9  429496.20  196577.49  45.77
990.0  430798.40  196874.04  45.70
993.1  374021.49  170318.75  45.54
996.9  374770.95  171135.37  45.66
1000.7  375953.78  172116.22  45.78
1004.5  376595.00  172867.91  45.90
1008.4  376490.08  173263.72  46.02
1012.2  376581.88  173742.70  46.14
1016.0  376767.60  174181.13  46.23
1019.8  377043.98  174646.59  46.32
1023.7  377140.17  174967.10  46.39
1027.5  376918.53  175129.46  46.46
1031.3  377231.75  175496.37  46.52
1035.1  377074.31  175657.24  46.58
1038.9  377129.13  175834.05  46.62
1042.7  377005.83  175953.04  46.67
1046.5  376896.83  176019.07  46.70
1050.3  376965.70  176163.84  46.73
1054.2  376688.67  176158.02  46.76
1058.0  376218.44  176001.04  46.78
1061.8  376095.50  176026.10  46.80
1065.6  375837.13  175926.69  46.81
1069.4  375900.27  175974.37  46.81
1073.2  375563.48  175808.95  46.81
1077.0  375102.33  175542.60  46.80
1080.8  374643.75  175242.14  46.78
1084.6  373598.87  174660.25  46.75
1088.4  372898.54  174299.74  46.74
1092.2  372060.00  173813.25  46.72
1096.0  371431.27  173396.78  46.68
1099.8  370941.78  173008.58  46.64
1103.6  370268.27  172517.30  46.59
1107.4  369352.38  171872.33  46.53
1111.2  369130.20  171525.66  46.47
1114.9  368480.00  170953.36  46.39
1118.7  367864.20  170307.93  46.30
1122.5  367186.73  169529.95  46.17
1126.3  366045.58  168438.78  46.02
1130.1  365524.58  167392.29  45.80
1133.9  363920.90  165550.95  45.49
1137.7  362498.50  163521.15  45.11
1141.4  360703.42  161068.28  44.65
1145.2  359988.02  158935.47  44.15
1149.0  358884.17  156729.97  43.67
1152.8  357251.60  154575.57  43.27
1156.6  355582.15  152832.99  42.98
1160.3  353806.67  151472.68  42.81
1164.1  351383.33  150115.12  42.72
1167.9  349576.04  149228.47  42.69
1171.7  348279.75  148672.13  42.69
1175.4  347071.10  148185.15  42.70
1179.2  346034.10  147730.88  42.69
1183.0  345746.33  147552.09  42.68
1186.7  345251.67  147255.76  42.65
1190.5  344207.07  146768.91  42.64
1194.3  342966.33  146270.99  42.65
1198.0  341735.90  145805.56  42.67
1201.8  340262.65  145269.09  42.69
1205.6  339020.00  144896.54  42.74
1209.3  338043.90  144693.54  42.80
1213.1  337046.25  144527.35  42.88
1216.8  336034.60  144441.66  42.98
1220.6  334898.67  144293.11  43.09
1224.3  333624.33  144065.88  43.18
1228.1  332341.40  143865.32  43.29
1231.9  331092.08  143608.86  43.37
1235.6  329606.93  143217.91  43.45
1239.4  328247.00  142865.73  43.52
1243.1  327003.83  142496.01  43.58
1246.9  325776.37  142120.66  43.63
1250.6  324808.53  141788.62  43.65
1254.3  323739.81  141390.54  43.67
1258.1  322737.33  140994.99  43.69
1261.8  321439.07  140448.64  43.69
1265.6  320022.40  139785.60  43.68
1269.3  318579.28  139079.18  43.66
1273.1  318531.23  138938.20  43.62
1276.8  318783.20  138887.70  43.57
1280.6  318626.27  138624.50  43.51
1284.3  317274.40  137774.06  43.42
1288.0  315802.97  136836.82  43.33
1291.8  314487.39  135891.32  43.21
1295.5  313067.33  134852.39  43.07
1299.2  311755.61  133792.87  42.92
1302.9  310293.67  132571.24  42.72
1306.7  308719.60  131208.94  42.50
1310.4  307211.35  129730.10  42.23
1314.1  305824.57  128204.77  41.92
1317.9  304577.29  126605.39  41.57
1321.6  303149.71  124804.61  41.17
1325.3  301485.45  122752.65  40.72
1329.0  300118.82  120739.79  40.23
1332.8  298020.80  118301.70  39.70
1336.5  296188.60  115935.43  39.14
1340.2  295810.67  114124.11  38.58
1343.9  295330.63  112248.73  38.01
1347.6  294646.95  110307.85  37.44
1351.4  294825.50  108713.31  36.87
1355.1  295167.77  107200.95  36.32
1358.8  295296.00  105564.57  35.75
1362.5  294789.38  103614.74  35.15
1366.2  293041.75  100985.95  34.46
1369.9  291147.50  98009.23  33.66
1373.6  289118.61  94498.83  32.69
1377.3  287249.40  90385.07  31.47
1381.0  286036.83  85662.93  29.95
1384.8  284001.25  79832.77  28.11
1388.4  281578.38  73479.57  26.10
1392.2  279673.08  66960.66  23.94
1395.9  278081.83  60506.97  21.76
1399.6  276428.50  54484.44  19.71
1403.3  275219.29  49262.05  17.90
1407.0  274074.90  44892.28  16.38
1410.7  272901.75  41429.03  15.18
1414.3  271685.58  38810.77  14.29
1418.1  270494.29  36956.32  13.66
1421.7  269583.77  35710.29  13.25
1425.4  268641.43  34917.56  13.00
1429.1  267771.00  34490.89  12.88
1432.8  266256.00  34251.99  12.86
1436.5  265450.93  34291.88  12.92
1440.2  264586.63  34464.23  13.03
1443.9  263280.88  34647.12  13.16
1447.6  261646.00  34842.50  13.32
1451.2  260554.98  35105.58  13.47
1454.9  259261.95  35368.76  13.64
1458.6  258173.14  35725.21  13.84
1462.3  256994.83  36189.53  14.08
1466.0  255618.28  36783.83  14.39
1469.7  253926.08  37494.29  14.77
1473.3  252908.33  38436.70  15.20
1477.0  250989.03  39353.52  15.68
1480.7  249399.52  40365.15  16.18
1484.4  247483.10  41325.81  16.70
1488.0  245930.67  42364.32  17.23
1491.7  244308.28  43369.21  17.75
1495.4  242556.39  44354.05  18.29
1499.0  240961.00  45315.95  18.81
1502.7  239633.83  46320.75  19.33
1506.4  238204.75  47271.40  19.84
1510.0  236777.03  48188.20  20.35
1513.7  235298.00  49038.11  20.84
1517.4  233963.00  49872.84  21.32
1521.0  232717.87  50693.88  21.78
1524.7  231501.83  51438.37  22.22
1528.3  230209.25  52141.10  22.65
1532.0  228986.45  52797.68  23.06
1535.7  227581.53  53358.05  23.45
1539.3  226320.96  53918.30  23.82
1543.0  225324.04  54506.09  24.19
1546.6  224629.17  55136.25  24.55
1550.3  223647.90  55645.36  24.88
1553.9  222568.67  56094.24  25.20
1557.6  221303.13  56465.83  25.52
1561.2  220033.35  56784.81  25.81
1564.9  218698.36  57068.29  26.09
1568.5  217371.35  57315.36  26.37
1572.2  216229.50  57587.94  26.63
1575.8  215124.00  57863.00  26.90
1579.5  214121.00  58129.11  27.15
1583.1  213131.30  58375.60  27.39
1586.8  211890.00  58540.34  27.63
1590.4  210836.80  58733.51  27.86
1594.0  209511.58  58833.92  28.08
1597.7  208353.78  58977.88  28.31
1601.3  207040.05  59057.44  28.52
1604.9  205738.33  59110.52  28.73
1608.6  204380.40  59106.56  28.92
1612.2  203306.40  59160.46  29.10
1615.8  202148.38  59166.16  29.27
1619.5  201026.25  59151.80  29.42
1623.1  199737.30  59056.39  29.57
1626.7  198486.93  58949.88  29.70
1630.3  197254.83  58823.77  29.82
1634.0  196140.00  58696.00  29.93
1637.6  195132.80  58560.88  30.01
1641.2  194100.75  58368.72  30.07
1644.8  192875.03  58059.49  30.10
1648.5  191787.58  57738.26  30.11
1652.1  190815.30  57382.64  30.07
1655.7  189854.00  56986.29  30.02
1659.3  188971.28  56597.94  29.95
1662.9  187524.17  56038.95  29.88
1666.6  186059.80  55486.64  29.82
1670.2  184628.09  54955.03  29.77
1673.8  183164.91  54408.93  29.70
1677.4  182003.70  53945.65  29.64
1681.0  181187.48  53547.00  29.55
1684.6  180801.83  53218.91  29.43
1688.2  180129.50  52749.52  29.28
1691.8  179457.75  52305.99  29.15
1695.4  179019.40  51890.52  28.99
1699.0  178656.80  51479.26  28.81
1702.6  178335.33  51044.41  28.62
1706.2  177726.79  50504.30  28.42
1709.8  176794.88  49868.80  28.21
1713.4  176059.63  49281.56  27.99
1717.0  175200.50  48659.55  27.77
1720.6  174404.10  48075.74  27.57
1724.2  173697.15  47534.00  27.37
1727.8  172984.70  47033.40  27.19
1731.4  172500.63  46623.90  27.03
1735.0  172283.10  46310.12  26.88
1738.6  172004.85  45950.88  26.71
1742.2  171367.08  45443.85  26.52
1745.8  170681.98  44898.06  26.31
1749.4  169666.20  44232.61  26.07
1753.0  168148.33  43424.18  25.82
1756.6  166455.33  42593.23  25.59
1760.1  165086.21  41869.18  25.36
1763.7  163376.67  41083.48  25.15
1767.3  161947.60  40417.17  24.96
1770.9  160707.34  39822.33  24.78
1774.5  159253.45  39201.26  24.62
1778.0  158084.48  38681.97  24.47
1781.6  156984.30  38192.07  24.33
1785.2  155824.28  37717.76  24.21
1788.8  154654.20  37290.89  24.11
1792.3  153430.13  36875.19  24.03
1795.9  152933.73  36656.61  23.97
1799.5  152421.00  36454.84  23.92
1803.1  151768.52  36236.22  23.88
1806.6  152195.40  36271.98  23.83
1810.2  153250.30  36475.63  23.80
1813.8  154144.80  36627.91  23.76
1817.3  154140.20  36568.92  23.72
1820.9  153346.95  36309.44  23.68
1824.5  152166.85  35932.59  23.61
1828.0  151312.33  35600.78  23.53
1831.6  150561.75  35261.64  23.42
1835.2  149869.17  34876.31  23.27
1838.7  149504.40  34487.60  23.07
1842.3  149145.00  34029.65  22.82
1845.8  148375.04  33355.86  22.48
1849.4  147863.63  32603.62  22.05
1852.9  147238.82  31647.53  21.49
1856.5  146355.45  30431.72  20.79
1860.0  145587.12  28982.73  19.91
1863.6  145315.03  27417.55  18.87
1867.1  145174.75  25611.89  17.64
1870.7  145148.13  23479.63  16.18
1874.2  144408.15  20945.15  14.50
1877.8  143172.07  18298.27  12.78
1881.3  141699.00  15650.77  11.05
1884.9  140729.97  13281.74  9.44
1888.4  139717.45  11131.27  7.97
1891.9  138676.93  9375.15  6.76
1895.5  137574.42  8030.98  5.84
1899.0  136986.63  7121.36  5.20
1901.3  168067.67  5519.25  3.28
1904.1  167990.25  4966.50  2.96
1906.8  167254.20  4582.50  2.74
1909.6  165550.70  4286.63  2.59
1912.4  163960.77  4066.71  2.48
1915.1  162800.00  3937.73  2.42
1917.9  161477.00  3832.59  2.37
1920.6  160410.43  3782.35  2.36
1923.3  159371.33  3760.63  2.36
1926.1  158063.93  3759.35  2.38
1928.8  156874.67  3762.00  2.40
1931.6  155921.08  3778.86  2.42
1934.3  155021.00  3843.07  2.48
1937.0  154152.23  3908.55  2.54
1939.8  153201.17  3984.67  2.60
1942.5  151976.00  4048.00  2.66
1945.2  150344.15  4127.75  2.75
1947.9  148995.00  4224.03  2.84
1950.7  147945.47  4336.40  2.93
1953.4  146248.70  4431.20  3.03
1956.1  144922.50  4543.54  3.14
1958.8  143746.85  4681.63  3.26
1961.5  142296.40  4807.00  3.38
1964.2  140804.30  4945.85  3.51
1966.9  139252.35  5077.05  3.65
1969.6  138024.00  5238.00  3.79
1972.3  136641.70  5402.30  3.95
1975.0  135617.40  5579.93  4.11
1977.7  134515.88  5757.29  4.28
1980.4  133384.83  5943.80  4.46
1983.1  132284.13  6140.90  4.64
1985.8  131370.00  6342.30  4.83
1988.4  130346.67  6534.67  5.01
1991.1  129430.93  6738.32  5.21
1993.8  128560.67  6949.35  5.41
1996.5  127923.03  7169.07  5.60
1999.1  127242.32  7388.79  5.81
2001.8  126547.40  7597.34  6.00
2004.5  125866.15  7810.95  6.21
2007.1  125130.90  8005.58  6.40
2009.8  124389.07  8201.67  6.59
2012.4  123804.27  8392.64  6.78
2015.1  123240.83  8585.85  6.97
2017.8  122463.83  8749.88  7.14
2020.4  121943.07  8926.87  7.32
2023.1  121574.60  9099.54  7.48
2025.7  121342.00  9277.67  7.65
2028.3  121021.33  9416.33  7.78
2031.0  120620.18  9551.67  7.92
2033.6  120338.40  9683.10  8.05
2036.2  120094.80  9813.60  8.17
2038.9  119494.50  9900.60  8.29
2041.5  119148.12  10006.73  8.40
2044.1  118572.30  10083.30  8.50
2046.8  118206.90  10174.65  8.61
2049.4  117589.20  10231.20  8.70
2052.0  117314.87  10322.80  8.80
2054.6  116926.25  10403.75  8.90
2057.2  116362.93  10453.80  8.98
2059.8  116022.33  10536.77  9.08
2062.4  115138.45  10564.60  9.18
2065.0  114607.53  10632.84  9.28
2067.6  113708.92  10651.77  9.37
2070.2  113098.75  10695.35  9.46
2072.8  112462.43  10743.29  9.55
2075.4  112026.25  10815.00  9.65
2078.0  111416.58  10847.42  9.74
2080.6  110844.80  10894.40  9.83
2083.2  110161.93  10918.89  9.91
2085.8  109659.92  10970.39  10.00
2088.4  108994.50  10993.08  10.09
2090.9  108189.32  10998.80  10.17
2093.5  107295.23  10997.78  10.25
2096.1  106533.05  11009.91  10.33
2098.7  105768.90  11018.69  10.42
2101.2  104808.73  10999.64  10.49
2103.8  104118.80  11008.37  10.57
2106.4  103455.07  11021.47  10.65
2108.9  102817.53  11034.57  10.73
2111.5  101961.67  11021.47  10.81
2114.0  101315.40  11030.20  10.89
2116.6  100791.25  11038.13  10.95
2119.1  100238.07  11050.38  11.02
2121.7  99750.00  11068.75  11.10
2124.2  99352.63  11081.07  11.15
2126.8  98566.57  11053.83  11.21
2129.3  98172.80  11066.00  11.27
2131.9  97574.40  11052.80  11.33
2134.4  97146.45  11058.08  11.38
2136.9  96748.38  11059.75  11.43
2139.4  96229.93  11052.30  11.49
2142.0  95777.73  11052.30  11.54
2144.5  95505.90  11076.05  11.60
2147.0  95274.00  11108.60  11.66
2149.5  94782.67  11095.20  11.71
2152.1  94612.47  11125.86  11.76
2154.6  94538.13  11170.14  11.82
2157.1  94012.50  11163.42  11.87
2159.6  93585.58  11154.33  11.92
2162.1  93411.50  11170.25  11.96
2164.6  93169.13  11188.33  12.01
2167.1  92852.68  11194.48  12.06
2169.6  92526.12  11198.25  12.10
2172.1  92065.57  11186.18  12.15
2174.6  91749.27  11184.87  12.19
2177.1  91310.87  11181.78  12.25
2179.5  90874.77  11175.35  12.30
2182.0  90405.15  11159.23  12.34
2184.5  89864.18  11128.63  12.38
2187.0  89258.20  11098.32  12.43
2189.5  88574.33  11067.05  12.49
2191.9  87799.00  11015.25  12.55
2194.4  87172.40  10968.18  12.58
2196.9  86438.40  10929.60  12.64
2199.3  85772.33  10894.33  12.70
2201.8  84874.67  10808.87  12.74
2204.3  84413.52  10783.61  12.77
2206.7  83784.10  10741.43  12.82
2209.2  83316.50  10698.71  12.84
2211.6  82694.70  10642.50  12.87
2214.1  82386.00  10616.65  12.89
2216.5  81820.87  10554.17  12.90
2219.0  81473.20  10504.50  12.89
2221.4  81088.58  10442.25  12.88
2223.9  80612.58  10362.92  12.86
2226.3  80116.75  10273.67  12.82
2228.7  79570.72  10160.07  12.77
2231.1  78972.30  10028.70  12.70
2233.6  78383.93  9893.60  12.62
2236.0  77826.00  9748.08  12.53
2238.4  77330.17  9594.38  12.41
2240.9  76903.87  9436.67  12.27
2243.3  76367.47  9272.77  12.14
2245.7  75789.15  9094.30  12.00
2248.1  75308.13  8915.18  11.84
2250.5  74815.10  8740.41  11.68
2252.9  74181.90  8541.44  11.51
2255.3  73610.10  8377.90  11.38
2257.7  73150.00  8205.00  11.22
2260.1  72681.47  8046.74  11.07
2262.5  72090.00  7875.00  10.92
2264.9  71550.55  7722.11  10.79
2267.3  70930.00  7560.00  10.66
2269.7  70434.00  7419.65  10.53
2272.1  69896.30  7287.13  10.43
2274.5  69324.27  7153.06  10.32
2276.8  68854.57  7036.71  10.22
2279.2  68259.60  6924.45  10.14
2281.6  67849.33  6825.20  10.06
2284.0  67387.20  6706.40  9.95
2286.3  66920.53  6612.00  9.88
2288.7  66507.35  6507.15  9.78
2291.1  65964.07  6375.37  9.66
2293.4  65521.87  6272.93  9.57
2295.8  64890.00  6143.95  9.47
2298.2  64294.20  6018.53  9.36
2300.5  63642.15  5883.98  9.25
2302.9  62888.67  5766.00  9.17
2305.2  62170.80  5634.10  9.06
2307.6  61497.65  5529.73  8.99
2309.9  60729.00  5425.00  8.93
2312.2  60140.00  5332.00  8.87
2314.6  59533.20  5242.28  8.81
2316.9  58819.05  5149.13  8.75
2319.2  58250.30  5069.30  8.70
2321.6  57627.50  4968.43  8.62
2323.9  57052.08  4869.79  8.54
2326.2  56506.93  4778.47  8.46
2328.6  55980.65  4697.28  8.39
2330.9  55482.00  4620.00  8.33
2333.2  55022.75  4529.67  8.23
2335.5  54570.00  4440.50  8.14
2337.8  54121.55  4345.69  8.03
2340.1  53539.25  4248.64  7.94
2342.4  53105.00  4187.09  7.88
2344.8  52672.92  4110.13  7.80
2347.1  52102.63  4019.28  7.71
2349.4  51569.02  3938.46  7.64
2351.6  50996.15  3861.35  7.57
2353.9  50488.53  3795.47  7.52
2356.2  49958.30  3729.64  7.47
2358.5  49358.40  3645.60  7.39
2360.8  48787.20  3572.80  7.32
2363.1  48332.62  3510.82  7.26
2365.4  47866.80  3435.20  7.18
2367.7  47401.20  3363.00  7.09
2369.9  46864.85  3303.33  7.05
2372.2  46233.60  3227.87  6.98
2374.5  45634.05  3135.83  6.87
2376.7  45014.58  3066.80  6.81
2379.0  44392.80  2978.14  6.71
2381.3  43773.33  2905.00  6.64
2383.5  43249.07  2839.47  6.57
2385.8  42618.87  2759.28  6.47
2388.0  42114.20  2690.40  6.39
2390.3  41616.40  2622.53  6.30
2392.5  41124.00  2550.00  6.20
2394.8  40656.00  2498.65  6.15
2397.0  40173.47  2432.74  6.06
2399.3  39705.48  2369.66  5.97
2401.5  39249.00  2303.00  5.87
2403.8  38723.60  2229.32  5.76
2406.0  38218.50  2172.92  5.69
2408.2  37811.40  2100.64  5.56
2410.4  37375.10  2047.27  5.48
2412.7  36946.00  1998.10  5.41
2414.9  36583.80  1948.10  5.33
2417.1  36169.60  1885.95  5.21
2419.3  35763.20  1824.00  5.10
2421.6  35365.83  1782.50  5.04
2423.8  35010.00  1731.05  4.94
2426.0  34639.53  1681.34  4.85
2428.2  34286.93  1639.87  4.78
2430.4  33969.97  1601.24  4.71
2432.6  33693.33  1553.34  4.61
2434.8  33363.20  1523.80  4.57
2437.0  33005.70  1464.23  4.44
2439.2  32656.27  1426.01  4.37
2441.4  32338.27  1383.79  4.28
2443.6  32068.48  1333.31  4.16
2445.7  31792.83  1305.04  4.10
2447.9  31507.33  1273.38  4.04
2450.1  31219.10  1229.38  3.94
2452.3  30830.80  1206.98  3.91
2454.5  30479.98  1170.13  3.84
2456.6  30102.67  1134.20  3.77
2458.8  29729.70  1093.95  3.68
2461.0  29438.83  1088.46  3.70
2463.1  29129.10  1054.88  3.62
2465.3  28856.93  1009.70  3.50
2467.5  28585.50  980.88  3.43
2469.6  28326.75  962.13  3.40
2471.8  28036.12  931.04  3.32
2473.9  27738.25  912.54  3.29
2476.1  27360.67  887.25  3.24
2478.2  26993.47  868.30  3.22
2480.4  26693.65  859.60  3.22
2482.5  26368.12  828.36  3.14
2484.6  26024.17  802.55  3.08
2486.8  25732.30  792.85  3.08
2488.9  25426.95  789.17  3.10
2491.1  25069.33  777.47  3.10
2493.2  24668.50  750.44  3.04
2495.3  24242.40  713.48  2.94
2497.4  23892.40  700.35  2.93
2499.5  23595.30  695.89  2.95
2501.7  23450.37  681.98  2.91
2503.8  23353.18  660.31  2.83
2505.9  23284.58  666.25  2.86
2508.0  23262.13  656.88  2.82
2510.1  23266.22  670.63  2.88
2512.2  23359.55  669.78  2.87
2514.3  23482.38  673.91  2.87
2516.4  23679.40  679.65  2.87
