/*** Spectra Vista SIG Data ***/
name= 47_20220825_ACRU_21_avg.sig
comm= Averaged Ref/Tar of files: HR.082522.0059_moc.sig,HR.082522.0060_moc.sig,HR.082522.0061_moc.sig
data=
337.3  3275.25  277.90  8.48
338.8  3367.00  275.77  8.19
340.3  3560.60  274.85  7.72
341.8  3749.45  280.45  7.48
343.2  3907.20  284.16  7.27
344.7  4051.75  278.65  6.88
346.2  4289.25  272.33  6.35
347.7  4443.73  272.65  6.14
349.2  4649.40  277.20  5.96
350.6  4884.43  279.11  5.71
352.1  5144.40  285.80  5.56
353.6  5447.90  296.11  5.44
355.1  5691.08  300.83  5.29
356.6  5997.83  301.53  5.03
358.0  6284.30  301.99  4.81
359.5  6550.80  317.24  4.84
361.0  6852.83  327.18  4.77
362.5  7230.93  339.59  4.70
364.0  7598.88  359.39  4.73
365.4  7980.40  355.93  4.46
366.9  8315.13  368.33  4.43
368.4  8700.73  378.21  4.35
369.9  9053.38  392.76  4.34
371.3  9478.50  416.52  4.39
372.8  9903.15  435.42  4.40
374.3  10346.88  440.75  4.26
375.8  10753.05  449.17  4.18
377.2  11190.40  462.68  4.13
378.7  11593.90  473.44  4.08
380.2  12024.30  480.61  4.00
381.7  12539.60  500.86  3.99
383.1  13016.85  513.85  3.95
384.6  13568.43  517.92  3.82
386.1  14025.98  536.90  3.83
387.6  14499.10  556.97  3.84
389.0  15008.00  568.16  3.79
390.5  15531.75  577.02  3.72
392.0  16108.05  599.53  3.72
393.4  16710.90  606.08  3.63
394.9  17252.10  629.88  3.65
396.4  17802.00  648.60  3.64
397.9  18373.13  659.42  3.59
399.3  18943.10  682.09  3.60
400.8  19541.20  701.22  3.59
402.2  20180.10  716.86  3.55
403.7  20800.80  741.51  3.56
405.2  21402.20  763.91  3.57
406.6  21993.60  782.61  3.56
408.1  22622.60  801.55  3.54
409.6  23245.05  819.47  3.53
411.0  23912.00  839.77  3.51
412.5  24594.33  869.10  3.53
414.0  25265.00  888.35  3.52
415.4  25976.63  914.25  3.52
416.9  26657.33  948.33  3.56
418.4  27377.55  968.61  3.54
419.8  28119.00  999.79  3.56
421.3  28858.68  1021.97  3.54
422.7  29632.20  1053.28  3.55
424.2  30425.63  1084.50  3.56
425.7  31198.20  1112.75  3.57
427.1  31982.33  1145.73  3.58
428.6  32813.50  1180.07  3.60
430.0  33567.10  1207.93  3.60
431.5  34446.90  1239.77  3.60
432.9  35335.80  1269.67  3.59
434.4  36256.58  1300.71  3.59
435.9  37114.00  1336.53  3.60
437.3  37963.75  1373.17  3.62
438.8  38824.50  1406.37  3.62
440.2  39724.30  1440.93  3.63
441.7  40709.20  1475.79  3.63
443.1  41618.25  1510.50  3.63
444.6  42601.20  1552.79  3.64
446.0  43570.05  1591.60  3.65
447.5  44552.48  1635.44  3.67
448.9  45524.10  1675.28  3.68
450.4  46542.30  1716.31  3.69
451.8  47437.00  1754.13  3.70
453.3  48377.50  1788.66  3.70
454.7  49406.25  1833.96  3.71
456.2  50281.45  1872.66  3.72
457.6  51281.33  1915.14  3.73
459.1  52287.30  1954.33  3.74
460.5  53245.88  1986.63  3.73
462.0  54329.93  2026.95  3.73
463.4  55402.80  2069.61  3.74
464.8  56401.88  2109.00  3.74
466.3  57390.30  2150.50  3.75
467.7  58397.18  2193.82  3.76
469.2  59480.95  2229.48  3.75
470.6  60471.20  2266.73  3.75
472.0  61549.98  2304.55  3.74
473.5  62573.75  2348.52  3.75
474.9  63626.25  2395.90  3.77
476.4  64800.00  2444.16  3.77
477.8  65873.50  2488.20  3.78
479.2  66917.50  2526.87  3.78
480.7  68032.50  2574.62  3.78
482.1  69201.05  2624.12  3.79
483.6  70414.85  2679.99  3.81
485.0  71520.98  2727.09  3.81
486.4  72735.45  2781.96  3.82
487.9  73856.25  2833.35  3.84
489.3  75038.60  2899.84  3.86
490.7  76128.25  2952.85  3.88
492.2  77366.10  3020.36  3.90
493.6  78494.70  3086.27  3.93
495.0  79618.50  3157.05  3.97
496.5  80829.90  3236.33  4.00
497.9  81959.88  3320.46  4.05
499.3  83148.55  3418.30  4.11
500.7  84427.95  3529.67  4.18
502.2  85599.80  3642.21  4.25
503.6  86884.60  3776.53  4.35
505.0  87987.90  3922.29  4.46
506.5  89329.65  4099.57  4.59
507.9  90521.45  4295.30  4.75
509.3  91893.20  4522.88  4.92
510.7  93146.63  4775.55  5.13
512.2  94565.18  5068.18  5.36
513.6  96073.25  5405.17  5.63
515.0  97526.60  5779.14  5.93
516.4  98941.50  6197.31  6.26
517.8  100584.13  6667.00  6.63
519.3  101945.23  7157.61  7.02
520.7  103534.45  7690.03  7.43
522.1  104840.45  8226.62  7.85
523.5  106209.90  8784.80  8.27
524.9  107638.20  9350.22  8.69
526.3  109060.00  9895.76  9.07
527.8  110602.80  10448.46  9.45
529.2  111809.60  10954.48  9.80
530.6  113374.70  11467.52  10.11
532.0  115122.00  11959.73  10.39
533.4  116446.35  12380.40  10.63
534.8  117345.43  12720.69  10.84
536.3  119041.20  13111.56  11.01
537.7  121073.40  13508.88  11.16
539.1  122572.13  13823.72  11.28
540.5  123801.70  14098.50  11.39
541.9  125615.70  14428.30  11.49
543.3  126908.30  14706.42  11.59
544.7  128284.20  14985.68  11.68
546.1  130102.23  15323.48  11.78
547.5  131353.60  15587.41  11.87
549.0  133100.00  15897.20  11.94
550.4  134618.75  16158.50  12.00
551.8  136204.03  16397.95  12.04
553.2  137756.73  16597.99  12.05
554.6  139131.20  16730.13  12.02
556.0  140687.55  16834.62  11.97
557.4  142330.13  16898.58  11.87
558.8  143999.55  16916.04  11.75
560.2  145478.25  16868.37  11.60
561.6  147180.15  16799.54  11.41
563.0  148807.85  16681.79  11.21
564.4  150432.45  16522.71  10.98
565.8  151990.63  16325.67  10.74
567.2  153778.75  16120.70  10.48
568.6  155305.88  15858.65  10.21
570.0  156755.93  15556.70  9.92
571.4  158512.25  15272.57  9.63
572.8  160322.38  14999.47  9.36
574.2  161974.40  14730.24  9.09
575.6  163563.75  14470.50  8.85
577.0  165115.60  14245.53  8.63
578.4  166871.25  14059.50  8.43
579.8  168407.10  13880.16  8.24
581.2  170152.50  13741.84  8.08
582.5  171615.60  13598.52  7.92
583.9  173153.20  13478.75  7.78
585.3  174987.45  13398.93  7.66
586.7  176490.93  13317.29  7.55
588.1  178019.25  13250.20  7.44
589.5  179695.25  13220.20  7.36
590.9  181337.60  13198.56  7.28
592.3  183179.80  13212.64  7.21
593.7  184649.40  13219.18  7.16
595.0  186295.95  13247.37  7.11
596.4  187762.05  13278.07  7.07
597.8  189273.70  13301.63  7.03
599.2  190845.60  13332.00  6.99
600.6  192626.20  13360.53  6.94
602.0  193937.55  13340.87  6.88
603.3  195756.85  13329.59  6.81
604.7  197453.33  13290.28  6.73
606.1  198954.60  13214.88  6.64
607.5  200617.48  13128.49  6.54
608.9  202334.05  13025.29  6.44
610.2  203751.45  12887.91  6.33
611.6  205363.20  12762.62  6.21
613.0  206924.00  12631.23  6.10
614.4  208326.90  12491.66  6.00
615.8  209795.63  12372.75  5.90
617.1  211356.60  12271.56  5.81
618.5  213031.20  12193.23  5.72
619.9  214576.73  12133.03  5.65
621.3  216220.73  12102.21  5.60
622.6  217846.25  12086.13  5.55
624.0  219343.65  12090.14  5.51
625.4  220860.75  12107.37  5.48
626.8  222472.25  12147.59  5.46
628.1  223807.65  12186.06  5.44
629.5  225665.40  12254.94  5.43
630.9  227234.15  12312.85  5.42
632.2  228585.35  12341.96  5.40
633.6  230177.13  12368.82  5.37
635.0  231684.00  12361.07  5.34
636.3  233238.60  12312.99  5.28
637.7  234649.38  12225.05  5.21
639.1  236337.50  12124.00  5.13
640.4  237834.80  11993.08  5.04
641.8  239068.90  11833.42  4.95
643.2  240687.83  11692.22  4.86
644.5  242068.00  11534.00  4.76
645.9  243798.30  11402.10  4.68
647.2  245418.95  11292.40  4.60
648.6  247232.25  11221.20  4.54
650.0  248702.40  11160.00  4.49
651.3  249294.65  11083.82  4.45
652.7  250668.75  11039.41  4.40
654.0  252793.10  11028.64  4.36
655.4  254260.10  10992.73  4.32
656.8  254467.00  10911.13  4.29
658.1  255647.40  10853.63  4.25
659.5  258099.98  10836.00  4.20
660.8  259852.50  10779.00  4.15
662.2  260736.00  10701.23  4.10
663.5  262433.20  10661.53  4.06
664.9  263697.20  10625.68  4.03
666.2  264490.80  10584.96  4.00
667.6  266292.60  10617.77  3.99
668.9  267394.28  10646.82  3.98
670.3  268656.63  10692.27  3.98
671.6  270146.25  10779.30  3.99
673.0  271363.13  10867.80  4.00
674.3  272603.50  10970.44  4.02
675.7  273972.83  11090.48  4.05
677.0  275092.25  11229.81  4.08
678.4  276523.88  11397.20  4.12
679.7  277647.15  11576.34  4.17
681.1  278961.78  11788.05  4.23
682.4  280095.40  12010.61  4.29
683.8  281333.00  12266.97  4.36
685.1  282381.38  12564.05  4.45
686.4  283693.80  12944.08  4.56
687.8  285000.25  13421.20  4.71
689.1  286090.50  14035.30  4.91
690.5  287488.05  14891.06  5.18
691.8  288331.78  16041.16  5.56
693.1  289670.85  17603.58  6.08
694.5  290836.00  19601.40  6.74
695.8  292041.75  22064.47  7.56
697.1  293270.25  24991.63  8.52
698.5  294350.90  28362.89  9.64
699.8  295477.93  32122.92  10.87
701.1  296634.35  36207.44  12.21
702.5  297457.05  40472.74  13.61
703.8  298417.50  44871.00  15.04
705.1  299620.43  49382.84  16.48
706.5  300697.63  53887.95  17.92
707.8  301725.00  58387.14  19.35
709.1  302637.70  62828.50  20.76
710.5  303798.60  67293.50  22.15
711.8  304662.60  71660.31  23.52
713.1  305710.70  76031.11  24.87
714.4  306625.00  80333.52  26.20
715.8  307517.00  84564.57  27.50
717.1  308854.65  88884.46  28.78
718.4  309836.80  93052.59  30.03
719.7  310986.58  97202.88  31.26
721.0  311535.00  101094.00  32.45
722.4  312317.50  104965.74  33.61
723.7  313294.80  108792.48  34.73
725.0  314377.65  112534.20  35.80
726.3  315373.03  116112.30  36.82
727.6  315920.83  119420.40  37.80
729.0  316869.35  122712.94  38.73
730.3  317698.95  125805.53  39.60
731.6  318636.60  128794.25  40.42
732.9  319472.65  131599.95  41.19
734.2  320331.00  134253.53  41.91
735.5  321398.55  136846.49  42.58
736.8  322225.20  139198.00  43.20
738.1  323104.10  141421.08  43.77
739.5  324090.05  143551.15  44.29
740.8  324832.20  145423.92  44.77
742.1  325543.50  147180.02  45.21
743.4  326250.00  148796.67  45.61
744.7  327249.83  150429.02  45.97
746.0  328181.10  151924.24  46.29
747.3  328813.05  153160.21  46.58
748.6  329574.25  154383.27  46.84
749.9  330330.00  155480.00  47.07
751.2  331006.70  156467.65  47.27
752.5  331843.50  157475.30  47.45
753.8  332430.18  158303.06  47.62
755.1  333138.00  159123.47  47.77
756.4  333752.78  159836.30  47.89
757.7  334803.00  160698.49  48.00
759.0  336676.55  161902.66  48.09
760.3  337893.60  162768.32  48.17
761.6  339522.40  163792.16  48.24
762.9  340072.75  164259.27  48.30
764.2  340473.30  164624.41  48.35
765.5  340785.25  164902.95  48.39
766.8  341251.20  165238.19  48.42
768.1  341815.00  165612.91  48.45
769.3  342445.25  166003.23  48.48
770.6  343114.20  166410.57  48.50
771.9  343847.70  166837.32  48.52
773.2  344264.80  167090.45  48.54
774.5  344916.00  167432.03  48.54
775.8  345623.00  167818.53  48.56
777.1  346243.70  168141.09  48.56
778.4  346567.65  168342.39  48.57
779.6  347366.35  168754.77  48.58
780.9  347850.00  169008.00  48.59
782.2  348359.00  169258.83  48.59
783.5  348706.50  169445.80  48.59
784.8  349247.25  169734.78  48.60
786.0  349689.90  169962.71  48.60
787.3  350096.43  170179.03  48.61
788.6  350552.38  170408.02  48.61
789.9  351012.20  170647.12  48.62
791.2  351679.70  170984.00  48.62
792.4  352403.83  171338.10  48.62
793.7  352937.80  171595.84  48.62
795.0  353572.73  171925.71  48.63
796.2  354262.98  172261.27  48.63
797.5  354993.68  172643.44  48.63
798.8  355666.83  172973.54  48.63
800.0  356357.58  173313.91  48.63
801.3  356884.60  173559.17  48.63
802.6  357544.58  173863.95  48.63
803.8  358181.13  174197.09  48.63
805.1  358679.13  174454.58  48.64
806.4  359168.70  174701.20  48.64
807.7  359741.25  174979.17  48.64
808.9  360287.50  175264.61  48.65
810.2  360854.20  175533.45  48.64
811.4  361381.20  175803.75  48.65
812.7  362090.63  176117.50  48.64
814.0  362901.85  176544.47  48.65
815.2  363559.00  176864.13  48.65
816.5  363945.48  177104.07  48.66
817.7  364482.10  177359.01  48.66
819.0  365023.45  177635.19  48.66
820.2  365200.00  177730.67  48.67
821.5  365996.05  178082.06  48.66
822.7  366365.30  178280.88  48.66
824.0  366649.20  178446.96  48.67
825.2  367197.30  178723.80  48.67
826.5  367563.13  178907.51  48.67
827.7  368111.63  179203.69  48.68
829.0  368604.63  179418.44  48.68
830.2  368946.45  179589.21  48.68
831.5  369455.05  179857.96  48.68
832.7  369766.43  180016.48  48.68
834.0  370144.10  180203.00  48.68
835.2  370511.35  180412.87  48.69
836.4  370835.85  180586.19  48.70
837.7  371324.20  180818.43  48.70
838.9  371811.33  181064.57  48.70
840.1  372174.08  181274.49  48.71
841.4  372695.00  181533.76  48.71
842.6  373041.20  181738.61  48.72
843.8  373399.20  181917.84  48.72
845.1  373964.35  182188.67  48.72
846.3  374423.00  182407.51  48.72
847.5  374839.50  182659.40  48.73
848.8  375311.40  182903.28  48.73
850.0  375649.40  183121.77  48.75
851.2  376258.50  183404.34  48.74
852.5  376669.40  183589.36  48.74
853.7  377210.25  183848.40  48.74
854.9  377695.40  184101.72  48.74
856.1  378133.60  184371.37  48.76
857.4  378395.68  184502.09  48.76
858.6  378879.35  184769.19  48.77
859.8  379342.50  184963.00  48.76
861.0  379852.20  185215.68  48.76
862.2  380322.33  185448.89  48.76
863.5  380744.33  185653.26  48.76
864.7  381295.20  185933.44  48.76
865.9  381753.40  186142.40  48.76
867.1  382094.95  186294.46  48.76
868.3  382633.20  186546.16  48.75
869.5  383167.25  186825.24  48.76
870.8  383724.00  187088.40  48.76
872.0  384305.25  187363.63  48.75
873.2  384732.45  187580.84  48.76
874.4  385161.08  187813.08  48.76
875.6  385632.35  187981.81  48.75
876.8  386152.20  188247.85  48.75
878.0  386776.05  188502.63  48.74
879.2  387380.55  188761.58  48.73
880.4  387852.75  189037.10  48.74
881.6  388452.98  189245.02  48.72
882.8  388880.80  189472.75  48.72
884.0  389500.93  189749.31  48.72
885.2  390089.60  190028.36  48.71
886.5  390762.30  190328.55  48.71
887.7  391338.68  190576.92  48.70
888.8  392026.13  190886.45  48.69
890.0  392635.15  191161.95  48.69
891.2  393352.60  191485.32  48.68
892.4  393878.63  191760.45  48.69
893.6  394553.25  192031.97  48.67
894.8  395496.50  192463.23  48.66
896.0  396503.75  192902.30  48.65
897.2  397358.00  193332.53  48.65
898.4  398253.90  193688.00  48.63
899.6  398880.00  193969.25  48.63
900.8  399244.48  194164.74  48.63
902.0  399565.20  194263.98  48.62
903.2  399806.10  194389.98  48.62
904.3  400213.50  194568.72  48.62
905.5  400936.93  194890.89  48.61
906.7  401563.00  195144.33  48.60
907.9  402103.80  195401.87  48.59
909.1  402523.43  195559.20  48.58
910.2  402763.43  195669.68  48.58
911.4  403067.93  195765.57  48.57
912.6  403302.90  195841.36  48.56
913.8  403561.88  195927.75  48.55
915.0  404088.30  196088.20  48.53
916.2  404205.75  196192.10  48.54
917.3  404310.83  196224.15  48.53
918.5  404480.90  196329.57  48.54
919.7  404910.90  196412.92  48.51
920.8  404928.10  196433.58  48.51
922.0  405193.25  196447.53  48.48
923.2  405405.00  196505.40  48.47
924.4  405715.50  196584.75  48.45
925.5  405887.90  196719.31  48.47
926.7  406623.00  197028.02  48.45
927.9  407482.80  197407.92  48.45
929.0  409077.00  198044.28  48.41
930.2  411424.10  199092.64  48.39
931.4  414013.95  200234.43  48.36
932.5  416736.10  201532.03  48.36
933.7  418068.80  202151.56  48.35
934.9  418932.50  202473.25  48.33
936.0  418518.75  202223.88  48.32
937.2  416437.65  201076.90  48.28
938.3  414699.15  200156.55  48.27
939.5  413186.40  199385.28  48.26
940.7  413591.40  199381.08  48.21
941.8  415055.55  200078.06  48.21
943.0  416577.00  200736.10  48.19
944.2  417355.25  201061.12  48.18
945.3  416997.75  200712.20  48.13
946.5  416207.70  200235.06  48.11
947.6  416679.50  200235.00  48.05
948.8  416571.68  200052.71  48.02
949.9  416711.40  199953.04  47.98
951.1  416490.43  199642.69  47.93
952.2  416160.00  199403.20  47.92
953.4  416158.00  199098.17  47.84
954.5  416145.60  198890.64  47.79
955.7  415976.40  198749.04  47.78
956.8  415753.20  198434.27  47.73
958.0  415534.00  198139.13  47.68
959.1  415334.00  197915.68  47.65
960.3  415104.88  197655.85  47.62
961.4  414918.95  197584.92  47.62
962.6  415247.00  197490.07  47.56
963.7  415089.90  197241.30  47.52
964.9  414944.33  197138.30  47.51
966.0  414823.28  197064.63  47.51
967.2  414979.65  197126.34  47.50
968.3  414894.15  196963.92  47.47
969.5  414609.73  196820.80  47.47
970.6  414897.83  196794.96  47.43
971.8  415302.48  196941.80  47.42
972.9  415259.25  196951.53  47.43
974.0  415522.50  197060.87  47.42
975.2  415490.25  196988.32  47.41
976.3  415889.00  196949.73  47.36
977.5  415992.50  196953.54  47.35
978.6  416504.10  196955.89  47.29
979.7  416655.23  197015.77  47.29
980.9  416654.70  197024.16  47.29
982.0  416116.65  197099.47  47.37
983.2  415892.95  196944.56  47.35
984.3  416007.00  196710.59  47.29
985.4  415995.43  196638.36  47.27
986.6  415762.63  196601.88  47.29
987.7  417424.00  196971.95  47.19
988.9  416397.60  196800.72  47.26
990.0  417699.80  197255.21  47.22
993.1  368670.46  173841.13  47.15
996.9  369571.58  174520.73  47.22
1000.7  370783.00  175374.24  47.30
1004.5  371470.08  175908.86  47.35
1008.4  371346.21  176123.91  47.43
1012.2  371646.21  176422.96  47.47
1016.0  371949.60  176739.26  47.52
1019.8  372314.25  177096.15  47.57
1023.7  372549.23  177328.51  47.60
1027.5  372433.12  177422.58  47.64
1031.3  372838.15  177685.82  47.66
1035.1  372766.04  177744.85  47.68
1038.9  372764.52  177819.45  47.70
1042.7  372662.00  177837.84  47.72
1046.5  372522.17  177812.74  47.73
1050.3  372586.04  177878.04  47.74
1054.2  372329.42  177801.75  47.75
1058.0  371842.04  177552.46  47.75
1061.8  371716.72  177516.39  47.76
1065.6  371452.27  177355.41  47.75
1069.4  371558.87  177364.54  47.74
1073.2  371263.02  177170.41  47.72
1077.0  370868.80  176903.01  47.70
1080.8  370414.58  176550.45  47.66
1084.6  369308.10  175908.48  47.63
1088.4  368594.14  175506.79  47.62
1092.2  367701.75  174990.21  47.59
1096.0  367126.41  174592.34  47.56
1099.8  366655.90  174225.01  47.52
1103.6  366009.73  173763.37  47.48
1107.4  365133.12  173168.38  47.43
1111.2  364947.50  172907.36  47.38
1114.9  364312.67  172407.75  47.32
1118.7  363726.00  171867.54  47.25
1122.5  363049.27  171236.62  47.17
1126.3  361940.19  170377.22  47.07
1130.1  361460.27  169660.72  46.94
1133.9  359828.70  168246.40  46.76
1137.7  358412.20  166781.98  46.53
1141.4  356614.27  165004.78  46.27
1145.2  355953.63  163573.64  45.95
1149.0  354843.13  162024.17  45.66
1152.8  353200.85  160339.56  45.40
1156.6  351534.52  158846.97  45.19
1160.3  349743.00  157523.57  45.04
1164.1  347263.67  156062.67  44.94
1167.9  345455.21  155020.68  44.87
1171.7  344192.63  154298.25  44.83
1175.4  343040.57  153682.50  44.80
1179.2  342028.43  153112.49  44.77
1183.0  341770.33  152856.24  44.72
1186.7  341245.33  152493.17  44.69
1190.5  340135.40  151904.74  44.66
1194.3  338912.47  151276.35  44.64
1198.0  337673.05  150693.91  44.63
1201.8  336230.68  150022.94  44.62
1205.6  335000.00  149502.52  44.63
1209.3  334058.88  149169.21  44.65
1213.1  333036.38  148832.94  44.69
1216.8  332004.20  148564.02  44.75
1220.6  330853.60  148224.27  44.80
1224.3  329567.50  147819.07  44.85
1228.1  328286.80  147423.37  44.91
1231.9  327039.75  147011.61  44.95
1235.6  325559.55  146455.81  44.99
1239.4  324186.75  145980.09  45.03
1243.1  322957.67  145488.59  45.05
1246.9  321737.82  144979.79  45.06
1250.6  320773.53  144563.16  45.07
1254.3  319688.42  144096.10  45.07
1258.1  318685.50  143636.23  45.07
1261.8  317404.27  143044.52  45.07
1265.6  316001.50  142349.19  45.05
1269.3  314551.13  141616.31  45.02
1273.1  314478.79  141481.65  44.99
1276.8  314781.60  141480.46  44.95
1280.6  314714.63  141312.14  44.90
1284.3  313420.40  140566.74  44.85
1288.0  312002.42  139710.82  44.78
1291.8  310686.84  138850.01  44.69
1295.5  309243.73  137933.09  44.60
1299.2  307953.52  137041.20  44.50
1302.9  306500.84  136013.24  44.38
1306.7  304964.57  134884.17  44.23
1310.4  303482.53  133687.10  44.05
1314.1  302096.48  132489.34  43.86
1317.9  300866.46  131271.81  43.63
1321.6  299488.52  129897.43  43.37
1325.3  297861.90  128325.00  43.08
1329.0  296511.95  126827.65  42.77
1332.8  294432.60  124927.00  42.43
1336.5  292646.73  123143.12  42.08
1340.2  292322.33  121972.50  41.73
1343.9  291969.58  120786.76  41.37
1347.6  291556.95  119567.55  41.01
1351.4  292082.00  118778.72  40.67
1355.1  292834.30  118099.09  40.33
1358.8  293216.00  117232.00  39.98
1362.5  292783.68  115930.85  39.60
1366.2  290877.65  113859.81  39.14
1369.9  288766.25  111467.45  38.60
1373.6  286699.93  108738.75  37.93
1377.3  284959.80  105630.51  37.07
1381.0  283870.50  102062.48  35.95
1384.8  281742.50  97337.50  34.55
1388.4  279180.88  91929.28  32.93
1392.2  277276.67  86268.70  31.11
1395.9  275678.08  80482.13  29.19
1399.6  273957.54  74811.96  27.31
1403.3  272682.20  69676.60  25.55
1407.0  271437.30  65155.00  24.00
1410.7  270142.95  61354.19  22.71
1414.3  268801.34  58289.57  21.68
1418.1  267558.29  55945.65  20.91
1421.7  266576.80  54213.07  20.34
1425.4  265571.15  52938.79  19.93
1429.1  264649.88  52039.98  19.66
1432.8  263158.93  51314.16  19.50
1436.5  262344.87  50909.93  19.41
1440.2  261473.30  50660.60  19.38
1443.9  260136.07  50432.01  19.39
1447.6  258458.20  50234.80  19.44
1451.2  257344.27  50188.91  19.50
1454.9  256050.15  50155.16  19.59
1458.6  254928.43  50276.81  19.72
1462.3  253777.70  50516.30  19.91
1466.0  252427.90  50873.62  20.15
1469.7  250779.64  51350.04  20.48
1473.3  249763.67  52094.67  20.86
1477.0  247873.27  52765.52  21.29
1480.7  246303.77  53560.69  21.75
1484.4  244387.35  54291.45  22.22
1488.0  242850.67  55134.10  22.70
1491.7  241214.84  55931.94  23.19
1495.4  239470.03  56700.55  23.68
1499.0  237872.50  57457.29  24.15
1502.7  236548.67  58272.16  24.63
1506.4  235132.07  59012.75  25.10
1510.0  233716.93  59726.34  25.55
1513.7  232239.58  60384.34  26.00
1517.4  230910.00  61031.33  26.43
1521.0  229679.07  61676.84  26.85
1524.7  228473.92  62258.39  27.25
1528.3  227186.50  62795.72  27.64
1532.0  225979.60  63305.18  28.01
1535.7  224618.78  63709.20  28.36
1539.3  223347.71  64117.03  28.71
1543.0  222368.28  64576.42  29.04
1546.6  221699.83  65083.11  29.36
1550.3  220739.55  65462.97  29.66
1553.9  219663.77  65774.23  29.94
1557.6  218405.00  65994.24  30.22
1561.2  217145.70  66160.86  30.47
1564.9  215857.40  66292.33  30.71
1568.5  214539.15  66384.15  30.94
1572.2  213405.45  66500.66  31.16
1575.8  212324.00  66618.00  31.38
1579.5  211351.00  66737.22  31.58
1583.1  210363.54  66845.44  31.78
1586.8  209160.00  66854.00  31.96
1590.4  208142.40  66894.89  32.14
1594.0  206829.35  66834.64  32.31
1597.7  205697.48  66809.33  32.48
1601.3  204389.33  66721.73  32.64
1604.9  203075.01  66607.28  32.80
1608.6  201737.55  66456.79  32.94
1612.2  200697.75  66374.31  33.07
1615.8  199549.03  66239.51  33.19
1619.5  198451.67  66092.24  33.30
1623.1  197153.47  65862.81  33.41
1626.7  195929.50  65620.61  33.49
1630.3  194735.92  65366.58  33.57
1634.0  193620.00  65110.00  33.63
1637.6  192614.87  64833.26  33.66
1641.2  191599.85  64493.51  33.66
1644.8  190406.07  64023.61  33.62
1648.5  189335.63  63569.52  33.58
1652.1  188361.90  63137.78  33.52
1655.7  187411.60  62743.71  33.48
1659.3  186550.20  62440.28  33.47
1662.9  185130.00  62011.55  33.50
1666.6  183696.60  61601.95  33.53
1670.2  182294.41  61175.84  33.56
1673.8  180828.30  60683.86  33.56
1677.4  179657.35  60236.36  33.53
1681.0  178865.10  59858.97  33.47
1684.6  178478.08  59556.41  33.37
1688.2  177823.05  59084.33  33.23
1691.8  177152.66  58623.27  33.09
1695.4  176719.00  58222.03  32.95
1699.0  176351.00  57844.27  32.80
1702.6  176027.67  57462.33  32.64
1706.2  175435.87  56949.97  32.46
1709.8  174513.10  56328.69  32.28
1713.4  173795.34  55789.23  32.10
1717.0  172943.75  55261.93  31.95
1720.6  172158.30  54785.70  31.82
1724.2  171488.25  54354.72  31.70
1727.8  170772.35  53952.10  31.59
1731.4  170292.38  53637.57  31.50
1735.0  170076.68  53432.24  31.42
1738.6  169795.50  53172.28  31.32
1742.2  169164.90  52766.00  31.19
1745.8  168483.55  52290.00  31.04
1749.4  167471.70  51687.19  30.86
1753.0  165973.67  50909.39  30.67
1756.6  164322.08  50100.46  30.49
1760.1  162992.58  49405.12  30.31
1763.7  161291.33  48619.81  30.14
1767.3  159883.80  47955.17  29.99
1770.9  158667.72  47358.15  29.85
1774.5  157237.39  46724.48  29.72
1778.0  156109.57  46204.37  29.60
1781.6  155029.95  45748.67  29.51
1785.2  153871.03  45311.11  29.45
1788.8  152736.50  44920.34  29.41
1792.3  151525.97  44520.50  29.38
1795.9  151090.23  44359.28  29.36
1799.5  150619.33  44209.10  29.35
1803.1  150046.17  44045.17  29.35
1806.6  150516.33  44186.87  29.36
1810.2  151613.47  44523.90  29.37
1813.8  152600.10  44811.79  29.37
1817.3  152652.80  44817.26  29.36
1820.9  151956.58  44591.04  29.34
1824.5  150820.13  44219.65  29.32
1828.0  150036.33  43921.36  29.27
1831.6  149413.05  43644.74  29.21
1835.2  148835.00  43333.81  29.12
1838.7  148472.53  43008.28  28.97
1842.3  148110.00  42619.28  28.78
1845.8  147243.46  41984.36  28.51
1849.4  146718.48  41327.09  28.17
1852.9  146037.38  40473.85  27.71
1856.5  145130.58  39363.81  27.12
1860.0  144362.88  38077.80  26.38
1863.6  144233.33  36725.78  25.46
1867.1  144300.10  35157.50  24.36
1870.7  144411.15  33197.26  22.99
1874.2  143541.00  30629.63  21.34
1877.8  142045.60  27747.49  19.53
1881.3  140376.63  24704.73  17.60
1884.9  139337.37  21820.16  15.66
1888.4  138311.03  19018.20  13.75
1891.9  137345.53  16517.21  12.03
1895.5  136326.83  14413.64  10.57
1899.0  135917.00  12817.73  9.43
1901.3  166804.00  11633.17  6.97
1904.1  166732.50  10610.25  6.36
1906.8  165985.20  9794.80  5.90
1909.6  164258.50  9111.67  5.55
1912.4  162712.90  8623.65  5.30
1915.1  161599.35  8275.67  5.12
1917.9  160290.50  8004.17  4.99
1920.6  159264.27  7823.32  4.91
1923.3  158261.37  7686.93  4.86
1926.1  156958.70  7591.34  4.84
1928.8  155730.67  7543.56  4.84
1931.6  154815.75  7553.11  4.88
1934.3  153956.37  7582.27  4.92
1937.0  153161.33  7637.68  4.99
1939.8  152239.75  7718.36  5.07
1942.5  151008.00  7806.33  5.17
1945.2  149361.85  7896.72  5.29
1947.9  148021.77  8016.63  5.42
1950.7  146968.80  8161.68  5.55
1953.4  145274.60  8283.03  5.70
1956.1  143933.75  8437.33  5.86
1958.8  142731.33  8614.81  6.04
1961.5  141284.40  8789.07  6.22
1964.2  139803.30  8972.60  6.42
1966.9  138229.70  9152.57  6.62
1969.6  136989.00  9366.00  6.84
1972.3  135627.10  9570.47  7.06
1975.0  134608.50  9791.05  7.27
1977.7  133510.78  10024.55  7.51
1980.4  132376.67  10257.00  7.75
1983.1  131290.43  10500.68  8.00
1985.8  130386.90  10753.20  8.25
1988.4  129376.00  10998.00  8.50
1991.1  128472.63  11257.87  8.76
1993.8  127621.45  11520.48  9.03
1996.5  126983.82  11796.22  9.29
1999.1  126285.87  12063.33  9.55
2001.8  125606.37  12322.64  9.81
2004.5  124949.25  12571.33  10.06
2007.1  124239.95  12819.30  10.32
2009.8  123482.57  13065.11  10.58
2012.4  122890.90  13309.88  10.83
2015.1  122325.70  13548.58  11.08
2017.8  121548.70  13750.02  11.31
2020.4  121038.32  13973.36  11.54
2023.1  120676.73  14198.95  11.77
2025.7  120449.33  14435.78  11.98
2028.3  120111.33  14646.67  12.19
2031.0  119708.43  14831.14  12.39
2033.6  119416.20  15016.20  12.57
2036.2  119172.60  15196.00  12.75
2038.9  118589.70  15317.80  12.92
2041.5  118241.58  15460.46  13.08
2044.1  117676.20  15561.40  13.22
2046.8  117310.80  15674.50  13.36
2049.4  116684.40  15747.00  13.50
2052.0  116406.60  15859.73  13.62
2054.6  116016.25  15968.75  13.76
2057.2  115454.67  16046.05  13.90
2059.8  115122.80  16168.31  14.04
2062.4  114240.63  16201.38  14.18
2065.0  113734.20  16290.58  14.32
2067.6  112845.97  16326.32  14.47
2070.2  112244.52  16396.05  14.61
2072.8  111608.20  16457.07  14.75
2075.4  111168.75  16540.42  14.88
2078.0  110547.03  16582.93  15.00
2080.6  109991.20  16649.60  15.14
2083.2  109311.57  16680.05  15.26
2085.8  108816.72  16729.32  15.37
2088.4  108155.33  16748.00  15.49
2090.9  107369.37  16751.67  15.60
2093.5  106479.93  16723.88  15.71
2096.1  105707.42  16720.54  15.82
2098.7  104934.48  16705.90  15.92
2101.2  103979.07  16657.38  16.02
2103.8  103306.60  16645.73  16.11
2106.4  102642.87  16628.27  16.20
2108.9  101996.60  16604.98  16.28
2111.5  101140.73  16546.76  16.36
2114.0  100511.93  16508.91  16.42
2116.6  100003.75  16496.67  16.50
2119.1  99457.83  16469.64  16.56
2121.7  98980.00  16444.17  16.61
2124.2  98572.40  16425.81  16.66
2126.8  97776.07  16345.78  16.72
2129.3  97372.00  16329.87  16.77
2131.9  96800.00  16282.93  16.82
2134.4  96376.50  16266.30  16.88
2136.9  95993.30  16265.39  16.94
2139.4  95467.40  16234.87  17.01
2142.0  95015.20  16220.09  17.07
2144.5  94749.40  16227.67  17.13
2147.0  94514.67  16249.73  17.19
2149.5  94014.40  16222.93  17.26
2152.1  93839.90  16241.87  17.31
2154.6  93767.47  16274.67  17.36
2157.1  93249.50  16225.86  17.40
2159.6  92840.75  16180.44  17.43
2162.1  92683.50  16182.83  17.46
2164.6  92429.33  16172.09  17.50
2167.1  92108.83  16144.30  17.53
2169.6  91779.57  16116.88  17.56
2172.1  91317.67  16066.00  17.59
2174.6  90998.67  16052.96  17.64
2177.1  90568.20  16023.03  17.69
2179.5  90157.38  15990.51  17.74
2182.0  89685.20  15951.10  17.79
2184.5  89151.05  15898.49  17.83
2187.0  88531.83  15841.71  17.89
2189.5  87863.08  15770.78  17.95
2191.9  87096.00  15684.50  18.01
2194.4  86456.15  15623.80  18.07
2196.9  85728.00  15539.20  18.13
2199.3  85076.33  15469.89  18.18
2201.8  84193.33  15342.98  18.22
2204.3  83736.17  15297.64  18.27
2206.7  83104.45  15224.82  18.32
2209.2  82614.78  15177.51  18.37
2211.6  81981.90  15097.50  18.42
2214.1  81699.45  15067.62  18.44
2216.5  81125.53  14982.78  18.47
2219.0  80777.87  14943.04  18.50
2221.4  80404.33  14881.61  18.51
2223.9  79938.25  14789.06  18.50
2226.3  79432.50  14679.97  18.48
2228.7  78888.77  14558.15  18.45
2231.1  78289.20  14404.50  18.40
2233.6  77698.53  14254.33  18.35
2236.0  77151.67  14091.59  18.26
2238.4  76675.67  13923.00  18.16
2240.9  76208.53  13744.42  18.04
2243.3  75682.07  13545.76  17.90
2245.7  75122.50  13333.00  17.75
2248.1  74650.33  13139.39  17.60
2250.5  74136.23  12941.73  17.46
2252.9  73514.13  12720.79  17.30
2255.3  72953.40  12520.42  17.16
2257.7  72500.00  12343.33  17.03
2260.1  71999.20  12170.44  16.90
2262.5  71390.00  11970.00  16.77
2264.9  70861.70  11780.33  16.62
2267.3  70260.00  11596.67  16.51
2269.7  69771.80  11424.62  16.37
2272.1  69215.17  11268.75  16.28
2274.5  68645.40  11094.81  16.16
2276.8  68173.43  10948.22  16.06
2279.2  67616.40  10783.65  15.95
2281.6  67184.93  10643.82  15.84
2284.0  66720.60  10497.27  15.73
2286.3  66261.87  10339.38  15.60
2288.7  65855.62  10196.91  15.48
2291.1  65309.13  10025.25  15.35
2293.4  64854.53  9869.69  15.22
2295.8  64241.10  9678.57  15.07
2298.2  63631.80  9501.30  14.93
2300.5  62979.75  9315.00  14.79
2302.9  62237.67  9114.00  14.64
2305.2  61532.20  8926.67  14.51
2307.6  60858.02  8751.97  14.38
2309.9  60088.33  8573.22  14.27
2312.2  59499.33  8445.78  14.19
2314.6  58901.85  8324.85  14.13
2316.9  58208.40  8197.20  14.08
2319.2  57638.67  8072.18  14.00
2321.6  57014.88  7932.87  13.91
2323.9  56479.17  7809.03  13.83
2326.2  55943.53  7689.36  13.74
2328.6  55426.80  7572.77  13.66
2330.9  54925.50  7451.50  13.57
2333.2  54440.67  7344.83  13.49
2335.5  54002.90  7236.77  13.40
2337.8  53550.03  7127.78  13.31
2340.1  52989.30  7012.76  13.23
2342.4  52552.50  6911.66  13.15
2344.8  52116.17  6797.45  13.04
2347.1  51532.37  6664.08  12.93
2349.4  51007.17  6558.59  12.86
2351.6  50434.30  6444.75  12.78
2353.9  49958.93  6358.88  12.73
2356.2  49424.70  6258.68  12.66
2358.5  48832.00  6148.80  12.59
2360.8  48249.60  6033.07  12.50
2363.1  47816.65  5944.84  12.43
2365.4  47347.00  5845.87  12.35
2367.7  46876.80  5753.20  12.27
2369.9  46349.60  5648.67  12.19
2372.2  45752.00  5526.93  12.08
2374.5  45160.50  5405.40  11.97
2376.7  44538.30  5289.46  11.88
2379.0  43915.83  5165.20  11.76
2381.3  43283.33  5047.78  11.66
2383.5  42779.73  4939.73  11.55
2385.8  42171.73  4812.57  11.41
2388.0  41665.80  4708.20  11.30
2390.3  41153.60  4600.31  11.18
2392.5  40668.00  4500.00  11.07
2394.8  40184.10  4400.37  10.95
2397.0  39712.40  4299.24  10.83
2399.3  39254.70  4203.25  10.71
2401.5  38808.00  4103.75  10.57
2403.8  38292.52  4011.13  10.47
2406.0  37796.33  3911.25  10.35
2408.2  37400.00  3827.27  10.23
2410.4  36963.15  3736.68  10.11
2412.7  36543.87  3644.34  9.97
2414.9  36179.00  3567.30  9.86
2417.1  35775.90  3475.57  9.71
2419.3  35353.60  3392.00  9.59
2421.6  34978.33  3315.28  9.48
2423.8  34621.00  3237.34  9.35
2426.0  34276.00  3159.28  9.22
2428.2  33908.00  3075.02  9.07
2430.4  33586.20  3003.97  8.94
2432.6  33293.33  2928.89  8.80
2434.8  33015.67  2864.92  8.68
2437.0  32643.00  2785.18  8.53
2439.2  32304.83  2707.84  8.38
2441.4  31970.17  2649.41  8.29
2443.6  31723.07  2583.72  8.14
2445.7  31445.75  2522.14  8.02
2447.9  31173.33  2463.25  7.90
2450.1  30881.90  2397.87  7.76
2452.3  30534.35  2319.84  7.60
2454.5  30153.77  2264.61  7.51
2456.6  29788.80  2206.58  7.41
2458.8  29400.80  2149.77  7.31
2461.0  29107.25  2090.42  7.18
2463.1  28823.55  2027.30  7.03
2465.3  28564.27  1990.13  6.97
2467.5  28305.25  1937.17  6.84
2469.6  28058.25  1894.42  6.75
2471.8  27750.80  1852.06  6.67
2473.9  27421.50  1804.97  6.58
2476.1  27057.33  1769.44  6.54
2478.2  26719.27  1731.52  6.48
2480.4  26432.70  1683.38  6.37
2482.5  26104.90  1636.07  6.27
2484.6  25743.67  1599.89  6.21
2486.8  25481.10  1570.00  6.16
2488.9  25190.20  1546.77  6.14
2491.1  24815.47  1496.76  6.03
2493.2  24397.07  1458.29  5.98
2495.3  24033.97  1443.00  6.00
2497.4  23667.00  1406.07  5.94
2499.5  23336.37  1364.80  5.85
2501.7  23220.30  1342.06  5.78
2503.8  23119.15  1337.33  5.78
2505.9  23045.42  1332.50  5.78
2508.0  23069.45  1319.59  5.72
2510.1  23069.50  1305.49  5.66
2512.2  23157.70  1308.97  5.65
2514.3  23311.53  1309.85  5.62
2516.4  23482.40  1359.30  5.79
