/*** Spectra Vista SIG Data ***/
name= 31_20220825_ACRU_27_avg.sig
comm= Averaged Ref/Tar of files: HR.082522.0013_moc.sig,HR.082522.0014_moc.sig,HR.082522.0015_moc.sig
data=
337.3  3424.13  317.60  9.28
338.8  3511.30  314.25  8.95
340.3  3701.15  299.84  8.10
341.8  3932.35  298.74  7.60
343.2  4084.80  307.84  7.54
344.7  4265.00  295.71  6.93
346.2  4452.65  288.67  6.48
347.7  4640.35  293.63  6.33
349.2  4838.40  287.28  5.94
350.6  5104.78  284.01  5.56
352.1  5394.48  285.80  5.30
353.6  5690.80  291.48  5.12
355.1  5994.15  291.85  4.87
356.6  6292.80  297.16  4.72
358.0  6539.50  301.99  4.62
359.5  6859.80  304.88  4.44
361.0  7182.00  303.24  4.22
362.5  7523.68  320.07  4.25
364.0  7942.98  336.45  4.24
365.4  8289.50  340.95  4.11
366.9  8674.25  349.92  4.03
368.4  9028.03  352.76  3.91
369.9  9404.70  363.94  3.87
371.3  9852.30  380.92  3.87
372.8  10301.40  400.02  3.88
374.3  10723.13  412.08  3.84
375.8  11157.30  420.42  3.77
377.2  11567.00  423.23  3.66
378.7  11997.40  423.23  3.53
380.2  12427.80  426.81  3.43
381.7  12972.00  432.40  3.33
383.1  13448.05  449.17  3.34
384.6  13973.05  463.97  3.32
386.1  14458.38  472.04  3.26
387.6  14930.30  485.10  3.25
389.0  15410.00  478.83  3.11
390.5  15956.55  484.98  3.04
392.0  16557.70  500.79  3.02
393.4  17131.30  514.99  3.01
394.9  17695.80  539.40  3.05
396.4  18241.88  555.45  3.04
397.9  18808.75  563.75  3.00
399.3  19398.95  570.66  2.94
400.8  19989.85  581.58  2.91
402.2  20646.55  589.20  2.85
403.7  21258.23  603.48  2.84
405.2  21899.38  615.55  2.81
406.6  22457.60  634.13  2.82
408.1  23097.20  647.87  2.80
409.6  23727.95  658.50  2.78
411.0  24424.40  674.66  2.76
412.5  25094.13  685.84  2.73
414.0  25774.38  703.62  2.73
415.4  26493.38  726.10  2.74
416.9  27197.03  737.59  2.71
418.4  27919.13  759.45  2.72
419.8  28665.00  781.39  2.73
421.3  29411.25  808.07  2.75
422.7  30206.40  830.56  2.75
424.2  31033.13  855.00  2.76
425.7  31817.60  882.37  2.77
427.1  32599.50  903.08  2.77
428.6  33433.50  932.07  2.79
430.0  34189.28  963.11  2.82
431.5  35088.68  989.03  2.82
432.9  35980.40  1021.59  2.84
434.4  36901.20  1052.41  2.85
435.9  37758.00  1080.80  2.86
437.3  38637.50  1112.83  2.88
438.8  39516.83  1140.30  2.89
440.2  40411.53  1171.43  2.90
441.7  41419.40  1211.36  2.92
443.1  42347.00  1245.50  2.94
444.6  43347.90  1280.31  2.95
446.0  44309.63  1318.26  2.98
447.5  45302.13  1351.09  2.98
448.9  46272.30  1391.48  3.01
450.4  47306.35  1434.86  3.03
451.8  48204.00  1468.13  3.05
453.3  49162.00  1504.50  3.06
454.7  50223.10  1544.11  3.07
456.2  51127.85  1576.42  3.08
457.6  52130.93  1612.47  3.09
459.1  53140.10  1646.97  3.10
460.5  54101.88  1679.90  3.11
462.0  55209.05  1720.38  3.12
463.4  56279.60  1760.91  3.13
464.8  57303.75  1800.05  3.14
466.3  58329.98  1832.60  3.14
467.7  59368.35  1871.04  3.15
469.2  60466.20  1912.32  3.16
470.6  61482.80  1946.39  3.17
472.0  62549.30  1983.64  3.17
473.5  63604.88  2028.35  3.19
474.9  64666.50  2063.40  3.19
476.4  65865.60  2108.16  3.20
477.8  66990.00  2151.80  3.21
479.2  68048.50  2196.27  3.23
480.7  69204.98  2240.73  3.24
482.1  70371.50  2281.17  3.24
483.6  71614.20  2333.19  3.26
485.0  72751.35  2381.62  3.27
486.4  73986.75  2436.64  3.29
487.9  75114.00  2494.05  3.32
489.3  76349.13  2558.22  3.35
490.7  77453.50  2621.05  3.38
492.2  78747.90  2698.92  3.43
493.6  79901.10  2777.64  3.48
495.0  81066.38  2864.55  3.53
496.5  82282.73  2964.35  3.60
497.9  83442.05  3073.92  3.68
499.3  84645.40  3191.32  3.77
500.7  85951.55  3332.39  3.88
502.2  87147.40  3482.59  4.00
503.6  88446.80  3667.52  4.15
505.0  89555.45  3865.65  4.32
506.5  90910.58  4105.48  4.52
507.9  92167.03  4372.39  4.74
509.3  93610.00  4690.61  5.01
510.7  94901.63  5038.80  5.31
512.2  96374.55  5438.74  5.64
513.6  97895.70  5898.81  6.03
515.0  99361.63  6408.84  6.45
516.4  100784.25  6968.43  6.91
517.8  102462.75  7604.90  7.42
519.3  103817.20  8268.59  7.96
520.7  105431.20  8990.13  8.53
522.1  106769.00  9724.74  9.11
523.5  108183.70  10493.57  9.70
524.9  109647.00  11264.16  10.27
526.3  111069.00  12025.30  10.83
527.8  112666.95  12802.68  11.36
529.2  113940.30  13553.04  11.89
530.6  115527.75  14322.84  12.40
532.0  117320.00  15077.07  12.85
533.4  118672.65  15730.71  13.26
534.8  119554.00  16289.67  13.63
536.3  121285.80  16914.48  13.95
537.7  123328.80  17550.96  14.23
539.1  124852.25  18088.17  14.49
540.5  126115.30  18573.07  14.73
541.9  127970.70  19135.16  14.95
543.3  129269.60  19604.96  15.17
544.7  130655.40  20083.76  15.37
546.1  132492.53  20622.73  15.57
547.5  133750.40  21050.03  15.74
549.0  135586.00  21540.93  15.89
550.4  137105.00  21949.83  16.01
551.8  138698.45  22331.24  16.10
553.2  140281.20  22655.33  16.15
554.6  141679.20  22889.71  16.16
556.0  143254.35  23090.16  16.12
557.4  144901.05  23243.64  16.04
558.8  146576.70  23356.50  15.93
560.2  148061.63  23382.48  15.79
561.6  149786.40  23389.53  15.62
563.0  151426.60  23336.90  15.41
564.4  153048.85  23238.13  15.18
565.8  154604.38  23093.08  14.94
567.2  156401.75  22934.77  14.66
568.6  157959.38  22702.65  14.37
570.0  159444.80  22402.17  14.05
571.4  161219.50  22108.84  13.71
572.8  163014.63  21805.00  13.38
574.2  164696.00  21498.03  13.05
575.6  166286.25  21196.50  12.75
577.0  167850.20  20918.56  12.46
578.4  169624.00  20693.40  12.20
579.8  171184.05  20471.40  11.96
581.2  172965.23  20304.09  11.74
582.5  174411.90  20119.32  11.54
583.9  175973.40  19975.04  11.35
585.3  177813.68  19881.36  11.18
586.7  179328.83  19777.12  11.03
588.1  180880.75  19697.47  10.89
589.5  182549.50  19663.70  10.77
590.9  184226.80  19648.21  10.67
592.3  186091.40  19681.75  10.58
593.7  187564.65  19696.95  10.50
595.0  189232.88  19747.08  10.44
596.4  190714.65  19784.15  10.37
597.8  192241.73  19825.19  10.31
599.2  193842.00  19854.56  10.24
600.6  195637.65  19872.02  10.16
602.0  196971.60  19815.30  10.06
603.3  198805.60  19764.93  9.94
604.7  200502.85  19666.47  9.81
606.1  202032.00  19498.48  9.65
607.5  203736.68  19313.05  9.48
608.9  205467.20  19100.51  9.30
610.2  206898.30  18835.74  9.10
611.6  208529.03  18580.48  8.91
613.0  210103.00  18316.82  8.72
614.4  211527.90  18042.00  8.53
615.8  213013.13  17795.70  8.35
617.1  214590.60  17581.20  8.19
618.5  216287.20  17406.77  8.05
619.9  217830.38  17263.25  7.93
621.3  219492.00  17163.39  7.82
622.6  221125.00  17104.40  7.74
624.0  222603.60  17073.28  7.67
625.4  224105.48  17077.39  7.62
626.8  225720.95  17122.56  7.59
628.1  227101.33  17176.87  7.56
629.5  228986.93  17287.35  7.55
630.9  230639.48  17376.66  7.53
632.2  232031.28  17425.40  7.51
633.6  233687.75  17453.80  7.47
635.0  235278.80  17420.16  7.40
636.3  236854.30  17309.23  7.31
637.7  238263.38  17113.22  7.18
639.1  239960.00  16860.67  7.03
640.4  241458.18  16529.66  6.85
641.8  242705.20  16128.06  6.65
643.2  244328.88  15717.80  6.43
644.5  245736.25  15274.03  6.22
645.9  247488.30  14858.40  6.00
647.2  249272.10  14481.74  5.81
648.6  251241.75  14169.60  5.64
650.0  252763.20  13875.84  5.49
651.3  253266.20  13570.22  5.36
652.7  254495.05  13319.83  5.23
654.0  256709.00  13111.01  5.11
655.4  258268.50  12866.36  4.98
656.8  258462.20  12545.53  4.85
658.1  259551.80  12236.81  4.71
659.5  261982.88  11943.68  4.56
660.8  263835.00  11610.00  4.40
662.2  264812.80  11229.87  4.24
663.5  266553.10  10921.43  4.10
664.9  267896.20  10640.41  3.97
666.2  268708.80  10392.56  3.87
667.6  270556.68  10251.64  3.79
668.9  271741.60  10139.25  3.73
670.3  272930.25  10059.80  3.69
671.6  274549.13  10053.60  3.66
673.0  275766.00  10086.05  3.66
674.3  277067.70  10163.05  3.67
675.7  278454.05  10284.01  3.69
677.0  279629.40  10428.10  3.73
678.4  281039.00  10618.99  3.78
679.7  282184.30  10853.92  3.85
681.1  283553.38  11158.18  3.94
682.4  284780.60  11545.04  4.05
683.8  286062.40  12054.81  4.21
685.1  287094.00  12708.60  4.43
686.4  288444.60  13595.28  4.71
687.8  289784.00  14782.90  5.10
689.1  290896.50  16340.40  5.62
690.5  292315.65  18395.54  6.29
691.8  293163.90  20991.65  7.16
693.1  294563.25  24268.72  8.24
694.5  295795.50  28161.47  9.52
695.8  297092.25  32644.73  10.99
697.1  298343.50  37628.50  12.61
698.5  299458.40  43024.07  14.37
699.8  300625.15  48739.16  16.21
701.1  301826.93  54667.91  18.11
702.5  302666.10  60575.31  20.01
703.8  303705.00  66459.00  21.88
705.1  304935.15  72235.41  23.69
706.5  306045.25  77802.35  25.42
707.8  307111.35  83133.06  27.07
709.1  308040.35  88201.61  28.63
710.5  309268.23  93125.02  30.11
711.8  310193.00  97733.47  31.51
713.1  311241.10  102196.44  32.84
714.4  312222.30  106427.49  34.09
715.8  313114.30  110444.47  35.27
717.1  314509.20  114467.76  36.40
718.4  315504.00  118179.41  37.46
719.7  316695.23  121781.54  38.45
721.0  317272.50  124998.00  39.40
722.4  318090.30  128138.12  40.28
723.7  319138.50  131194.84  41.11
725.0  320240.70  134138.10  41.89
726.3  321261.88  136883.05  42.61
727.6  321855.33  139308.58  43.28
729.0  322829.85  141743.75  43.91
730.3  323662.43  143983.00  44.49
731.6  324632.45  146141.32  45.02
732.9  325500.88  148134.51  45.51
734.2  326361.75  150011.40  45.96
735.5  327468.00  151877.40  46.38
736.8  328292.40  153525.44  46.76
738.1  329198.60  155091.88  47.11
739.5  330230.50  156612.10  47.43
740.8  330999.90  157915.96  47.71
742.1  331836.35  159184.33  47.97
743.4  332625.00  160363.33  48.21
744.7  333669.45  161600.00  48.43
746.0  334569.30  162699.68  48.63
747.3  335194.30  163574.41  48.80
748.6  335960.25  164480.70  48.96
749.9  336778.00  165328.80  49.09
751.2  337570.35  166139.67  49.22
752.5  338537.90  166990.41  49.33
753.8  339209.68  167669.20  49.43
755.1  340002.00  168337.87  49.51
756.4  340662.13  168910.23  49.58
757.7  341765.03  169657.86  49.64
759.0  343678.63  170787.69  49.69
760.3  344942.40  171585.92  49.74
761.6  346598.00  172563.07  49.79
762.9  347215.00  172990.47  49.82
764.2  347628.70  173304.15  49.85
765.5  348000.93  173561.76  49.87
766.8  348513.60  173880.53  49.89
768.1  349103.40  174231.12  49.91
769.3  349772.50  174611.59  49.92
770.6  350520.95  175026.63  49.93
771.9  351314.08  175462.63  49.94
773.2  351790.80  175716.48  49.95
774.5  352466.40  176080.67  49.96
775.8  353239.40  176481.22  49.96
777.1  353881.00  176823.90  49.97
778.4  354277.00  177040.42  49.97
779.6  355154.30  177474.10  49.97
780.9  355710.00  177756.00  49.97
782.2  356224.00  178039.40  49.98
783.5  356606.00  178246.07  49.98
784.8  357200.10  178567.17  49.99
786.0  357664.30  178809.31  49.99
787.3  358154.03  179038.19  49.99
788.6  358667.75  179280.83  49.99
789.9  359223.20  179555.79  49.98
791.2  359921.18  179926.93  49.99
792.4  360680.55  180311.70  49.99
793.7  361221.00  180582.67  49.99
795.0  361927.50  180936.69  49.99
796.2  362716.55  181314.92  49.99
797.5  363501.30  181708.98  49.99
798.8  364296.95  182085.07  49.98
800.0  365062.28  182460.98  49.98
801.3  365584.70  182733.39  49.98
802.6  366273.23  183081.60  49.98
803.8  366991.60  183446.23  49.99
805.1  367596.25  183715.35  49.98
806.4  368084.10  183992.52  49.99
807.7  368705.93  184295.25  49.98
808.9  369362.85  184602.23  49.98
810.2  369950.70  184904.16  49.98
811.4  370524.00  185187.15  49.98
812.7  371231.25  185547.92  49.98
814.0  372160.60  186014.46  49.98
815.2  372869.25  186355.30  49.98
816.5  373330.53  186590.58  49.98
817.7  373866.25  186854.57  49.98
819.0  374452.10  187142.05  49.98
820.2  374616.00  187246.40  49.98
821.5  375417.20  187637.16  49.98
822.7  375827.78  187842.96  49.98
824.0  376242.30  188024.76  49.97
825.2  376745.18  188299.62  49.98
826.5  377112.68  188475.97  49.98
827.7  377716.63  188757.46  49.97
829.0  378203.45  188988.03  49.97
830.2  378539.75  189169.33  49.97
831.5  379033.70  189426.58  49.98
832.7  379391.25  189597.17  49.97
834.0  379764.95  189775.58  49.97
835.2  380123.43  189965.42  49.97
836.4  380492.20  190125.17  49.97
837.7  380917.60  190343.17  49.97
838.9  381394.38  190603.56  49.98
840.1  381810.38  190828.62  49.98
841.4  382197.30  191055.03  49.99
842.6  382578.20  191287.17  50.00
843.8  383009.60  191465.73  49.99
845.1  383579.05  191740.07  49.99
846.3  383978.90  191967.41  49.99
847.5  384400.80  192184.16  50.00
848.8  384890.40  192412.24  49.99
850.0  385234.85  192594.45  49.99
851.2  385839.45  192871.08  49.99
852.5  386250.10  193071.47  49.99
853.7  386736.75  193348.80  49.99
854.9  387213.80  193593.68  50.00
856.1  387707.45  193851.49  50.00
857.4  387959.00  193952.37  49.99
858.6  388490.35  194197.12  49.99
859.8  388916.25  194388.75  49.98
861.0  389399.40  194650.56  49.99
862.2  389917.45  194887.65  49.98
863.5  390297.05  195067.12  49.98
864.7  390805.80  195342.40  49.98
865.9  391295.40  195537.60  49.97
867.1  391734.45  195696.68  49.96
868.3  392214.00  195927.36  49.95
869.5  392699.15  196175.58  49.96
870.8  393286.50  196462.20  49.95
872.0  393816.23  196735.42  49.96
873.2  394266.75  196938.00  49.95
874.4  394796.03  197142.66  49.94
875.6  395285.13  197342.08  49.92
876.8  395749.55  197581.75  49.93
878.0  396247.45  197832.51  49.93
879.2  396802.65  198084.50  49.92
880.4  397386.00  198325.05  49.91
881.6  397925.38  198570.82  49.90
882.8  398382.40  198774.61  49.90
884.0  399110.75  199053.24  49.87
885.2  399648.90  199312.87  49.87
886.5  400269.25  199616.33  49.87
887.7  400881.33  199867.50  49.86
888.8  401518.73  200172.16  49.85
890.0  402065.05  200443.93  49.85
891.2  402722.60  200717.89  49.84
892.4  403571.18  201047.56  49.82
893.6  404188.25  201345.81  49.81
894.8  405173.75  201795.10  49.80
896.0  406131.00  202205.33  49.79
897.2  407030.00  202614.97  49.78
898.4  407767.80  202976.84  49.78
899.6  408436.50  203248.75  49.76
900.8  408943.58  203456.19  49.75
902.0  409190.70  203590.02  49.75
903.2  409681.88  203723.13  49.73
904.3  410012.40  203890.52  49.73
905.5  410661.35  204160.76  49.72
906.7  411324.00  204481.60  49.71
907.9  412006.70  204752.05  49.70
909.1  412449.30  204932.34  49.69
910.2  412829.55  205017.36  49.66
911.4  413141.63  205135.71  49.65
912.6  413391.55  205192.61  49.64
913.8  413666.33  205292.85  49.63
915.0  414084.30  205484.44  49.62
916.2  414472.50  205605.40  49.61
917.3  414588.83  205628.52  49.60
918.5  414888.90  205766.16  49.60
919.7  415171.80  205831.90  49.58
920.8  415437.08  205834.02  49.55
922.0  415569.00  205826.13  49.53
923.2  415915.50  205951.20  49.52
924.4  416232.00  206031.15  49.50
925.5  416550.70  206184.88  49.50
926.7  417301.13  206443.75  49.47
927.9  418183.20  206816.56  49.46
929.0  419818.95  207481.50  49.42
930.2  422231.30  208558.95  49.39
931.4  424892.93  209795.67  49.38
932.5  427694.60  211133.77  49.37
933.7  429221.55  211796.03  49.34
934.9  430101.88  212013.08  49.29
936.0  429679.25  211743.13  49.28
937.2  427522.80  210606.82  49.26
938.3  425898.20  209650.67  49.23
939.5  424353.60  208860.48  49.22
940.7  424936.80  208847.04  49.15
941.8  426633.60  209551.01  49.12
943.0  428049.00  210152.70  49.10
944.2  429044.85  210510.21  49.06
945.3  428668.50  210197.00  49.03
946.5  428029.65  209742.66  49.00
947.6  428312.20  209693.72  48.96
948.8  428407.20  209443.52  48.89
949.9  428555.40  209375.60  48.86
951.1  428321.40  209000.52  48.80
952.2  428196.00  208678.40  48.73
953.4  427764.00  208382.97  48.71
954.5  427939.20  208100.88  48.63
955.7  427971.60  207859.68  48.57
956.8  427955.60  207586.07  48.51
958.0  427716.50  207235.40  48.45
959.1  427748.88  206974.78  48.39
960.3  427293.55  206670.87  48.37
961.4  427115.55  206560.37  48.36
962.6  427474.25  206440.73  48.29
963.7  427110.83  206269.26  48.29
964.9  427244.55  206208.67  48.26
966.0  427167.68  206117.19  48.25
967.2  427394.70  206107.44  48.22
968.3  427104.90  205864.20  48.20
969.5  426911.03  205767.20  48.20
970.6  426735.55  205803.18  48.23
971.8  427279.48  205884.63  48.19
972.9  427123.80  205818.72  48.19
974.0  427580.80  205925.35  48.16
975.2  427429.63  205857.57  48.16
976.3  427361.80  205793.35  48.15
977.5  426959.58  205777.62  48.20
978.6  427306.80  205704.75  48.14
979.7  427273.35  205850.05  48.18
980.9  426575.05  205742.05  48.23
982.0  426675.55  205610.58  48.19
983.2  426111.45  205664.34  48.27
984.3  425795.40  205483.89  48.26
985.4  426409.78  205586.98  48.21
986.6  425588.63  205527.17  48.29
987.7  426555.15  206016.14  48.30
988.9  426738.60  205808.88  48.23
990.0  427159.90  206375.72  48.31
993.1  370873.83  177876.89  47.96
996.9  371304.70  178561.39  48.09
1000.7  372233.34  179437.00  48.21
1004.5  372794.50  180021.95  48.29
1008.4  372489.29  180250.88  48.39
1012.2  372500.46  180558.62  48.47
1016.0  372387.60  180868.97  48.57
1019.8  372435.53  181202.18  48.65
1023.7  372321.58  181399.11  48.72
1027.5  371966.63  181462.02  48.78
1031.3  372185.98  181711.65  48.82
1035.1  372059.22  181783.85  48.86
1038.9  372075.37  181884.03  48.88
1042.7  372046.08  181926.96  48.90
1046.5  371943.17  181907.09  48.91
1050.3  372018.89  181956.12  48.91
1054.2  371772.92  181873.92  48.92
1058.0  371294.99  181633.63  48.92
1061.8  371176.87  181590.97  48.92
1065.6  370971.73  181405.62  48.90
1069.4  371027.27  181381.07  48.89
1073.2  370610.53  181114.97  48.87
1077.0  370088.15  180810.55  48.86
1080.8  369568.75  180451.63  48.83
1084.6  368552.68  179806.43  48.79
1088.4  367936.53  179392.70  48.76
1092.2  367175.25  178838.68  48.71
1096.0  366606.36  178389.53  48.66
1099.8  366145.00  177967.56  48.61
1103.6  365533.45  177461.57  48.55
1107.4  364661.23  176792.83  48.48
1111.2  364421.20  176460.87  48.42
1114.9  363791.75  175881.83  48.35
1118.7  363208.73  175251.22  48.25
1122.5  362538.80  174514.35  48.14
1126.3  361487.00  173553.37  48.01
1130.1  361038.00  172695.75  47.83
1133.9  359466.10  171091.70  47.60
1137.7  358078.10  169381.35  47.30
1141.4  356311.37  167308.98  46.96
1145.2  355602.81  165571.15  46.56
1149.0  354496.04  163724.17  46.19
1152.8  352930.80  161809.05  45.85
1156.6  351315.07  160160.18  45.59
1160.3  349645.67  158750.67  45.40
1164.1  347287.90  157257.03  45.28
1167.9  345551.04  156201.49  45.20
1171.7  344239.88  155469.38  45.16
1175.4  343040.57  154834.08  45.14
1179.2  341981.58  154250.28  45.10
1183.0  341699.33  153988.86  45.07
1186.7  341198.20  153624.37  45.02
1190.5  340181.93  153034.84  44.99
1194.3  339073.70  152378.66  44.94
1198.0  337855.65  151763.43  44.92
1201.8  336388.35  151071.96  44.91
1205.6  335156.33  150596.86  44.93
1209.3  334279.05  150342.38  44.98
1213.1  333361.50  150071.51  45.02
1216.8  332466.02  149874.50  45.08
1220.6  331428.53  149620.53  45.14
1224.3  330270.42  149293.76  45.20
1228.1  329062.80  148961.52  45.27
1231.9  327819.78  148590.69  45.33
1235.6  326369.03  148088.21  45.37
1239.4  325024.88  147651.02  45.43
1243.1  323803.68  147196.39  45.46
1246.9  322611.02  146728.78  45.48
1250.6  321616.40  146325.75  45.50
1254.3  320537.62  145870.32  45.51
1258.1  319583.95  145420.55  45.50
1261.8  318295.07  144818.63  45.50
1265.6  316860.67  144116.62  45.48
1269.3  315414.30  143376.51  45.46
1273.1  315392.25  143213.66  45.41
1276.8  315683.60  143162.63  45.35
1280.6  315483.87  142899.71  45.30
1284.3  314043.60  142070.86  45.24
1288.0  312570.88  141158.64  45.16
1291.8  311287.78  140242.15  45.05
1295.5  309953.60  139246.80  44.93
1299.2  308717.12  138263.87  44.79
1302.9  307296.87  137130.36  44.62
1306.7  305771.43  135888.32  44.44
1310.4  304268.36  134556.57  44.22
1314.1  302902.97  133215.40  43.98
1317.9  301687.71  131817.15  43.69
1321.6  300278.48  130249.01  43.38
1325.3  298638.38  128475.08  43.02
1329.0  297260.83  126762.15  42.64
1332.8  295187.20  124630.00  42.22
1336.5  293394.80  122613.14  41.79
1340.2  293035.17  121186.00  41.36
1343.9  292577.92  119700.45  40.91
1347.6  291881.40  118119.67  40.47
1351.4  292020.00  116929.79  40.04
1355.1  292282.47  115819.68  39.63
1358.8  292384.00  114571.43  39.19
1362.5  291894.05  112963.89  38.70
1366.2  290215.50  110666.72  38.13
1369.9  288385.25  108031.64  37.46
1373.6  286352.15  104933.46  36.64
1377.3  284482.80  101301.17  35.61
1381.0  283304.67  97110.86  34.28
1384.8  281320.00  91780.00  32.62
1388.4  278957.12  85809.95  30.76
1392.2  277115.83  79575.74  28.72
1395.9  275549.88  73268.59  26.59
1399.6  273925.66  67216.90  24.54
1403.3  272776.75  61819.94  22.66
1407.0  271672.80  57170.43  21.04
1410.7  270503.48  53355.46  19.72
1414.3  269338.30  50379.84  18.71
1418.1  268215.83  48186.23  17.97
1421.7  267328.54  46621.13  17.44
1425.4  266380.73  45532.59  17.09
1429.1  265480.13  44822.52  16.88
1432.8  263975.57  44287.95  16.78
1436.5  263172.11  44064.55  16.74
1440.2  262345.03  43986.95  16.77
1443.9  261065.57  43927.73  16.83
1447.6  259490.00  43892.20  16.91
1451.2  258424.65  43973.99  17.02
1454.9  257156.10  44069.18  17.14
1458.6  256075.40  44302.66  17.30
1462.3  254935.27  44651.15  17.51
1466.0  253575.84  45133.91  17.80
1469.7  251892.77  45742.02  18.16
1473.3  250876.17  46612.69  18.58
1477.0  248995.53  47432.64  19.05
1480.7  247424.13  48377.94  19.55
1484.4  245507.72  49254.02  20.06
1488.0  243965.33  50235.43  20.59
1491.7  242367.58  51177.15  21.12
1495.4  240663.81  52091.80  21.65
1499.0  239076.00  52985.07  22.16
1502.7  237774.08  53932.75  22.68
1506.4  236366.88  54805.76  23.19
1510.0  234981.20  55644.15  23.68
1513.7  233525.83  56427.59  24.16
1517.4  232200.00  57198.19  24.63
1521.0  230991.60  57961.39  25.09
1524.7  229769.58  58655.07  25.53
1528.3  228500.13  59294.73  25.95
1532.0  227278.33  59907.10  26.36
1535.7  225888.53  60413.90  26.75
1539.3  224621.96  60917.24  27.12
1543.0  223657.05  61466.57  27.48
1546.6  222967.33  62057.20  27.83
1550.3  221990.00  62514.47  28.16
1553.9  220940.80  62911.43  28.47
1557.6  219686.87  63217.52  28.78
1561.2  218415.15  63456.56  29.05
1564.9  217104.65  63667.16  29.33
1568.5  215788.65  63831.60  29.58
1572.2  214641.85  64015.81  29.82
1575.8  213570.00  64202.00  30.06
1579.5  212555.95  64374.80  30.29
1583.1  211559.66  64532.68  30.50
1586.8  210322.00  64596.00  30.71
1590.4  209265.07  64683.64  30.91
1594.0  207922.11  64673.45  31.10
1597.7  206774.36  64700.70  31.29
1601.3  205480.80  64662.30  31.47
1604.9  204202.34  64598.22  31.63
1608.6  202898.17  64489.13  31.78
1612.2  201861.83  64438.87  31.92
1615.8  200750.88  64338.91  32.05
1619.5  199662.42  64223.43  32.17
1623.1  198396.50  64023.20  32.27
1626.7  197145.33  63805.86  32.36
1630.3  195932.75  63577.30  32.45
1634.0  194810.00  63338.00  32.51
1637.6  193810.53  63080.96  32.55
1641.2  192794.10  62753.32  32.55
1644.8  191562.95  62288.29  32.52
1648.5  190477.06  61842.29  32.47
1652.1  189489.90  61413.56  32.41
1655.7  188576.00  61019.43  32.36
1659.3  187725.34  60719.02  32.34
1662.9  186305.83  60287.26  32.36
1666.6  184850.07  59869.74  32.39
1670.2  183419.08  59430.60  32.40
1673.8  181961.63  58920.91  32.38
1677.4  180809.45  58450.01  32.33
1681.0  180005.18  58019.16  32.23
1684.6  179632.92  57641.07  32.09
1688.2  178955.05  57066.95  31.89
1691.8  178298.13  56514.14  31.70
1695.4  177855.00  56006.83  31.49
1699.0  177503.90  55540.50  31.29
1702.6  177160.00  55048.19  31.07
1706.2  176574.13  54412.04  30.82
1709.8  175639.55  53669.36  30.56
1713.4  174920.18  53047.03  30.33
1717.0  174064.75  52488.93  30.15
1720.6  173266.43  52031.22  30.03
1724.2  172577.78  51631.97  29.92
1727.8  171855.95  51271.05  29.83
1731.4  171366.25  50984.22  29.75
1735.0  171141.85  50793.23  29.68
1738.6  170877.00  50528.12  29.57
1742.2  170265.99  50091.92  29.42
1745.8  169606.15  49581.50  29.23
1749.4  168615.98  48932.87  29.02
1753.0  167092.07  48126.71  28.80
1756.6  165419.63  47306.92  28.60
1760.1  164093.68  46609.19  28.40
1763.7  162380.00  45829.14  28.22
1767.3  160946.05  45158.63  28.06
1770.9  159725.30  44548.00  27.89
1774.5  158268.16  43894.20  27.73
1778.0  157127.41  43372.21  27.60
1781.6  156029.85  42919.95  27.51
1785.2  154862.68  42516.46  27.45
1788.8  153702.90  42163.51  27.43
1792.3  152485.67  41802.44  27.41
1795.9  151957.76  41650.45  27.41
1799.5  151434.00  41503.24  27.41
1803.1  150822.00  41325.32  27.40
1806.6  151400.84  41428.40  27.36
1810.2  152609.80  41711.80  27.33
1813.8  153562.15  41933.38  27.31
1817.3  153537.20  41901.80  27.29
1820.9  152717.35  41645.42  27.27
1824.5  151473.88  41264.70  27.24
1828.0  150581.29  40942.13  27.19
1831.6  149768.60  40612.79  27.12
1835.2  149047.50  40245.48  27.00
1838.7  148617.87  39875.31  26.83
1842.3  148260.00  39445.71  26.61
1845.8  147488.13  38792.77  26.30
1849.4  146981.55  38079.56  25.91
1852.9  146353.55  37167.65  25.40
1856.5  145469.03  35988.51  24.74
1860.0  144701.16  34598.40  23.91
1863.6  144383.10  33086.01  22.92
1867.1  144180.05  31328.15  21.73
1870.7  144105.58  29199.11  20.26
1874.2  143411.85  26565.36  18.52
1877.8  142174.87  23700.65  16.67
1881.3  140711.88  20740.27  14.74
1884.9  139685.52  17965.65  12.86
1888.4  138632.50  15341.42  11.07
1891.9  137535.73  13072.48  9.50
1895.5  136326.83  11237.97  8.24
1899.0  135618.50  9893.14  7.29
1901.3  170929.50  8312.94  4.86
1904.1  170828.25  7503.50  4.39
1906.8  169989.60  6871.40  4.04
1909.6  168209.65  6369.88  3.79
1912.4  166478.78  6009.07  3.61
1915.1  165201.30  5772.62  3.49
1917.9  163737.00  5574.67  3.40
1920.6  162526.43  5448.70  3.35
1923.3  161309.63  5362.08  3.32
1926.1  159791.83  5334.18  3.34
1928.8  158356.00  5314.22  3.36
1931.6  157178.40  5342.45  3.40
1934.3  156046.68  5383.76  3.45
1937.0  154984.10  5460.14  3.52
1939.8  153838.25  5536.83  3.60
1942.5  152460.00  5621.00  3.69
1945.2  150709.90  5698.73  3.78
1947.9  149336.13  5812.64  3.89
1950.7  148248.23  5944.64  4.01
1953.4  146535.20  6070.62  4.14
1956.1  145205.00  6218.14  4.28
1958.8  144044.98  6372.60  4.42
1961.5  142609.20  6522.80  4.57
1964.2  141131.90  6691.53  4.74
1966.9  139587.20  6865.93  4.92
1969.6  138375.00  7062.00  5.10
1972.3  137006.60  7256.47  5.30
1975.0  135953.70  7469.40  5.49
1977.7  134850.92  7685.19  5.70
1980.4  133700.43  7901.69  5.91
1983.1  132615.37  8126.84  6.13
1985.8  131683.20  8372.30  6.36
1988.4  130650.00  8614.67  6.59
1991.1  129724.47  8849.17  6.82
1993.8  128870.87  9096.33  7.06
1996.5  128233.23  9354.83  7.30
1999.1  127552.52  9610.46  7.53
2001.8  126866.83  9862.14  7.77
2004.5  126186.20  10120.50  8.02
2007.1  125476.90  10359.82  8.26
2009.8  124734.40  10595.98  8.49
2012.4  124140.32  10836.90  8.73
2015.1  123586.17  11070.81  8.96
2017.8  122791.90  11272.26  9.18
2020.4  122287.73  11494.63  9.40
2023.1  121945.83  11721.19  9.61
2025.7  121723.33  11951.33  9.82
2028.3  121394.00  12162.22  10.02
2031.0  120993.57  12350.60  10.21
2033.6  120721.20  12542.50  10.39
2036.2  120477.60  12719.40  10.56
2038.9  119877.30  12855.70  10.72
2041.5  119531.65  12993.64  10.87
2044.1  118981.20  13110.90  11.02
2046.8  118598.40  13244.30  11.17
2049.4  117980.70  13342.90  11.31
2052.0  117707.87  13463.89  11.44
2054.6  117320.00  13580.00  11.58
2057.2  116755.93  13667.67  11.71
2059.8  116424.07  13789.93  11.84
2062.4  115539.42  13844.97  11.98
2065.0  115018.00  13941.31  12.12
2067.6  114118.60  13984.44  12.25
2070.2  113508.43  14065.80  12.39
2072.8  112872.12  14132.62  12.52
2075.4  112437.50  14227.50  12.65
2078.0  111811.83  14293.41  12.78
2080.6  111258.40  14364.53  12.91
2083.2  110565.20  14409.48  13.03
2085.8  110063.95  14480.79  13.16
2088.4  109400.83  14524.94  13.28
2090.9  108612.52  14541.62  13.39
2093.5  107716.03  14535.13  13.49
2096.1  106954.65  14548.13  13.60
2098.7  106181.72  14545.20  13.70
2101.2  105219.20  14511.89  13.79
2103.8  104546.73  14523.53  13.89
2106.4  103883.00  14532.27  13.99
2108.9  103228.00  14523.53  14.07
2111.5  102372.13  14488.60  14.15
2114.0  101743.33  14474.04  14.23
2116.6  101228.75  14466.67  14.29
2119.1  100667.63  14447.47  14.35
2121.7  100178.75  14434.58  14.41
2124.2  99782.20  14441.62  14.47
2126.8  98988.17  14378.32  14.53
2129.3  98577.60  14376.27  14.58
2131.9  97988.00  14344.00  14.64
2134.4  97571.25  14348.80  14.71
2136.9  97183.67  14349.54  14.77
2139.4  96655.53  14328.53  14.82
2142.0  96203.33  14325.58  14.89
2144.5  95924.20  14343.83  14.95
2147.0  95693.87  14361.82  15.01
2149.5  95184.67  14346.93  15.07
2152.1  95025.70  14370.34  15.12
2154.6  94946.13  14397.87  15.16
2157.1  94421.25  14357.72  15.21
2159.6  94012.50  14333.50  15.25
2162.1  93857.40  14347.67  15.29
2164.6  93616.67  14333.24  15.31
2167.1  93293.48  14319.88  15.35
2169.6  92959.30  14310.41  15.39
2172.1  92499.53  14271.65  15.43
2174.6  92166.27  14258.31  15.47
2177.1  91737.90  14237.54  15.52
2179.5  91321.97  14207.92  15.56
2182.0  90853.95  14174.60  15.60
2184.5  90305.20  14143.81  15.66
2187.0  89692.13  14099.69  15.72
2189.5  89020.05  14035.33  15.77
2191.9  88236.00  13958.67  15.82
2194.4  87621.25  13904.80  15.87
2196.9  86880.00  13827.20  15.92
2199.3  86207.33  13775.00  15.98
2201.8  85332.13  13655.87  16.00
2204.3  84884.72  13618.99  16.04
2206.7  84237.20  13556.88  16.09
2209.2  83771.13  13500.63  16.12
2211.6  83150.10  13417.80  16.14
2214.1  82843.70  13392.70  16.17
2216.5  82267.87  13320.60  16.19
2219.0  81930.13  13274.25  16.20
2221.4  81544.75  13218.91  16.21
2223.9  81068.75  13142.89  16.21
2226.3  80563.00  13043.72  16.19
2228.7  80015.47  12927.40  16.16
2231.1  79417.80  12777.60  16.09
2233.6  78830.93  12621.96  16.01
2236.0  78282.17  12461.94  15.92
2238.4  77786.33  12293.36  15.80
2240.9  77331.00  12135.22  15.69
2243.3  76814.47  11949.80  15.56
2245.7  76236.90  11750.95  15.41
2248.1  75736.70  11554.69  15.26
2250.5  75234.40  11361.03  15.10
2252.9  74630.40  11139.41  14.93
2255.3  74087.70  10935.05  14.76
2257.7  73610.00  10753.33  14.61
2260.1  73112.90  10565.10  14.45
2262.5  72520.00  10356.67  14.28
2264.9  71969.85  10176.34  14.14
2267.3  71360.00  9986.67  13.99
2269.7  70865.43  9819.29  13.86
2272.1  70317.00  9652.73  13.73
2274.5  69753.55  9494.15  13.61
2276.8  69285.28  9335.53  13.47
2279.2  68701.80  9182.35  13.37
2281.6  68272.13  9029.80  13.23
2284.0  67811.40  8881.27  13.10
2286.3  67336.00  8731.55  12.97
2288.7  66935.05  8584.55  12.83
2291.1  66393.87  8418.62  12.68
2293.4  65953.07  8264.67  12.53
2295.8  65343.20  8099.23  12.39
2298.2  64739.25  7928.10  12.25
2300.5  64066.50  7745.25  12.09
2302.9  63312.33  7570.89  11.96
2305.2  62613.70  7405.70  11.83
2307.6  61930.95  7252.62  11.71
2309.9  61152.67  7112.78  11.63
2312.2  60563.67  7006.00  11.57
2314.6  59947.20  6896.55  11.50
2316.9  59233.05  6786.15  11.46
2319.2  58654.60  6676.13  11.38
2321.6  58011.68  6562.27  11.31
2323.9  57458.33  6440.97  11.21
2326.2  56913.83  6326.08  11.12
2328.6  56388.20  6224.72  11.04
2330.9  55881.00  6125.00  10.96
2333.2  55393.17  6025.44  10.88
2335.5  54955.20  5938.50  10.81
2337.8  54498.97  5851.76  10.74
2340.1  53916.67  5743.92  10.65
2342.4  53484.17  5647.78  10.56
2344.8  53055.00  5560.22  10.48
2347.1  52486.47  5454.09  10.39
2349.4  51943.58  5357.77  10.31
2351.6  51348.68  5254.95  10.23
2353.9  50863.67  5170.96  10.17
2356.2  50347.38  5084.02  10.10
2358.5  49739.20  5002.67  10.06
2360.8  49145.60  4909.33  9.99
2363.1  48702.77  4830.65  9.92
2365.4  48239.70  4746.00  9.84
2367.7  47754.60  4666.40  9.77
2369.9  47196.90  4576.18  9.70
2372.2  46577.60  4472.00  9.60
2374.5  45992.10  4385.15  9.53
2376.7  45363.08  4282.68  9.44
2379.0  44753.43  4188.00  9.36
2381.3  44135.00  4087.22  9.26
2383.5  43601.07  3989.33  9.15
2385.8  42995.40  3883.00  9.03
2388.0  42480.00  3795.67  8.94
2390.3  41936.80  3702.40  8.83
2392.5  41448.00  3620.00  8.73
2394.8  40970.60  3529.17  8.61
2397.0  40501.07  3441.82  8.50
2399.3  40022.25  3362.60  8.40
2401.5  39579.75  3287.08  8.30
2403.8  39031.52  3206.44  8.22
2406.0  38541.33  3124.86  8.11
2408.2  38123.07  3050.18  8.00
2410.4  37699.67  2975.19  7.89
2412.7  37285.30  2898.71  7.77
2414.9  36900.05  2829.38  7.67
2417.1  36499.80  2755.90  7.55
2419.3  36096.00  2688.00  7.45
2421.6  35701.67  2617.78  7.33
2423.8  35308.23  2545.79  7.21
2426.0  34938.15  2484.14  7.11
2428.2  34574.40  2421.69  7.00
2430.4  34234.63  2359.95  6.89
2432.6  33946.67  2297.78  6.77
2434.8  33657.27  2250.06  6.69
2437.0  33301.23  2180.68  6.55
2439.2  32953.63  2122.11  6.44
2441.4  32610.93  2072.27  6.35
2443.6  32372.45  2021.84  6.25
2445.7  32098.27  1957.55  6.10
2447.9  31799.58  1911.22  6.01
2450.1  31500.10  1859.28  5.90
2452.3  31127.25  1797.52  5.77
2454.5  30792.02  1754.00  5.70
2456.6  30402.27  1712.00  5.63
2458.8  30030.00  1658.80  5.52
2461.0  29712.75  1609.86  5.42
2463.1  29391.00  1566.55  5.33
2465.3  29105.70  1521.86  5.23
2467.5  28851.00  1484.83  5.15
2469.6  28610.17  1456.86  5.09
2471.8  28291.40  1421.58  5.02
2473.9  27949.42  1372.58  4.91
2476.1  27603.33  1354.89  4.91
2478.2  27267.67  1320.22  4.84
2480.4  26954.60  1279.17  4.75
2482.5  26600.37  1243.83  4.68
2484.6  26257.92  1231.08  4.69
2486.8  25999.20  1203.67  4.63
2488.9  25679.48  1183.75  4.61
2491.1  25323.20  1137.11  4.49
2493.2  24908.00  1112.34  4.47
2495.3  24514.97  1074.23  4.38
2497.4  24166.10  1051.87  4.35
2499.5  23838.05  1030.34  4.32
2501.7  23680.43  1018.87  4.30
2503.8  23553.78  1008.57  4.28
2505.9  23472.50  1002.22  4.27
2508.0  23472.33  986.77  4.20
2510.1  23480.82  989.54  4.21
2512.2  23598.10  997.02  4.22
2514.3  23729.17  1006.12  4.24
2516.4  23935.50  1011.27  4.22
