/*** Spectra Vista SIG Data ***/
name= 32_20220926_QUPH_05_avg.sig
comm= Averaged Ref/Tar of files: HR.092722.0015_moc.sig,HR.092722.0016_moc.sig
data=
337.3  6317.33  401.10  6.35
338.8  6445.40  404.04  6.27
340.3  6900.33  434.82  6.30
341.8  7258.00  417.34  5.75
343.2  7638.95  426.36  5.58
344.7  7986.38  412.20  5.16
346.2  8389.50  394.80  4.71
347.7  8785.65  395.75  4.50
349.2  9072.00  408.24  4.50
350.6  9569.55  394.47  4.12
352.1  10188.00  410.35  4.03
353.6  10732.80  426.56  3.97
355.1  11242.73  439.07  3.91
356.6  11908.73  442.51  3.72
358.0  12475.03  455.94  3.65
359.5  13048.65  451.22  3.46
361.0  13757.60  450.68  3.28
362.5  14361.08  484.47  3.37
364.0  15105.53  497.86  3.30
365.4  15767.63  508.99  3.23
366.9  16469.20  541.75  3.29
368.4  17210.90  534.50  3.11
369.9  17967.00  561.80  3.13
371.3  18856.48  598.79  3.18
372.8  19585.15  633.79  3.24
374.3  20461.40  641.72  3.14
375.8  21341.30  644.47  3.02
377.2  22165.65  663.39  2.99
378.7  23018.98  663.71  2.88
380.2  23831.70  674.88  2.83
381.7  24739.75  696.30  2.81
383.1  25729.80  717.06  2.79
384.6  26708.10  736.05  2.76
386.1  27680.63  748.70  2.70
387.6  28600.80  757.08  2.65
389.0  29620.13  786.38  2.65
390.5  30590.70  822.00  2.69
392.0  31722.75  838.35  2.64
393.4  32777.25  873.38  2.66
394.9  33848.50  885.66  2.62
396.4  35015.20  910.80  2.60
397.9  36122.10  931.86  2.58
399.3  37043.08  956.91  2.58
400.8  38258.55  983.24  2.57
402.2  39428.40  1014.42  2.57
403.7  40705.65  1032.90  2.54
405.2  41858.80  1060.30  2.53
406.6  43125.60  1096.26  2.54
408.1  44201.10  1127.04  2.55
409.6  45384.28  1154.93  2.54
411.0  46632.58  1187.62  2.55
412.5  48011.20  1224.61  2.55
414.0  49417.90  1255.31  2.54
415.4  50735.70  1300.32  2.56
416.9  52009.65  1343.40  2.58
418.4  53361.43  1387.62  2.60
419.8  54686.45  1428.14  2.61
421.3  56202.30  1448.37  2.58
422.7  57696.60  1493.96  2.59
424.2  59224.43  1540.43  2.60
425.7  60688.38  1593.90  2.63
427.1  62198.20  1639.38  2.64
428.6  63683.03  1681.40  2.64
430.0  65235.23  1718.42  2.63
431.5  66903.53  1764.43  2.64
432.9  68610.75  1810.33  2.64
434.4  70366.05  1868.67  2.66
435.9  72004.70  1913.26  2.66
437.3  73724.63  1970.25  2.67
438.8  75382.98  2023.18  2.68
440.2  77077.70  2070.36  2.69
441.7  78967.55  2131.04  2.70
443.1  80823.15  2185.38  2.70
444.6  82610.15  2238.73  2.71
446.0  84477.68  2311.92  2.74
447.5  86450.00  2390.00  2.76
448.9  88209.58  2447.64  2.77
450.4  90125.00  2520.00  2.80
451.8  91957.50  2587.88  2.81
453.3  93820.80  2653.88  2.83
454.7  95674.28  2725.56  2.85
456.2  97473.25  2790.06  2.86
457.6  99445.05  2852.28  2.87
459.1  101279.33  2917.22  2.88
460.5  103145.05  2969.88  2.88
462.0  105209.10  3032.82  2.88
463.4  107232.65  3097.01  2.89
464.8  109215.23  3154.10  2.89
466.3  111169.95  3216.51  2.89
467.7  113206.40  3285.76  2.90
469.2  115116.00  3350.31  2.91
470.6  117180.00  3412.33  2.91
472.0  119271.08  3472.97  2.91
473.5  121291.93  3551.21  2.93
474.9  123506.65  3631.09  2.94
476.4  125628.20  3702.96  2.95
477.8  127736.00  3780.00  2.96
479.2  129811.80  3861.85  2.97
480.7  131986.05  3944.48  2.99
482.1  134235.48  4032.37  3.00
483.6  136486.80  4106.88  3.01
485.0  138728.03  4196.25  3.02
486.4  140880.35  4284.25  3.04
487.9  143142.75  4401.35  3.07
489.3  145337.03  4502.52  3.10
490.7  147541.70  4620.28  3.13
492.2  149791.63  4749.98  3.17
493.6  152084.20  4878.92  3.21
495.0  154409.78  5027.30  3.26
496.5  156605.40  5193.72  3.32
497.9  158956.75  5391.25  3.39
499.3  161255.13  5612.58  3.48
500.7  163574.00  5863.76  3.58
502.2  166019.45  6141.76  3.70
503.6  168325.80  6463.44  3.84
505.0  170658.13  6820.66  4.00
506.5  173127.20  7251.70  4.19
507.9  175577.03  7747.99  4.41
509.3  177879.38  8303.90  4.67
510.7  180535.88  8946.21  4.96
512.2  183236.25  9656.97  5.27
513.6  186117.93  10474.51  5.63
515.0  188890.63  11380.15  6.02
516.4  191772.60  12368.36  6.45
517.8  194592.25  13450.60  6.91
519.3  197526.40  14622.72  7.40
520.7  200214.80  15837.24  7.91
522.1  202932.93  17118.34  8.44
523.5  205506.33  18401.95  8.95
524.9  208453.35  19725.26  9.46
526.3  211104.90  20994.26  9.94
527.8  213943.25  22253.08  10.40
529.2  216489.60  23489.28  10.85
530.6  219238.20  24697.08  11.26
532.0  222139.13  25852.84  11.64
533.4  224654.65  26897.89  11.97
534.8  227182.73  27876.75  12.27
536.3  230132.53  28843.21  12.53
537.7  233139.50  29759.60  12.76
539.1  236063.75  30633.72  12.98
540.5  238917.00  31466.55  13.17
541.9  241874.23  32307.34  13.36
543.3  244452.60  33079.82  13.53
544.7  247456.00  33915.20  13.71
546.1  250266.10  34724.34  13.87
547.5  253195.20  35514.72  14.03
549.0  256244.40  36302.88  14.17
550.4  259090.65  37022.90  14.29
551.8  262074.65  37687.17  14.38
553.2  264958.28  38255.84  14.44
554.6  267807.85  38704.52  14.45
556.0  270741.45  39030.18  14.42
557.4  273843.90  39286.58  14.35
558.8  276718.40  39403.68  14.24
560.2  279900.00  39480.00  14.11
561.6  282816.60  39435.33  13.94
563.0  285606.10  39284.44  13.75
564.4  288787.80  39114.04  13.54
565.8  291801.05  38842.73  13.31
567.2  294970.23  38513.39  13.06
568.6  297992.93  38075.13  12.78
570.0  300862.25  37522.23  12.47
571.4  304253.78  36971.70  12.15
572.8  307389.60  36371.44  11.83
574.2  310261.35  35757.33  11.52
575.6  313303.00  35201.18  11.24
577.0  316337.73  34690.48  10.97
578.4  319725.00  34278.13  10.72
579.8  322780.65  33871.88  10.49
581.2  325851.25  33526.30  10.29
582.5  328725.00  33205.50  10.10
583.9  331760.50  32942.24  9.93
585.3  334637.70  32701.20  9.77
586.7  337629.60  32506.32  9.63
588.1  340576.10  32363.70  9.50
589.5  343924.20  32291.76  9.39
590.9  346868.18  32239.99  9.29
592.3  349785.68  32226.80  9.21
593.7  352736.83  32259.82  9.15
595.0  355666.80  32329.32  9.09
596.4  358946.25  32456.90  9.04
597.8  361615.70  32519.56  8.99
599.2  364710.45  32600.10  8.94
600.6  367896.38  32654.16  8.88
602.0  370849.20  32642.16  8.80
603.3  373724.00  32557.20  8.71
604.7  376722.13  32408.86  8.60
606.1  379704.45  32172.42  8.47
607.5  382995.98  31888.27  8.33
608.9  386085.70  31531.50  8.17
610.2  389235.83  31139.96  8.00
611.6  392150.00  30695.50  7.83
613.0  394914.90  30253.52  7.66
614.4  397679.93  29790.39  7.49
615.8  400930.80  29381.36  7.33
617.1  403617.50  28992.72  7.18
618.5  406875.45  28703.57  7.05
619.9  409580.40  28449.45  6.95
621.3  412470.50  28253.94  6.85
622.6  415379.25  28144.35  6.78
624.0  418068.00  28066.73  6.71
625.4  421140.23  28078.02  6.67
626.8  424064.55  28136.55  6.63
628.1  426817.30  28240.59  6.62
629.5  429513.00  28355.46  6.60
630.9  432256.75  28465.61  6.59
632.2  435234.58  28568.28  6.56
633.6  437622.90  28570.88  6.53
635.0  440513.03  28503.59  6.47
636.3  443483.40  28311.55  6.38
637.7  446188.43  27993.00  6.27
639.1  449133.85  27557.97  6.14
640.4  451790.88  27018.70  5.98
641.8  454620.60  26422.92  5.81
643.2  457200.15  25746.66  5.63
644.5  460040.00  25081.00  5.45
645.9  462590.10  24391.50  5.27
647.2  464904.83  23773.75  5.11
648.6  467540.00  23256.72  4.97
650.0  470262.60  22844.52  4.86
651.3  473097.65  22512.59  4.76
652.7  477059.25  22248.90  4.66
654.0  479894.40  21907.46  4.57
655.4  482113.80  21517.34  4.46
656.8  483682.50  21055.44  4.35
658.1  486253.43  20602.26  4.24
659.5  489456.00  20070.72  4.10
660.8  492362.85  19501.65  3.96
662.2  495096.95  18921.34  3.82
663.5  497942.23  18361.54  3.69
664.9  499773.60  17852.69  3.57
666.2  501874.10  17421.69  3.47
667.6  504364.50  17091.45  3.39
668.9  507038.40  16882.56  3.33
670.3  510169.63  16738.40  3.28
671.6  512192.00  16663.20  3.25
673.0  514481.60  16654.72  3.24
674.3  516881.75  16719.78  3.23
675.7  519359.40  16852.32  3.24
677.0  521647.65  17033.57  3.27
678.4  523828.60  17268.24  3.30
679.7  526081.28  17607.83  3.35
681.1  528596.93  18030.45  3.41
682.4  530746.88  18611.10  3.51
683.8  532950.38  19399.28  3.64
685.1  535167.15  20426.94  3.82
686.4  537381.65  21858.01  4.07
687.8  539753.40  23795.58  4.41
689.1  542033.80  26414.22  4.87
690.5  544066.45  29832.17  5.48
691.8  546595.50  34237.78  6.26
693.1  549013.50  39706.80  7.23
694.5  551319.20  46164.68  8.37
695.8  553679.00  53523.76  9.67
697.1  555907.70  61599.52  11.08
698.5  558181.88  70288.60  12.59
699.8  560521.60  79430.48  14.17
701.1  562422.53  88727.42  15.78
702.5  564395.50  98114.25  17.38
703.8  566820.98  107523.99  18.97
705.1  568587.55  116660.34  20.52
706.5  570829.90  125684.24  22.02
707.8  572662.75  134392.89  23.47
709.1  574900.05  142972.08  24.87
710.5  577008.28  151327.53  26.23
711.8  578952.00  159444.00  27.54
713.1  580801.00  167390.40  28.82
714.4  582816.65  175180.59  30.06
715.8  585001.58  182922.30  31.27
717.1  587228.35  190438.21  32.43
718.4  589448.78  197792.72  33.56
719.7  591578.78  204939.95  34.64
721.0  593289.28  211714.31  35.68
722.4  595080.45  218293.65  36.68
723.7  597017.75  224678.63  37.63
725.0  598675.65  230701.65  38.54
726.3  600899.00  236673.32  39.39
727.6  602508.00  242180.25  40.20
729.0  604342.20  247462.04  40.95
730.3  606239.75  252494.17  41.65
731.6  607721.50  257061.48  42.30
732.9  609636.63  261509.04  42.90
734.2  611201.25  265607.10  43.46
735.5  612942.55  269490.21  43.97
736.8  614847.98  273259.63  44.44
738.1  616663.28  276702.29  44.87
739.5  618378.45  279906.51  45.26
740.8  620235.28  282957.07  45.62
742.1  621746.55  285629.58  45.94
743.4  623401.10  288222.06  46.23
744.7  625191.00  290736.60  46.50
746.0  626575.48  292891.85  46.74
747.3  628058.90  294969.50  46.97
748.6  629583.10  296888.00  47.16
749.9  631258.48  298749.40  47.33
751.2  632446.83  300263.14  47.48
752.5  633925.10  301833.17  47.61
753.8  635167.35  303208.38  47.74
755.1  636700.20  304623.92  47.84
756.4  637795.55  305762.82  47.94
757.7  639702.25  307234.13  48.03
759.0  643218.58  309373.35  48.10
760.3  645869.95  311052.70  48.16
761.6  648647.10  312754.66  48.22
762.9  649990.00  313709.00  48.26
764.2  650674.10  314343.59  48.31
765.5  651490.73  314974.35  48.35
766.8  651937.90  315423.99  48.38
768.1  652935.15  316094.94  48.41
769.3  654113.10  316808.67  48.43
770.6  655417.45  317614.87  48.46
771.9  656494.00  318278.43  48.48
773.2  657841.28  319033.85  48.50
774.5  658699.35  319552.83  48.51
775.8  659721.10  320121.60  48.52
777.1  660805.70  320788.44  48.55
778.4  661996.00  321455.30  48.56
779.6  663189.00  322125.36  48.57
780.9  663768.68  322517.70  48.59
782.2  664682.18  323025.00  48.60
783.5  665555.25  323498.45  48.61
784.8  666177.75  323923.95  48.62
786.0  666942.23  324360.08  48.63
787.3  667631.88  324780.55  48.65
788.6  668472.88  325223.25  48.65
789.9  669175.50  325621.24  48.66
791.2  670361.15  326299.04  48.68
792.4  671453.75  326847.40  48.68
793.7  672876.23  327611.90  48.69
795.0  673850.60  328127.29  48.69
796.2  675126.10  328806.69  48.70
797.5  676208.75  329398.00  48.71
798.8  677494.13  330099.53  48.72
800.0  678580.00  330666.00  48.73
801.3  679691.25  331255.58  48.74
802.6  680616.00  331790.40  48.75
803.8  681659.48  332328.15  48.75
805.1  682605.00  332865.98  48.76
806.4  683526.38  333345.38  48.77
807.7  684633.93  333920.58  48.77
808.9  685587.48  334490.78  48.79
810.2  686479.50  334964.70  48.79
811.4  687530.00  335483.12  48.80
812.7  688786.10  336168.50  48.81
814.0  689893.05  336804.93  48.82
815.2  691271.25  337488.06  48.82
816.5  692348.13  338069.38  48.83
817.7  693040.50  338499.65  48.84
819.0  693789.60  338867.20  48.84
820.2  694563.75  339293.31  48.85
821.5  695551.60  339873.80  48.86
822.7  696566.50  340409.02  48.87
824.0  697411.65  340872.48  48.88
825.2  698006.40  341231.28  48.89
826.5  698712.45  341623.77  48.89
827.7  699768.58  342180.50  48.90
829.0  700732.13  342682.47  48.90
830.2  701669.60  343198.64  48.91
831.5  702586.58  343697.49  48.92
832.7  703453.50  344200.50  48.93
834.0  704097.90  344547.27  48.93
835.2  705071.95  345090.73  48.94
836.4  705786.80  345476.80  48.95
837.7  706550.63  345911.63  48.96
838.9  707746.10  346593.50  48.97
840.1  708625.50  347038.56  48.97
841.4  709623.70  347546.04  48.98
842.6  710500.70  348050.64  48.99
843.8  711207.90  348534.68  49.01
845.1  712154.85  349036.71  49.01
846.3  713086.50  349519.17  49.01
847.5  714044.50  350023.70  49.02
848.8  714968.90  350600.83  49.04
850.0  716183.00  351245.36  49.04
851.2  717002.00  351732.10  49.06
852.5  718242.10  352346.62  49.06
853.7  719014.73  352738.80  49.06
854.9  720142.80  353355.99  49.07
856.1  721307.50  353930.37  49.07
857.4  722264.03  354490.35  49.08
858.6  723270.80  355035.52  49.09
859.8  724394.80  355634.46  49.09
861.0  725319.00  356156.64  49.10
862.2  726434.10  356730.78  49.11
863.5  727338.65  357240.76  49.12
864.7  728525.00  357765.00  49.11
865.9  729491.75  358320.30  49.12
867.1  730262.50  358698.13  49.12
868.3  731390.58  359361.81  49.13
869.5  732505.75  359939.98  49.14
870.8  733682.70  360502.38  49.14
872.0  734647.08  361023.94  49.14
873.2  735893.75  361471.01  49.12
874.4  736567.75  361943.60  49.14
875.6  737803.18  362525.12  49.14
876.8  739270.95  363281.49  49.14
878.0  740244.40  363802.25  49.15
879.2  741341.95  364322.24  49.14
880.4  742352.00  364868.00  49.15
881.6  743461.20  365350.40  49.14
882.8  744648.95  365981.61  49.15
884.0  745638.73  366509.72  49.15
885.2  747009.75  367144.75  49.15
886.5  748324.85  367770.41  49.15
887.7  749516.83  368263.44  49.13
888.8  750658.65  368960.43  49.15
890.0  751721.25  369374.25  49.14
891.2  752907.68  369805.61  49.12
892.4  754188.60  370557.50  49.13
893.6  755971.68  371448.02  49.14
894.8  757480.13  372225.15  49.14
896.0  758901.70  372896.34  49.14
897.2  760602.15  373765.59  49.14
898.4  762652.80  374645.04  49.12
899.6  763874.80  375233.84  49.12
900.8  764427.95  375516.57  49.12
902.0  765062.55  375820.20  49.12
903.2  765210.10  375884.34  49.12
904.3  766276.88  376403.63  49.12
905.5  767596.50  376982.10  49.11
906.7  768486.33  377479.04  49.12
907.9  769826.85  377889.96  49.09
909.1  770748.83  378456.54  49.10
910.2  771120.00  378567.00  49.09
911.4  771100.20  378661.86  49.11
912.6  771635.00  378930.50  49.11
913.8  772597.00  379359.89  49.10
915.0  773140.00  379437.16  49.08
916.2  773091.60  379462.50  49.08
917.3  773875.13  379827.67  49.08
918.5  774131.10  379942.92  49.08
919.7  774324.25  379936.50  49.07
920.8  774202.58  380058.25  49.09
922.0  774291.10  380038.01  49.08
923.2  774681.00  380139.24  49.07
924.4  775379.88  380304.05  49.05
925.5  776139.60  380605.84  49.04
926.7  777162.75  380895.15  49.01
927.9  778478.98  381521.19  49.01
929.0  781366.50  383060.88  49.02
930.2  785323.20  385036.52  49.03
931.4  790350.35  387449.49  49.02
932.5  794893.00  389372.39  48.98
933.7  798223.65  390575.36  48.93
934.9  799338.75  391090.00  48.93
936.0  798036.53  390450.29  48.93
937.2  794877.05  388753.88  48.91
938.3  791014.25  386703.20  48.89
939.5  788872.50  385512.66  48.87
940.7  788732.18  385372.68  48.86
941.8  791564.15  386533.68  48.83
943.0  793804.28  387244.37  48.78
944.2  794952.00  387813.60  48.78
945.3  794424.60  387295.92  48.75
946.5  792758.75  386333.50  48.73
947.6  793823.50  386500.95  48.69
948.8  792545.78  385651.14  48.66
949.9  793238.08  385649.15  48.62
951.1  792661.20  385294.57  48.61
952.2  792095.08  384532.86  48.55
953.4  791861.55  383975.79  48.49
954.5  790308.75  382898.25  48.45
955.7  790494.15  382308.59  48.36
956.8  790711.95  382046.10  48.32
958.0  789073.65  381229.83  48.31
959.1  788810.40  380661.12  48.26
960.3  788100.00  380082.50  48.23
961.4  788741.00  380201.50  48.20
962.6  788241.60  379552.32  48.15
963.7  788249.00  379545.60  48.15
964.9  788464.85  379151.39  48.09
966.0  788956.00  379425.55  48.09
967.2  789432.00  379354.08  48.05
968.3  790514.65  379710.72  48.03
969.5  790302.38  379798.36  48.06
970.6  790807.85  379540.94  47.99
971.8  789955.95  379567.16  48.05
972.9  790608.00  379466.50  48.00
974.0  791183.90  379715.35  47.99
975.2  790121.25  379147.50  47.99
976.3  790852.35  379259.58  47.96
977.5  789272.70  378820.19  48.00
978.6  789204.53  378753.15  47.99
979.7  788233.60  378593.60  48.03
980.9  789257.18  378403.44  47.94
982.0  788567.60  378083.03  47.95
983.2  787431.40  377592.60  47.95
984.3  785508.50  376380.27  47.92
985.4  784858.90  376308.66  47.95
986.6  785643.70  376808.73  47.96
987.7  784178.00  376193.50  47.97
988.9  786086.00  377040.54  47.96
990.0  784214.50  376127.03  47.96
993.1  863705.40  413255.58  47.85
996.9  862691.50  413819.04  47.97
1000.7  861873.38  414267.95  48.07
1004.5  860453.60  414420.19  48.16
1008.4  861072.44  415602.70  48.27
1012.2  861815.54  416768.17  48.36
1016.0  861120.33  417286.85  48.46
1019.8  859338.12  417176.04  48.55
1023.7  857503.12  416888.22  48.62
1027.5  854598.93  416128.32  48.69
1031.3  852623.99  415676.17  48.75
1035.1  851299.88  415442.16  48.80
1038.9  850689.56  415477.79  48.84
1042.7  850215.48  415593.72  48.88
1046.5  849422.00  415456.50  48.91
1050.3  847697.48  414866.19  48.94
1054.2  845544.98  414065.67  48.97
1058.0  844671.60  413727.17  48.98
1061.8  843382.50  413326.77  49.01
1065.6  841272.88  412324.61  49.01
1069.4  838815.58  411150.79  49.02
1073.2  836543.50  410029.29  49.01
1077.0  834900.00  409180.52  49.01
1080.8  834485.67  408773.36  48.99
1084.6  834146.50  408453.57  48.97
1088.4  833486.28  408016.62  48.95
1092.2  832237.70  407183.05  48.93
1096.0  830697.27  406211.91  48.90
1099.8  829224.63  405145.82  48.86
1103.6  827295.50  403888.73  48.82
1107.4  825585.42  402703.21  48.78
1111.2  824101.82  401570.94  48.73
1114.9  822993.00  400602.22  48.68
1118.7  822487.08  399707.52  48.60
1122.5  822517.26  398888.59  48.50
1126.3  820064.70  396702.90  48.37
1130.1  819476.88  394987.43  48.20
1133.9  816021.74  391409.62  47.97
1137.7  813246.00  387821.49  47.69
1141.4  809472.13  383300.86  47.35
1145.2  808395.75  379793.48  46.98
1149.0  806295.45  375936.05  46.63
1152.8  802860.55  371709.08  46.30
1156.6  799291.27  367978.02  46.04
1160.3  796078.05  364922.52  45.84
1164.1  791506.53  361661.47  45.69
1167.9  788423.58  359488.40  45.60
1171.7  785823.00  357718.20  45.52
1175.4  783247.29  356080.22  45.46
1179.2  781071.00  354610.77  45.40
1183.0  781187.50  354212.73  45.34
1186.7  781386.67  353797.50  45.28
1190.5  780182.17  352850.03  45.23
1194.3  777368.67  351275.15  45.19
1198.0  774201.75  349714.88  45.17
1201.8  771591.33  348513.00  45.17
1205.6  770031.38  347932.58  45.18
1209.3  769026.00  347737.18  45.22
1213.1  767791.17  347536.65  45.26
1216.8  766058.13  347265.83  45.33
1220.6  763758.00  346824.25  45.41
1224.3  761429.17  346333.04  45.48
1228.1  759173.68  345941.02  45.57
1231.9  756724.80  345326.61  45.63
1235.6  754180.90  344619.77  45.69
1239.4  751745.95  344005.51  45.76
1243.1  749513.70  343291.70  45.80
1246.9  747473.01  342608.01  45.84
1250.6  745352.67  341809.83  45.86
1254.3  743294.40  341032.63  45.88
1258.1  741068.67  340127.29  45.90
1261.8  738548.53  339028.10  45.90
1265.6  736174.63  337917.72  45.90
1269.3  734141.33  336837.37  45.88
1273.1  734662.93  336878.65  45.85
1276.8  734579.00  336539.11  45.81
1280.6  733450.36  335751.23  45.78
1284.3  730620.27  334081.69  45.73
1288.0  728755.63  332732.24  45.66
1291.8  727385.40  331411.50  45.56
1295.5  725889.91  329960.69  45.46
1299.2  723549.45  328011.59  45.33
1302.9  720591.39  325575.45  45.18
1306.7  717436.13  322850.14  45.00
1310.4  714354.57  319889.75  44.78
1314.1  711751.88  316998.89  44.54
1317.9  709126.60  313817.24  44.25
1321.6  706346.55  310265.80  43.93
1325.3  703443.83  306428.21  43.56
1329.0  700735.93  302517.60  43.17
1332.8  697015.00  297912.86  42.74
1336.5  693528.38  293366.07  42.30
1340.2  691716.95  289528.93  41.86
1343.9  691171.58  286218.49  41.41
1347.6  691075.03  283154.88  40.97
1351.4  691613.75  280489.56  40.56
1355.1  693887.06  278594.03  40.15
1358.8  694000.05  275712.27  39.73
1362.5  694429.28  272664.16  39.26
1366.2  691742.75  267942.92  38.73
1369.9  686239.00  261492.22  38.11
1373.6  681462.93  254303.80  37.32
1377.3  679247.70  246641.58  36.31
1381.0  677258.68  237183.43  35.02
1384.8  673523.05  225038.57  33.41
1388.4  668314.90  211017.59  31.57
1392.2  663715.28  196182.07  29.56
1395.9  661888.43  181764.83  27.46
1399.6  657741.39  167301.72  25.44
1403.3  655129.20  154398.60  23.57
1407.0  652323.38  143021.41  21.92
1410.7  650407.87  133595.13  20.54
1414.3  647802.00  125768.58  19.41
1418.1  645203.13  119585.94  18.53
1421.7  642915.00  114743.45  17.85
1425.4  641160.05  111108.61  17.33
1429.1  637355.25  108021.38  16.95
1432.8  635859.08  106115.61  16.69
1436.5  632497.13  104436.43  16.51
1440.2  629157.33  103272.90  16.41
1443.9  627025.32  102626.07  16.37
1447.6  623465.60  102017.49  16.36
1451.2  620349.10  101650.18  16.39
1454.9  618485.70  101673.68  16.44
1458.6  614641.08  101662.49  16.54
1462.3  613710.40  102434.49  16.69
1466.0  613700.88  103737.22  16.90
1469.7  611872.80  105158.90  17.19
1473.3  609609.00  106837.50  17.53
1477.0  605268.26  108445.54  17.92
1480.7  602015.83  110412.18  18.34
1484.4  598260.43  112331.35  18.78
1488.0  595111.10  114482.13  19.24
1491.7  591583.99  116542.44  19.70
1495.4  588084.97  118635.82  20.17
1499.0  585150.15  120758.76  20.64
1502.7  582368.54  122927.97  21.11
1506.4  579626.65  125003.93  21.57
1510.0  576818.13  127036.70  22.02
1513.7  574068.58  128983.88  22.47
1517.4  571519.90  130886.80  22.90
1521.0  569106.08  132739.59  23.32
1524.7  566618.99  134427.73  23.72
1528.3  564225.95  136076.62  24.12
1532.0  561607.75  137572.87  24.50
1535.7  558906.75  138882.22  24.85
1539.3  556364.37  140173.37  25.19
1543.0  554673.88  141617.44  25.53
1546.6  553289.50  143058.58  25.86
1550.3  551672.14  144354.30  26.17
1553.9  549324.33  145364.12  26.46
1557.6  547067.48  146363.18  26.75
1561.2  544628.33  147161.82  27.02
1564.9  541901.63  147883.61  27.29
1568.5  539170.67  148512.00  27.54
1572.2  536793.37  149198.18  27.79
1575.8  534863.00  149988.96  28.04
1579.5  532970.27  150719.93  28.28
1583.1  530680.15  151316.43  28.51
1586.8  528453.67  151893.99  28.74
1590.4  526147.70  152401.51  28.97
1594.0  523760.65  152866.40  29.19
1597.7  521809.73  153452.61  29.41
1601.3  519739.20  153996.04  29.63
1604.9  517317.17  154356.80  29.84
1608.6  514473.30  154496.41  30.03
1612.2  511557.38  154547.68  30.21
1615.8  508981.20  154672.71  30.39
1619.5  506674.58  154832.09  30.56
1623.1  503922.38  154787.57  30.72
1626.7  501104.65  154657.33  30.86
1630.3  498538.20  154543.76  31.00
1634.0  496167.64  154407.34  31.12
1637.6  493926.67  154224.11  31.22
1641.2  491727.02  153860.73  31.29
1644.8  489173.21  153287.48  31.34
1648.5  486525.90  152559.70  31.36
1652.1  484388.15  151848.84  31.35
1655.7  482537.75  151110.10  31.32
1659.3  480705.75  150367.39  31.28
1662.9  477487.83  149183.53  31.24
1666.6  473944.90  147970.12  31.22
1670.2  470630.60  146881.65  31.21
1673.8  467381.28  145807.33  31.20
1677.4  464826.38  144928.74  31.18
1681.0  463148.53  144198.72  31.13
1684.6  462235.58  143555.70  31.06
1688.2  460751.20  142545.00  30.94
1691.8  459048.52  141536.37  30.83
1695.4  458185.59  140697.36  30.71
1699.0  457282.05  139785.72  30.57
1702.6  456717.60  138911.54  30.42
1706.2  455180.40  137706.32  30.25
1709.8  453007.63  136296.52  30.09
1713.4  451419.80  135049.48  29.92
1717.0  449738.55  133814.01  29.75
1720.6  448013.98  132559.97  29.59
1724.2  446581.74  131376.15  29.42
1727.8  445124.09  130290.62  29.27
1731.4  444372.63  129447.05  29.13
1735.0  444325.40  128897.72  29.01
1738.6  443822.63  128113.39  28.87
1742.2  442970.13  127144.73  28.70
1745.8  441326.93  125882.06  28.52
1749.4  439008.01  124362.41  28.33
1753.0  435310.00  122455.29  28.13
1756.6  431480.00  120577.50  27.95
1760.1  428240.00  118888.55  27.76
1763.7  424448.41  117101.54  27.59
1767.3  421330.13  115626.71  27.44
1770.9  418667.17  114337.56  27.31
1774.5  415578.61  113016.79  27.20
1778.0  413370.52  112011.29  27.10
1781.6  411138.71  111093.72  27.02
1785.2  408525.83  110162.08  26.97
1788.8  405755.63  109304.87  26.94
1792.3  403462.95  108669.75  26.93
1795.9  402906.72  108556.47  26.94
1799.5  403559.23  108793.90  26.96
1803.1  406231.75  109646.55  26.99
1806.6  409037.02  110497.07  27.01
1810.2  411292.35  111162.04  27.03
1813.8  410891.93  111127.79  27.05
1817.3  410019.50  110956.73  27.06
1820.9  408856.25  110689.96  27.07
1824.5  407725.99  110393.05  27.08
1828.0  408035.17  110401.35  27.06
1831.6  409134.73  110562.40  27.02
1835.2  408980.29  110213.83  26.95
1838.7  409437.00  109821.38  26.82
1842.3  407813.00  108675.00  26.65
1845.8  405903.48  107132.20  26.39
1849.4  405303.73  105556.30  26.04
1852.9  403422.92  103177.24  25.58
1856.5  401787.64  100298.79  24.96
1860.0  401269.20  97035.46  24.18
1863.6  400752.21  93050.37  23.22
1867.1  401200.84  88527.50  22.07
1870.7  402597.56  83157.34  20.66
1874.2  401181.99  76233.97  19.00
1877.8  396410.08  68261.13  17.22
1881.3  391763.73  60083.25  15.34
1884.9  388512.15  52391.53  13.49
1888.4  385701.79  45125.55  11.70
1891.9  383317.54  38821.51  10.13
1895.5  381368.40  33654.18  8.82
1899.0  380268.38  29765.37  7.83
1901.3  407450.67  22443.60  5.51
1904.1  407462.50  20152.88  4.95
1906.8  405516.58  18394.57  4.54
1909.6  401592.40  16889.40  4.21
1912.4  397636.55  15667.26  3.94
1915.1  393445.43  14806.08  3.76
1917.9  389385.60  14153.20  3.63
1920.6  386300.07  13646.25  3.53
1923.3  383559.73  13304.30  3.47
1926.1  379938.30  13013.55  3.43
1928.8  375923.60  12844.00  3.42
1931.6  374530.97  12822.68  3.42
1934.3  370585.77  12757.09  3.44
1937.0  366487.20  12816.90  3.50
1939.8  362973.38  12914.74  3.56
1942.5  358264.83  12970.35  3.62
1945.2  354410.33  13125.42  3.70
1947.9  351412.97  13365.19  3.80
1950.7  347097.70  13534.97  3.90
1953.4  343521.70  13792.87  4.02
1956.1  340800.70  14104.80  4.14
1958.8  338577.75  14471.63  4.27
1961.5  335643.35  14816.90  4.41
1964.2  332237.13  15163.17  4.56
1966.9  329229.87  15536.67  4.72
1969.6  326492.93  15934.67  4.88
1972.3  323970.60  16377.27  5.06
1975.0  321428.67  16822.67  5.23
1977.7  319228.47  17328.31  5.43
1980.4  317014.13  17812.67  5.62
1983.1  314673.33  18308.27  5.82
1985.8  312548.40  18808.80  6.02
1988.4  310520.65  19322.33  6.22
1991.1  308702.10  19863.55  6.43
1993.8  307220.20  20431.95  6.65
1996.5  305697.70  20990.20  6.87
1999.1  304323.35  21535.67  7.08
2001.8  303059.40  22115.92  7.30
2004.5  301882.90  22689.28  7.52
2007.1  300389.27  23229.67  7.73
2009.8  298430.42  23703.75  7.94
2012.4  297168.62  24184.83  8.14
2015.1  295997.27  24673.25  8.34
2017.8  294857.58  25153.54  8.53
2020.4  293702.90  25613.63  8.72
2023.1  293244.72  26097.20  8.90
2025.7  292983.45  26595.50  9.08
2028.3  292158.78  26997.53  9.24
2031.0  291593.63  27384.74  9.39
2033.6  291309.25  27805.00  9.54
2036.2  290920.23  28159.60  9.68
2038.9  289952.00  28444.00  9.81
2041.5  289020.83  28687.50  9.93
2044.1  288187.50  28947.92  10.04
2046.8  287061.83  29143.34  10.15
2049.4  286186.33  29338.54  10.25
2052.0  285981.85  29617.98  10.36
2054.6  285600.80  29851.47  10.45
2057.2  284532.85  30006.78  10.55
2059.8  283059.00  30124.50  10.64
2062.4  281686.38  30264.00  10.74
2065.0  280343.90  30396.20  10.84
2067.6  278481.33  30445.75  10.93
2070.2  276987.97  30561.44  11.03
2072.8  276107.33  30697.33  11.12
2075.4  275060.83  30850.42  11.22
2078.0  274388.13  31047.73  11.32
2080.6  273130.10  31163.28  11.41
2083.2  271830.13  31250.24  11.50
2085.8  270547.20  31341.80  11.58
2088.4  269474.73  31478.88  11.68
2090.9  267782.50  31529.75  11.77
2093.5  265873.60  31511.50  11.85
2096.1  264070.95  31531.50  11.94
2098.7  262590.78  31601.98  12.03
2101.2  260694.80  31607.80  12.12
2103.8  259291.58  31675.25  12.22
2106.4  257821.57  31710.62  12.30
2108.9  256768.80  31806.08  12.39
2111.5  255805.67  31921.75  12.48
2114.0  255233.33  32077.50  12.57
2116.6  253045.10  32017.34  12.65
2119.1  251958.70  32083.45  12.73
2121.7  251392.13  32216.68  12.82
2124.2  251258.00  32400.67  12.90
2126.8  250098.30  32442.10  12.97
2129.3  248983.23  32491.37  13.05
2131.9  249154.93  32713.07  13.13
2134.4  248303.18  32778.78  13.20
2136.9  248022.93  32943.35  13.28
2139.4  246942.00  32997.34  13.36
2142.0  246529.75  33140.44  13.44
2144.5  246022.83  33265.25  13.52
2147.0  245592.45  33423.89  13.61
2149.5  245219.77  33603.60  13.70
2152.1  245582.57  33864.35  13.79
2154.6  245618.40  34069.20  13.87
2157.1  245536.93  34278.90  13.96
2159.6  244508.80  34337.32  14.04
2162.1  244315.93  34505.59  14.12
2164.6  243632.67  34593.02  14.20
2167.1  242714.33  34622.84  14.26
2169.6  242858.55  34843.79  14.35
2172.1  242035.30  34882.05  14.41
2174.6  241655.17  35016.57  14.49
2177.1  240592.50  35029.21  14.56
2179.5  240128.10  35138.34  14.63
2182.0  239820.50  35294.30  14.72
2184.5  238896.05  35315.18  14.78
2187.0  238057.20  35354.42  14.85
2189.5  237041.87  35401.39  14.93
2191.9  235820.38  35439.62  15.03
2194.4  234118.00  35362.63  15.10
2196.9  233045.08  35358.13  15.17
2199.3  231582.70  35311.80  15.25
2201.8  230429.62  35291.61  15.32
2204.3  229677.90  35320.90  15.38
2206.7  228448.65  35271.08  15.44
2209.2  227241.45  35205.30  15.49
2211.6  225285.33  35014.87  15.54
2214.1  224633.73  34998.84  15.58
2216.5  224294.60  35035.98  15.62
2219.0  222939.57  34863.59  15.64
2221.4  222962.40  34878.15  15.64
2223.9  221811.20  34671.44  15.63
2226.3  220523.98  34410.67  15.60
2228.7  219554.40  34174.40  15.57
2231.1  218915.93  33926.83  15.50
2233.6  217899.20  33592.00  15.42
2236.0  216889.62  33231.55  15.32
2238.4  216029.43  32862.78  15.21
2240.9  215309.20  32469.00  15.08
2243.3  214397.48  32018.09  14.93
2245.7  213578.03  31529.63  14.76
2248.1  212603.73  31047.47  14.60
2250.5  211842.40  30569.73  14.43
2252.9  211148.33  30120.10  14.26
2255.3  210418.20  29645.25  14.09
2257.7  209519.57  29150.92  13.91
2260.1  208654.80  28698.20  13.75
2262.5  207575.60  28201.20  13.59
2264.9  206625.03  27750.94  13.43
2267.3  205719.80  27327.30  13.28
2269.7  204789.90  26925.60  13.15
2272.1  203995.83  26555.50  13.02
2274.5  203221.33  26196.50  12.89
2276.8  202565.60  25883.87  12.78
2279.2  201789.10  25564.25  12.67
2281.6  201202.40  25312.28  12.58
2284.0  200831.40  25096.50  12.50
2286.3  200313.87  24874.60  12.42
2288.7  199813.67  24599.42  12.31
2291.1  199256.50  24308.50  12.20
2293.4  198567.60  24038.10  12.11
2295.8  197859.57  23717.74  11.99
2298.2  197033.50  23396.75  11.87
2300.5  195902.05  23037.13  11.76
2302.9  194537.30  22652.90  11.64
2305.2  193100.50  22234.67  11.51
2307.6  191574.13  21848.40  11.40
2309.9  190531.18  21531.21  11.30
2312.2  189526.00  21262.17  11.22
2314.6  188535.83  21022.15  11.15
2316.9  187453.73  20810.10  11.10
2319.2  186759.65  20641.68  11.05
2321.6  186082.55  20449.54  10.99
2323.9  185303.20  20223.70  10.91
2326.2  184421.03  19985.11  10.84
2328.6  183670.10  19768.40  10.76
2330.9  183395.20  19583.40  10.68
2333.2  182993.50  19390.50  10.60
2335.5  182410.58  19194.61  10.52
2337.8  181899.80  18991.90  10.44
2340.1  181307.13  18718.60  10.32
2342.4  180901.35  18553.05  10.26
2344.8  180211.97  18312.58  10.16
2347.1  179413.00  18053.20  10.06
2349.4  178780.53  17847.87  9.98
2351.6  177992.00  17689.00  9.94
2353.9  176942.40  17400.10  9.83
2356.2  176122.12  17170.85  9.75
2358.5  175242.95  16970.40  9.68
2360.8  174562.50  16822.92  9.64
2363.1  174236.25  16665.21  9.56
2365.4  173785.50  16483.50  9.48
2367.7  173171.33  16288.80  9.41
2369.9  172459.47  16022.42  9.29
2372.2  171281.85  15773.20  9.21
2374.5  170042.50  15512.50  9.12
2376.7  169124.40  15278.95  9.03
2379.0  167934.25  15055.43  8.97
2381.3  166503.33  14766.22  8.87
2383.5  165585.00  14519.17  8.77
2385.8  164889.08  14261.04  8.65
2388.0  163955.13  14040.99  8.56
2390.3  163240.83  13817.99  8.46
2392.5  162800.83  13676.21  8.40
2394.8  161878.50  13370.92  8.26
2397.0  161342.93  13140.40  8.14
2399.3  160862.43  12934.28  8.04
2401.5  160077.10  12719.40  7.95
2403.8  159406.20  12433.29  7.80
2406.0  158914.07  12257.48  7.71
2408.2  158105.85  12039.30  7.61
2410.4  157211.77  11788.30  7.50
2412.7  156748.00  11519.40  7.35
2414.9  156177.87  11345.80  7.26
2417.1  156198.60  11164.77  7.15
2419.3  155775.53  10965.85  7.04
2421.6  154864.03  10679.32  6.90
2423.8  154275.57  10484.20  6.80
2426.0  153857.60  10298.90  6.69
2428.2  153557.25  10106.25  6.58
2430.4  153561.37  9914.80  6.46
2432.6  153463.80  9793.65  6.38
2434.8  152806.20  9595.65  6.28
2437.0  152322.30  9409.40  6.18
2439.2  151818.33  9171.07  6.04
2441.4  151034.00  8949.00  5.93
2443.6  151005.13  8809.17  5.83
2445.7  151177.43  8640.57  5.72
2447.9  151060.65  8534.50  5.65
2450.1  150345.17  8289.63  5.51
2452.3  149301.72  8107.64  5.43
2454.5  148735.07  7937.54  5.34
2456.6  148045.58  7737.34  5.23
2458.8  146923.93  7544.37  5.13
2461.0  146564.17  7451.82  5.08
2463.1  146252.67  7255.17  4.96
2465.3  145696.67  7157.67  4.91
2467.5  145270.67  6998.34  4.82
2469.6  144813.92  6892.34  4.76
2471.8  144387.30  6766.97  4.69
2473.9  143834.17  6653.30  4.63
2476.1  142977.08  6545.00  4.58
2478.2  142125.13  6499.63  4.57
2480.4  141355.32  6345.43  4.49
2482.5  140563.92  6197.78  4.41
2484.6  139482.00  5986.00  4.29
2486.8  138831.73  5895.37  4.25
2488.9  138340.60  5851.90  4.23
2491.1  136881.30  5692.77  4.16
2493.2  135588.53  5678.20  4.19
2495.3  134131.75  5556.27  4.14
2497.4  132937.82  5426.04  4.08
2499.5  131975.03  5273.69  4.00
2501.7  132039.50  5384.75  4.08
2503.8  132373.03  5372.73  4.06
2505.9  133013.25  5291.93  3.98
2508.0  133945.08  5363.71  4.00
2510.1  134665.20  5459.40  4.05
2512.2  135507.33  5351.71  3.95
2514.3  136865.52  5438.01  3.97
2516.4  138747.35  5655.16  4.08
