/*** Spectra Vista SIG Data ***/
name= 38_20221021_ACRU_21_avg.sig
comm= Averaged Ref/Tar of files: HR.102122.0030_moc.sig,HR.102122.0031_moc.sig,HR.102122.0032_moc.sig
data=
337.3  3126.38  279.79  8.95
338.8  3222.70  277.61  8.61
340.3  3420.05  276.64  8.09
341.8  3612.28  263.90  7.31
343.2  3818.40  262.17  6.87
344.7  3966.45  265.65  6.70
346.2  4125.85  269.22  6.53
347.7  4286.43  271.16  6.33
349.2  4460.40  269.28  6.04
350.6  4737.53  270.02  5.70
352.1  5037.23  261.30  5.19
353.6  5309.10  261.74  4.93
355.1  5590.05  261.70  4.68
356.6  5866.73  278.43  4.75
358.0  6124.80  282.54  4.61
359.5  6396.30  287.81  4.50
361.0  6733.13  289.56  4.30
362.5  7084.55  311.15  4.39
364.0  7426.83  304.77  4.10
365.4  7783.70  314.18  4.04
366.9  8149.38  328.87  4.04
368.4  8482.53  348.08  4.10
369.9  8864.20  360.85  4.07
371.3  9291.60  388.04  4.18
372.8  9717.30  405.08  4.17
374.3  10105.00  400.31  3.96
375.8  10510.50  407.59  3.88
377.2  10921.40  416.57  3.81
378.7  11324.90  422.71  3.73
380.2  11728.40  432.45  3.69
381.7  12215.30  441.67  3.62
383.1  12666.50  449.17  3.55
384.6  13163.80  461.91  3.51
386.1  13620.60  468.95  3.44
387.6  14067.90  482.53  3.43
389.0  14498.80  496.69  3.43
390.5  15000.75  505.21  3.37
392.0  15552.60  518.92  3.34
393.4  16106.58  538.01  3.34
394.9  16651.80  552.33  3.32
396.4  17181.00  558.41  3.25
397.9  17706.88  568.14  3.21
399.3  18234.00  582.23  3.19
400.8  18768.53  595.35  3.17
402.2  19394.50  615.39  3.17
403.7  20006.33  639.25  3.20
405.2  20620.93  652.53  3.16
406.6  21158.40  666.83  3.15
408.1  21741.20  679.29  3.12
409.6  22323.15  697.80  3.13
411.0  23015.30  720.21  3.13
412.5  23678.03  742.16  3.13
414.0  24307.38  759.50  3.12
415.4  24982.88  779.86  3.12
416.9  25635.75  806.98  3.15
418.4  26313.08  830.95  3.16
419.8  27045.20  856.96  3.17
421.3  27753.53  884.46  3.19
422.7  28518.60  908.45  3.19
424.2  29261.25  937.61  3.20
425.7  30024.60  962.79  3.21
427.1  30795.45  988.69  3.21
428.6  31589.00  1016.21  3.22
430.0  32322.75  1043.17  3.23
431.5  33163.35  1077.44  3.25
432.9  34017.30  1104.19  3.25
434.4  34895.70  1134.27  3.25
435.9  35742.00  1163.20  3.25
437.3  36602.50  1194.81  3.26
438.8  37453.43  1225.89  3.27
440.2  38282.48  1255.36  3.28
441.7  39248.60  1295.84  3.30
443.1  40134.25  1330.05  3.31
444.6  41107.80  1369.64  3.33
446.0  42051.98  1407.73  3.35
447.5  43001.48  1449.82  3.37
448.9  43937.40  1489.03  3.39
450.4  44923.55  1539.45  3.43
451.8  45786.00  1580.06  3.45
453.3  46716.98  1624.79  3.48
454.7  47719.85  1672.35  3.50
456.2  48575.43  1710.43  3.52
457.6  49542.30  1750.53  3.53
459.1  50515.08  1791.64  3.55
460.5  51453.63  1825.62  3.55
462.0  52504.05  1870.57  3.56
463.4  53553.30  1912.78  3.57
464.8  54528.75  1953.60  3.58
466.3  55482.90  1988.08  3.58
467.7  56454.83  2023.85  3.58
469.2  57524.53  2065.41  3.59
470.6  58504.20  2105.63  3.60
472.0  59537.25  2147.71  3.61
473.5  60553.88  2191.12  3.62
474.9  61588.50  2234.40  3.63
476.4  62726.40  2280.14  3.64
477.8  63785.50  2331.32  3.65
479.2  64771.50  2375.51  3.67
480.7  65861.25  2429.04  3.69
482.1  66975.75  2476.04  3.70
483.6  68160.65  2535.49  3.72
485.0  69233.93  2588.96  3.74
486.4  70407.45  2652.53  3.77
487.9  71472.38  2721.64  3.81
489.3  72608.98  2792.14  3.85
490.7  73654.45  2872.92  3.90
492.2  74867.10  2963.80  3.96
493.6  75960.25  3065.62  4.04
495.0  77073.75  3175.44  4.12
496.5  78247.10  3306.21  4.23
497.9  79333.05  3452.12  4.35
499.3  80492.38  3611.17  4.49
500.7  81732.35  3807.05  4.66
502.2  82884.20  4023.48  4.85
503.6  84125.20  4279.33  5.09
505.0  85204.40  4555.45  5.35
506.5  86507.63  4887.29  5.65
507.9  87645.40  5257.65  6.00
509.3  88977.60  5676.43  6.38
510.7  90192.38  6146.40  6.81
512.2  91583.33  6672.01  7.29
513.6  93059.75  7253.99  7.79
515.0  94482.45  7884.17  8.34
516.4  95865.53  8560.62  8.93
517.8  97476.63  9298.82  9.54
519.3  98806.50  10050.35  10.17
520.7  100373.20  10846.33  10.81
522.1  101654.15  11637.32  11.45
523.5  102999.00  12432.69  12.07
524.9  104471.55  13226.73  12.66
526.3  105888.65  13989.75  13.21
527.8  107350.65  14735.73  13.73
529.2  108367.70  15414.55  14.22
530.6  109892.25  16126.75  14.68
532.0  111608.00  16822.93  15.07
533.4  112930.43  17420.99  15.43
534.8  113787.90  17907.66  15.74
536.3  115377.60  18476.24  16.01
537.7  117343.80  19076.16  16.26
539.1  118813.00  19578.20  16.48
540.5  119993.90  20020.21  16.68
541.9  121765.28  20550.85  16.88
543.3  123019.10  20994.62  17.07
544.7  124362.60  21458.06  17.25
546.1  126144.70  21993.55  17.44
547.5  127388.80  22423.89  17.60
549.0  128997.00  22911.43  17.76
550.4  130496.25  23355.57  17.90
551.8  132078.23  23787.30  18.01
553.2  133577.20  24159.14  18.09
554.6  134919.20  24446.14  18.12
556.0  136433.70  24705.94  18.11
557.4  138065.90  24931.24  18.06
558.8  139704.30  25115.21  17.98
560.2  141151.88  25216.39  17.86
561.6  142812.08  25303.96  17.72
563.0  144408.35  25327.95  17.54
564.4  146012.00  25314.98  17.34
565.8  147538.75  25244.19  17.11
567.2  149296.00  25165.03  16.86
568.6  150781.88  24994.27  16.58
570.0  152201.30  24746.43  16.26
571.4  153915.45  24505.74  15.92
572.8  155683.25  24258.43  15.58
574.2  157315.20  23991.89  15.25
575.6  158872.50  23730.21  14.94
577.0  160392.20  23490.66  14.65
578.4  162105.13  23300.77  14.37
579.8  163622.03  23109.56  14.12
581.2  165348.88  22967.67  13.89
582.5  166771.80  22809.87  13.68
583.9  168291.60  22686.57  13.48
585.3  170074.35  22625.25  13.30
586.7  171560.68  22543.10  13.14
588.1  173035.88  22485.52  12.99
589.5  174685.00  22470.93  12.86
590.9  176315.60  22486.04  12.75
592.3  178109.60  22550.56  12.66
593.7  179566.73  22594.09  12.58
595.0  181178.78  22677.04  12.52
596.4  182620.90  22746.86  12.46
597.8  184109.08  22816.25  12.39
599.2  185644.80  22874.97  12.32
600.6  187389.48  22928.90  12.24
602.0  188674.95  22889.50  12.13
603.3  190458.80  22862.33  12.00
604.7  192120.08  22766.66  11.85
606.1  193600.20  22593.62  11.67
607.5  195228.50  22392.73  11.47
608.9  196924.80  22159.12  11.25
610.2  198322.43  21854.34  11.02
611.6  199919.70  21558.17  10.78
613.0  201476.35  21248.93  10.55
614.4  202841.55  20917.63  10.31
615.8  204296.63  20618.19  10.09
617.1  205829.40  20354.04  9.89
618.5  207451.60  20137.02  9.71
619.9  208964.93  19956.57  9.55
621.3  210567.60  19829.80  9.42
622.6  212158.00  19746.86  9.31
624.0  213627.15  19700.66  9.22
625.4  215092.35  19699.15  9.16
626.8  216659.63  19744.27  9.11
628.1  217917.98  19797.28  9.08
629.5  219683.35  19917.19  9.07
630.9  221161.60  20006.66  9.05
632.2  222406.45  20058.31  9.02
633.6  223926.50  20080.29  8.97
635.0  225354.40  20024.73  8.89
636.3  226872.20  19874.24  8.76
637.7  228203.25  19620.84  8.60
639.1  229845.00  19294.00  8.39
640.4  231330.40  18873.53  8.16
641.8  232527.13  18368.24  7.90
643.2  234072.65  17850.59  7.63
644.5  235425.00  17291.27  7.34
645.9  237008.70  16749.44  7.07
647.2  238036.93  16208.66  6.81
648.6  239557.50  15768.77  6.58
650.0  240904.80  15379.61  6.38
651.3  241808.05  15023.20  6.21
652.7  243984.25  14779.22  6.06
654.0  246106.30  14529.94  5.90
655.4  247450.38  14221.14  5.75
656.8  247520.80  13813.27  5.58
658.1  248860.10  13429.75  5.40
659.5  251237.18  13050.07  5.19
660.8  252765.00  12611.14  4.99
662.2  253769.60  12134.83  4.78
663.5  255345.20  11706.59  4.58
664.9  256382.10  11306.78  4.41
666.2  257164.80  10962.57  4.26
667.6  258858.38  10733.86  4.15
668.9  259803.35  10556.29  4.06
670.3  261563.75  10448.06  3.99
671.6  262668.00  10389.90  3.96
673.0  263862.75  10389.06  3.94
674.3  265133.70  10437.51  3.94
675.7  266423.18  10526.62  3.95
677.0  267471.60  10644.58  3.98
678.4  268771.08  10827.91  4.03
679.7  269850.30  11056.13  4.10
681.1  271147.23  11366.73  4.19
682.4  272249.90  11775.30  4.33
683.8  273421.20  12328.85  4.51
685.1  274394.25  13077.35  4.77
686.4  275679.60  14134.00  5.13
687.8  276901.25  15597.46  5.63
689.1  278013.75  17578.77  6.32
690.5  279352.65  20184.39  7.23
691.8  280150.88  23464.33  8.38
693.1  281471.55  27498.83  9.77
694.5  282623.25  32148.57  11.38
695.8  283851.75  37293.97  13.14
697.1  285034.75  42774.33  15.01
698.5  286110.80  48472.93  16.94
699.8  287178.88  54272.29  18.90
701.1  288357.98  60054.63  20.83
702.5  289158.65  65622.22  22.69
703.8  290070.00  71002.71  24.48
705.1  291211.05  76166.83  26.16
706.5  292217.50  81032.87  27.73
707.8  293209.65  85626.47  29.20
709.1  294064.90  89917.87  30.58
710.5  295181.15  94076.70  31.87
711.8  296010.20  97939.48  33.09
713.1  296991.40  101678.66  34.24
714.4  297905.70  105216.92  35.32
715.8  298730.80  108570.84  36.34
717.1  300026.40  111955.19  37.32
718.4  300966.40  115070.72  38.23
719.7  302086.48  118089.22  39.09
721.0  302580.00  120764.57  39.91
722.4  303342.60  123400.90  40.68
723.7  304302.75  125979.73  41.40
725.0  305287.65  128452.52  42.08
726.3  306243.03  130772.90  42.70
727.6  306768.00  132800.63  43.29
729.0  307676.43  134859.26  43.83
730.3  308465.93  136752.71  44.33
731.6  309330.30  138564.44  44.79
732.9  310116.10  140222.34  45.22
734.2  310887.50  141788.30  45.61
735.5  311917.98  143359.56  45.96
736.8  312674.10  144741.09  46.29
738.1  313520.20  146049.94  46.58
739.5  314468.40  147328.90  46.85
740.8  315189.05  148403.35  47.08
742.1  315856.48  149407.41  47.30
743.4  316450.00  150340.48  47.51
744.7  317356.05  151333.40  47.69
746.0  318218.55  152244.86  47.84
747.3  318781.73  152972.05  47.99
748.6  319506.00  153712.79  48.11
749.9  320164.00  154368.19  48.22
751.2  320729.75  154970.88  48.32
752.5  321488.10  155617.90  48.41
753.8  322000.18  156122.70  48.49
755.1  322660.00  156651.24  48.55
756.4  323232.90  157113.62  48.61
757.7  324190.48  157761.70  48.66
759.0  325950.53  158759.16  48.71
760.3  327096.00  159442.42  48.74
761.6  328616.40  160280.96  48.77
762.9  329132.00  160610.06  48.80
764.2  329444.30  160840.99  48.82
765.5  329677.98  161023.70  48.84
766.8  330044.80  161257.14  48.86
768.1  330498.80  161529.00  48.87
769.3  331108.75  161845.72  48.88
770.6  331710.60  162169.09  48.89
771.9  332380.48  162513.40  48.89
773.2  332706.00  162701.17  48.90
774.5  333247.20  162985.68  48.91
775.8  333852.20  163299.79  48.91
777.1  334350.50  163564.81  48.92
778.4  334650.53  163718.46  48.92
779.6  335387.18  164071.81  48.92
780.9  335790.00  164285.14  48.92
782.2  336198.50  164502.38  48.93
783.5  336384.50  164632.03  48.94
784.8  336855.60  164865.02  48.94
786.0  337198.75  165029.14  48.94
787.3  337537.90  165187.39  48.94
788.6  337886.03  165372.40  48.94
789.9  338261.00  165572.40  48.95
791.2  338845.15  165866.32  48.95
792.4  339444.65  166164.48  48.95
793.7  339845.00  166364.45  48.95
795.0  340414.80  166641.28  48.95
796.2  341017.90  166936.51  48.95
797.5  341624.55  167238.25  48.95
798.8  342210.88  167533.45  48.96
800.0  342801.08  167817.24  48.95
801.3  343202.70  168001.84  48.95
802.6  343718.10  168269.09  48.96
803.8  344314.85  168549.33  48.95
805.1  344720.25  168761.38  48.96
806.4  345109.80  168956.45  48.96
807.7  345620.93  169187.40  48.95
808.9  346109.70  169434.73  48.95
810.2  346576.65  169641.63  48.95
811.4  347025.40  169861.31  48.95
812.7  347587.50  170157.62  48.95
814.0  348334.75  170529.52  48.96
815.2  348946.50  170824.30  48.95
816.5  349360.60  171009.22  48.95
817.7  349827.40  171227.78  48.95
819.0  350250.45  171459.49  48.95
820.2  350372.00  171516.19  48.95
821.5  351038.30  171842.12  48.95
822.7  351379.28  171996.71  48.95
824.0  351685.80  172147.73  48.95
825.2  352153.58  172374.52  48.95
826.5  352435.13  172503.32  48.95
827.7  352983.75  172747.30  48.94
829.0  353353.70  172931.06  48.94
830.2  353666.40  173081.59  48.94
831.5  354159.30  173301.21  48.93
832.7  354438.00  173461.22  48.94
834.0  354833.50  173626.54  48.93
835.2  355121.53  173802.72  48.94
836.4  355417.70  173950.47  48.94
837.7  355823.00  174138.92  48.94
838.9  356335.25  174349.62  48.93
840.1  356711.18  174533.35  48.93
841.4  357104.40  174727.44  48.93
842.6  357493.00  174938.03  48.93
843.8  357870.20  175116.89  48.93
845.1  358414.65  175392.25  48.94
846.3  358857.10  175582.44  48.93
847.5  359249.10  175769.00  48.93
848.8  359614.20  175948.72  48.93
850.0  359986.90  176136.00  48.93
851.2  360586.35  176395.83  48.92
852.5  360980.20  176608.22  48.92
853.7  361550.25  176866.03  48.92
854.9  362029.70  177091.34  48.92
856.1  362467.30  177275.95  48.91
857.4  362660.28  177375.94  48.91
858.6  363158.50  177615.20  48.91
859.8  363594.38  177816.71  48.91
861.0  364127.40  178052.61  48.90
862.2  364614.75  178288.59  48.90
863.5  365014.65  178462.55  48.89
864.7  365468.40  178719.07  48.90
865.9  365972.40  178880.69  48.88
867.1  366226.85  179043.30  48.89
868.3  366690.15  179240.80  48.88
869.5  367205.10  179474.94  48.88
870.8  367812.00  179742.94  48.87
872.0  368298.98  179977.25  48.87
873.2  368789.85  180167.75  48.85
874.4  369208.13  180354.83  48.85
875.6  369597.58  180552.86  48.85
876.8  370022.20  180755.85  48.85
878.0  370527.70  180978.39  48.84
879.2  371098.50  181205.01  48.83
880.4  371629.50  181445.54  48.82
881.6  372045.43  181662.27  48.83
882.8  372616.80  181829.07  48.80
884.0  373138.25  182097.73  48.80
885.2  373689.70  182295.73  48.78
886.5  374147.35  182558.83  48.79
887.7  374594.03  182759.32  48.79
888.8  375231.53  183040.28  48.78
890.0  375809.25  183249.99  48.76
891.2  376392.90  183509.22  48.75
892.4  377059.20  183776.54  48.74
893.6  377595.65  184022.99  48.74
894.8  378390.25  184404.91  48.73
896.0  379234.25  184758.13  48.72
897.2  380029.00  185145.88  48.72
898.4  380862.90  185414.37  48.68
899.6  381325.13  185629.57  48.68
900.8  381638.50  185778.93  48.68
902.0  381811.50  185860.77  48.68
903.2  382008.00  185949.84  48.68
904.3  382267.20  186060.61  48.67
905.5  382829.38  186270.38  48.66
906.7  383516.50  186529.14  48.64
907.9  383910.10  186718.47  48.64
909.1  384189.75  186822.21  48.63
910.2  384407.55  186879.16  48.61
911.4  384479.55  186897.97  48.61
912.6  384584.20  186916.12  48.60
913.8  384708.45  186966.36  48.60
915.0  385095.90  187113.22  48.59
916.2  385320.00  187124.04  48.56
917.3  385296.53  187054.71  48.55
918.5  385356.20  187133.36  48.56
919.7  385441.50  187144.28  48.55
920.8  385373.43  187109.16  48.55
922.0  385654.50  187048.40  48.50
923.2  385885.50  187070.00  48.48
924.4  386066.25  187111.99  48.47
925.5  386105.60  187202.96  48.48
926.7  386548.13  187403.47  48.48
927.9  387238.80  187690.80  48.47
929.0  388623.15  188279.13  48.45
930.2  390860.40  189268.95  48.42
931.4  393328.58  190381.33  48.40
932.5  396071.50  191611.24  48.38
933.7  397356.55  192191.47  48.37
934.9  397888.75  192390.75  48.35
936.0  397346.63  192013.75  48.32
937.2  395094.60  190878.88  48.31
938.3  393303.95  189914.24  48.29
939.5  391698.00  189046.35  48.26
940.7  391932.00  189047.43  48.23
941.8  392952.00  189639.44  48.26
943.0  394529.25  190172.30  48.20
944.2  395254.60  190425.67  48.18
945.3  394767.75  190080.61  48.15
946.5  393877.35  189533.65  48.12
947.6  393795.50  189432.30  48.10
948.8  393676.73  189209.48  48.06
949.9  393813.00  189109.20  48.02
951.1  393229.53  188657.74  47.98
952.2  393108.00  188422.17  47.93
953.4  392738.75  188032.99  47.88
954.5  392347.80  187827.12  47.87
955.7  392414.40  187582.08  47.80
956.8  392002.10  187257.03  47.77
958.0  391390.50  186886.93  47.75
959.1  391181.43  186573.54  47.69
960.3  390727.53  186240.33  47.67
961.4  390525.75  185969.11  47.62
962.6  390313.00  185831.37  47.61
963.7  390066.75  185624.58  47.59
964.9  389841.83  185442.93  47.57
966.0  389620.13  185298.26  47.56
967.2  389621.25  185211.92  47.54
968.3  389387.25  184993.51  47.51
969.5  389168.40  184833.69  47.49
970.6  388912.58  184778.50  47.51
971.8  388953.08  184753.78  47.50
972.9  389032.35  184646.89  47.46
974.0  389124.60  184763.57  47.48
975.2  388882.50  184499.89  47.44
976.3  388999.63  184541.35  47.44
977.5  388763.90  184412.54  47.44
978.6  388497.10  184411.81  47.47
979.7  388623.38  184290.20  47.42
980.9  388697.35  184140.59  47.37
982.0  388279.55  183999.12  47.39
983.2  387792.08  183757.83  47.39
984.3  387729.40  183493.66  47.33
985.4  387645.25  183391.74  47.31
986.6  387512.88  183184.71  47.27
987.7  388073.88  183554.75  47.30
988.9  386753.40  183485.45  47.44
990.0  387136.40  183560.59  47.41
993.1  386454.78  182159.97  47.14
996.9  385239.03  181859.28  47.21
1000.7  385286.42  182130.49  47.27
1004.5  385347.67  182407.55  47.34
1008.4  385011.25  182470.25  47.39
1012.2  384744.71  182606.11  47.46
1016.0  384345.00  182614.71  47.51
1019.8  383714.10  182490.00  47.56
1023.7  382641.71  182076.64  47.58
1027.5  381081.00  181472.27  47.62
1031.3  380183.70  181113.41  47.64
1035.1  379228.44  180721.21  47.65
1038.9  378802.78  180580.74  47.67
1042.7  378561.83  180519.15  47.69
1046.5  378440.83  180477.98  47.69
1050.3  378446.59  180493.24  47.69
1054.2  378079.92  180354.58  47.70
1058.0  377677.24  180127.07  47.69
1061.8  377595.08  180104.24  47.70
1065.6  377038.47  179766.66  47.68
1069.4  376372.80  179402.34  47.67
1073.2  375177.92  178763.48  47.65
1077.0  374441.78  178331.35  47.63
1080.8  374492.71  178242.11  47.60
1084.6  374444.93  178122.93  47.57
1088.4  374632.26  178141.52  47.55
1092.2  374107.50  177789.86  47.52
1096.0  373482.58  177357.69  47.49
1099.8  372843.47  176888.99  47.44
1103.6  371949.27  176304.88  47.40
1107.4  370851.33  175587.32  47.35
1111.2  370598.30  175297.47  47.30
1114.9  370125.00  174863.50  47.24
1118.7  369878.85  174500.58  47.18
1122.5  369524.13  174015.40  47.09
1126.3  368631.43  173229.66  46.99
1130.1  368242.93  172563.80  46.86
1133.9  366562.70  171132.40  46.69
1137.7  365017.10  169601.64  46.46
1141.4  362949.93  167702.03  46.21
1145.2  362042.80  166204.76  45.91
1149.0  360743.54  164616.67  45.63
1152.8  358896.45  162878.73  45.38
1156.6  357045.15  161327.10  45.18
1160.3  355266.67  159977.76  45.03
1164.1  352885.80  158541.39  44.93
1167.9  351205.21  157532.89  44.85
1171.7  349886.25  156758.63  44.80
1175.4  348453.67  155968.92  44.76
1179.2  347088.23  155190.62  44.71
1183.0  346740.33  154857.76  44.66
1186.7  346665.67  154674.77  44.62
1190.5  346231.27  154357.72  44.58
1194.3  345315.73  153803.44  44.54
1198.0  343835.80  153048.14  44.51
1201.8  342132.23  152246.47  44.50
1205.6  341007.67  151783.72  44.51
1209.3  340443.72  151644.51  44.54
1213.1  339972.38  151551.60  44.58
1216.8  339351.28  151457.87  44.63
1220.6  338245.60  151154.67  44.69
1224.3  336998.33  150779.93  44.74
1228.1  335523.00  150300.11  44.80
1231.9  333945.83  149724.03  44.83
1235.6  332185.95  149048.28  44.87
1239.4  330612.38  148486.48  44.91
1243.1  329247.62  147947.82  44.94
1246.9  327959.37  147417.47  44.95
1250.6  326924.67  146953.42  44.95
1254.3  325721.28  146436.45  44.96
1258.1  324499.00  145881.10  44.96
1261.8  323028.53  145212.88  44.95
1265.6  321792.28  144619.84  44.94
1269.3  320948.78  144171.99  44.92
1273.1  321288.21  144219.65  44.89
1276.8  321128.40  144001.37  44.84
1280.6  320099.27  143393.04  44.80
1284.3  318127.20  142347.31  44.75
1288.0  316809.95  141567.01  44.69
1291.8  316241.49  141063.52  44.61
1295.5  315455.07  140442.97  44.52
1299.2  314316.85  139611.53  44.42
1302.9  312728.57  138512.81  44.29
1306.7  310969.52  137289.25  44.15
1310.4  309291.48  136007.16  43.97
1314.1  307711.43  134728.37  43.78
1317.9  306326.25  133433.57  43.56
1321.6  304775.22  132000.39  43.31
1325.3  303099.30  130423.88  43.03
1329.0  301815.27  128973.87  42.73
1332.8  299868.80  127157.80  42.40
1336.5  298219.07  125465.83  42.07
1340.2  298161.50  124427.33  41.73
1343.9  298296.25  123459.08  41.39
1347.6  298818.45  122639.89  41.04
1351.4  300824.00  122474.36  40.71
1355.1  303571.40  122601.60  40.39
1358.8  305776.00  122454.86  40.05
1362.5  306273.63  121492.74  39.67
1366.2  304039.90  119274.67  39.23
1369.9  300482.00  116279.84  38.70
1373.6  297560.26  113167.34  38.03
1377.3  296232.90  110109.77  37.17
1381.0  295833.83  106704.62  36.07
1384.8  293686.25  101852.68  34.68
1388.4  290209.38  95982.20  33.07
1392.2  287907.75  90080.45  31.29
1395.9  286366.75  84218.24  29.41
1399.6  284415.28  78389.73  27.56
1403.3  282767.53  73082.65  25.85
1407.0  280841.60  68312.94  24.32
1410.7  278858.25  64274.22  23.05
1414.3  276779.01  60967.78  22.03
1418.1  274974.75  58422.90  21.25
1421.7  273449.87  56488.02  20.66
1425.4  272017.20  55027.10  20.23
1429.1  270753.75  53957.46  19.93
1432.8  269029.50  53097.12  19.74
1436.5  268166.78  52609.00  19.62
1440.2  267466.47  52326.24  19.56
1443.9  266286.26  52080.77  19.56
1447.6  264649.00  51838.60  19.59
1451.2  263354.85  51727.97  19.64
1454.9  261867.75  51639.86  19.72
1458.6  260648.18  51727.77  19.85
1462.3  259475.33  51976.68  20.03
1466.0  258122.88  52351.68  20.28
1469.7  256389.79  52832.09  20.61
1473.3  255311.33  53578.00  20.99
1477.0  253248.33  54227.42  21.41
1480.7  251551.80  55007.48  21.87
1484.4  249487.97  55717.19  22.33
1488.0  247881.33  56563.05  22.82
1491.7  246263.56  57374.43  23.30
1495.4  244565.44  58170.94  23.79
1499.0  242976.50  58938.36  24.26
1502.7  241681.00  59769.44  24.73
1506.4  240243.63  60512.17  25.19
1510.0  238788.37  61218.42  25.64
1513.7  237255.96  61858.42  26.07
1517.4  235883.67  62491.29  26.49
1521.0  234629.60  63119.81  26.90
1524.7  233374.92  63682.82  27.29
1528.3  232073.75  64200.14  27.66
1532.0  230849.85  64686.60  28.02
1535.7  229443.83  65065.62  28.36
1539.3  228147.38  65447.91  28.69
1543.0  227159.13  65877.19  29.00
1546.6  226460.00  66354.63  29.30
1550.3  225432.25  66701.37  29.59
1553.9  224364.93  66997.14  29.86
1557.6  223114.47  67202.46  30.12
1561.2  221818.95  67344.62  30.36
1564.9  220486.08  67466.33  30.60
1568.5  219148.42  67540.43  30.82
1572.2  217985.75  67652.76  31.04
1575.8  216874.00  67756.00  31.24
1579.5  215852.25  67866.98  31.44
1583.1  214800.30  67946.18  31.63
1586.8  213472.00  67922.00  31.82
1590.4  212268.20  67909.30  31.99
1594.0  210916.55  67840.22  32.16
1597.7  210048.06  67910.82  32.33
1601.3  209067.08  67946.85  32.50
1604.9  208063.46  67937.94  32.65
1608.6  206729.60  67793.20  32.79
1612.2  205424.18  67628.55  32.92
1615.8  204021.03  67417.40  33.04
1619.5  202793.67  67233.41  33.15
1623.1  201441.23  66998.10  33.26
1626.7  200219.83  66774.55  33.35
1630.3  199036.17  66537.57  33.43
1634.0  197904.00  66282.00  33.49
1637.6  196905.20  66016.88  33.53
1641.2  195871.05  65679.74  33.53
1644.8  194638.57  65218.79  33.51
1648.5  193534.95  64779.39  33.47
1652.1  192577.80  64370.53  33.43
1655.7  191657.40  64011.57  33.40
1659.3  190811.86  63746.88  33.41
1662.9  189394.17  63331.07  33.44
1666.6  187944.73  62922.21  33.48
1670.2  186511.91  62485.28  33.50
1673.8  185039.79  61967.09  33.49
1677.4  183872.35  61498.86  33.45
1681.0  183045.38  61067.40  33.36
1684.6  182632.67  60701.18  33.24
1688.2  181940.70  60147.61  33.06
1691.8  181239.60  59619.25  32.90
1695.4  180808.60  59161.26  32.72
1699.0  180421.73  58726.73  32.55
1702.6  180069.67  58269.09  32.36
1706.2  179426.98  57672.44  32.14
1709.8  178470.12  56978.56  31.93
1713.4  177724.98  56409.04  31.74
1717.0  176808.25  55887.75  31.61
1720.6  175970.25  55442.14  31.51
1724.2  175234.43  55045.53  31.41
1727.8  174504.75  54689.55  31.34
1731.4  174028.25  54428.39  31.28
1735.0  173865.63  54273.50  31.22
1738.6  173642.55  54033.06  31.12
1742.2  173088.51  53627.82  30.98
1745.8  172475.02  53145.31  30.81
1749.4  171515.85  52535.88  30.63
1753.0  170027.87  51757.07  30.44
1756.6  168387.63  50957.30  30.26
1760.1  167024.75  50269.16  30.10
1763.7  165278.00  49489.43  29.94
1767.3  163814.13  48822.31  29.80
1770.9  162550.56  48225.80  29.67
1774.5  161072.45  47588.51  29.54
1778.0  159937.87  47096.34  29.45
1781.6  158847.75  46679.31  29.39
1785.2  157687.38  46294.17  29.36
1788.8  156511.50  45953.61  29.36
1792.3  155288.60  45599.90  29.36
1795.9  154792.73  45465.83  29.37
1799.5  154583.00  45437.81  29.39
1803.1  155601.13  45771.95  29.42
1806.6  157832.27  46457.04  29.43
1810.2  159783.40  47039.13  29.44
1813.8  160852.05  47353.38  29.44
1817.3  160478.40  47238.83  29.44
1820.9  159393.73  46903.33  29.43
1824.5  158063.68  46481.63  29.41
1828.0  157080.92  46133.47  29.37
1831.6  156797.55  45971.44  29.32
1835.2  156697.50  45800.84  29.23
1838.7  156553.07  45535.01  29.09
1842.3  156285.00  45175.71  28.91
1845.8  154950.46  44393.89  28.65
1849.4  154301.23  43677.08  28.31
1852.9  153340.83  42709.60  27.85
1856.5  152189.68  41495.81  27.27
1860.0  151063.95  40059.13  26.52
1863.6  151172.90  38682.37  25.59
1867.1  152103.35  37200.80  24.46
1870.7  153147.00  35338.85  23.08
1874.2  151898.85  32553.71  21.43
1877.8  148878.27  29203.71  19.62
1881.3  145628.88  25713.14  17.66
1884.9  143669.90  22521.99  15.68
1888.4  142068.18  19506.14  13.73
1891.9  140494.40  16819.11  11.97
1895.5  139184.93  14598.35  10.49
1899.0  138653.25  12917.23  9.32
1901.3  180964.50  12574.72  6.95
1904.1  181051.50  11384.25  6.29
1906.8  179916.00  10396.40  5.78
1909.6  177578.10  9558.97  5.38
1912.4  175392.12  8913.33  5.08
1915.1  173829.70  8472.38  4.87
1917.9  172193.17  8161.11  4.74
1920.6  170743.57  7917.37  4.64
1923.3  169162.23  7720.07  4.56
1926.1  167186.00  7586.16  4.54
1928.8  165278.67  7499.55  4.54
1931.6  163768.95  7465.60  4.56
1934.3  162434.48  7482.73  4.61
1937.0  161149.70  7539.81  4.68
1939.8  159780.50  7629.56  4.78
1942.5  158103.00  7707.33  4.87
1945.2  155997.60  7788.73  4.99
1947.9  154282.57  7906.27  5.12
1950.7  152926.47  8067.27  5.28
1953.4  151004.60  8206.63  5.43
1956.1  149489.58  8371.42  5.60
1958.8  148172.27  8571.33  5.78
1961.5  146602.00  8764.53  5.98
1964.2  144999.40  8969.57  6.19
1966.9  143324.85  9161.62  6.39
1969.6  142011.00  9396.00  6.62
1972.3  140557.70  9626.83  6.85
1975.0  139467.15  9876.60  7.08
1977.7  138307.05  10127.41  7.32
1980.4  137128.20  10391.42  7.58
1983.1  135971.28  10657.58  7.84
1985.8  135015.30  10933.00  8.10
1988.4  133960.67  11200.22  8.36
1991.1  132987.87  11476.58  8.63
1993.8  132084.88  11756.00  8.90
1996.5  131438.63  12057.59  9.17
1999.1  130740.68  12347.68  9.44
2001.8  130018.00  12630.57  9.71
2004.5  129326.15  12900.03  9.97
2007.1  128573.60  13168.18  10.24
2009.8  127781.97  13424.83  10.51
2012.4  127173.38  13686.14  10.76
2015.1  126616.47  13934.20  11.01
2017.8  125796.30  14147.16  11.25
2020.4  125294.95  14392.71  11.49
2023.1  124932.97  14633.50  11.71
2025.7  124687.33  14883.56  11.94
2028.3  124332.00  15097.33  12.14
2031.0  123919.85  15291.35  12.34
2033.6  123635.70  15488.90  12.53
2036.2  123366.00  15674.50  12.71
2038.9  122739.60  15805.00  12.88
2041.5  122390.72  15951.50  13.03
2044.1  121826.10  16066.00  13.19
2046.8  121434.60  16193.60  13.34
2049.4  120773.40  16271.90  13.47
2052.0  120458.87  16386.64  13.60
2054.6  120050.00  16482.08  13.73
2057.2  119472.00  16561.31  13.86
2059.8  119131.40  16680.66  14.00
2062.4  118215.43  16715.66  14.14
2065.0  117681.67  16794.20  14.27
2067.6  116759.75  16814.45  14.40
2070.2  116140.87  16869.66  14.53
2072.8  115495.83  16927.77  14.66
2075.4  115053.75  17004.17  14.78
2078.0  114402.92  17039.67  14.89
2080.6  113819.20  17086.67  15.01
2083.2  113098.77  17121.30  15.14
2085.8  112593.55  17174.35  15.25
2088.4  111918.33  17195.55  15.36
2090.9  111090.00  17183.68  15.47
2093.5  110188.23  17156.37  15.57
2096.1  109405.20  17150.92  15.68
2098.7  108614.70  17136.28  15.78
2101.2  107620.87  17094.04  15.88
2103.8  106930.93  17094.04  15.99
2106.4  106241.00  17079.49  16.08
2108.9  105559.80  17070.75  16.17
2111.5  104686.47  17018.36  16.26
2114.0  104031.47  17000.89  16.34
2116.6  103495.00  16995.42  16.42
2119.1  102920.67  16972.27  16.49
2121.7  102418.75  16951.67  16.55
2124.2  102000.17  16954.73  16.62
2126.8  101175.22  16884.49  16.69
2129.3  100768.80  16884.27  16.76
2131.9  100161.60  16857.87  16.83
2134.4  99712.95  16850.40  16.90
2136.9  99306.78  16863.53  16.98
2139.4  98765.80  16849.62  17.06
2142.0  98304.73  16846.66  17.14
2144.5  98033.50  16871.43  17.21
2147.0  97775.33  16901.87  17.29
2149.5  97257.20  16884.00  17.36
2152.1  97082.88  16921.60  17.43
2154.6  97004.27  16957.69  17.48
2157.1  96446.83  16922.25  17.55
2159.6  96038.08  16904.09  17.60
2162.1  95877.60  16916.90  17.64
2164.6  95616.87  16911.89  17.69
2167.1  95286.27  16900.39  17.74
2169.6  94968.53  16881.86  17.78
2172.1  94484.70  16841.60  17.82
2174.6  94149.33  16825.18  17.87
2177.1  93696.68  16796.64  17.93
2179.5  93278.47  16776.21  17.99
2182.0  92770.70  16736.50  18.04
2184.5  92228.78  16686.70  18.09
2187.0  91597.67  16627.82  18.15
2189.5  90907.23  16561.06  18.22
2191.9  90098.00  16469.83  18.28
2194.4  89435.75  16394.17  18.33
2196.9  88665.60  16310.40  18.40
2199.3  87986.00  16236.78  18.45
2201.8  87064.67  16105.42  18.50
2204.3  86583.00  16060.07  18.55
2206.7  85911.70  15970.13  18.59
2209.2  85431.53  15918.76  18.63
2211.6  84773.70  15836.70  18.68
2214.1  84475.50  15807.23  18.71
2216.5  83896.93  15731.09  18.75
2219.0  83549.27  15688.04  18.78
2221.4  83151.25  15622.06  18.79
2223.9  82655.42  15529.50  18.79
2226.3  82139.75  15413.81  18.77
2228.7  81567.15  15269.75  18.72
2231.1  80972.10  15110.70  18.66
2233.6  80360.67  14946.35  18.60
2236.0  79789.50  14772.53  18.51
2238.4  79293.67  14587.42  18.40
2240.9  78821.00  14400.02  18.27
2243.3  78264.73  14188.11  18.13
2245.7  77669.70  13953.22  17.96
2248.1  77181.87  13744.04  17.81
2250.5  76652.03  13530.74  17.65
2252.9  76005.80  13288.89  17.48
2255.3  75421.00  13057.72  17.31
2257.7  74950.00  12843.33  17.14
2260.1  74437.30  12635.31  16.97
2262.5  73800.00  12410.00  16.82
2264.9  73247.72  12196.31  16.65
2267.3  72630.00  11980.00  16.49
2269.7  72129.63  11789.17  16.34
2272.1  71559.07  11605.98  16.22
2274.5  70981.50  11417.60  16.09
2276.8  70497.30  11252.05  15.96
2279.2  69897.75  11078.45  15.85
2281.6  69460.00  10918.98  15.72
2284.0  68972.90  10753.13  15.59
2286.3  68501.33  10599.47  15.47
2288.7  68085.77  10437.92  15.33
2291.1  67529.77  10257.21  15.19
2293.4  67072.13  10085.29  15.04
2295.8  66445.30  9891.43  14.89
2298.2  65836.35  9697.95  14.73
2300.5  65142.90  9504.75  14.59
2302.9  64376.67  9300.00  14.45
2305.2  63633.40  9094.90  14.29
2307.6  62921.35  8917.04  14.17
2309.9  62113.67  8745.44  14.08
2312.2  61504.00  8607.67  14.00
2314.6  60899.40  8490.45  13.94
2316.9  60185.25  8352.45  13.88
2319.2  59597.97  8227.68  13.81
2321.6  58966.95  8085.16  13.71
2323.9  58406.25  7965.28  13.64
2326.2  57863.27  7845.87  13.56
2328.6  57328.70  7722.55  13.47
2330.9  56805.00  7602.00  13.38
2333.2  56313.92  7493.00  13.31
2335.5  55864.70  7400.83  13.25
2337.8  55393.98  7300.32  13.18
2340.1  54811.68  7170.91  13.08
2342.4  54350.83  7066.95  13.00
2344.8  53917.42  6950.28  12.89
2347.1  53330.90  6821.27  12.79
2349.4  52758.82  6712.82  12.72
2351.6  52163.92  6598.98  12.65
2353.9  51647.03  6502.31  12.59
2356.2  51125.55  6399.50  12.52
2358.5  50523.20  6298.13  12.47
2360.8  49929.60  6189.87  12.40
2363.1  49476.72  6098.13  12.33
2365.4  48996.80  6015.37  12.28
2367.7  48507.00  5912.80  12.19
2369.9  47975.50  5801.33  12.09
2372.2  47322.93  5676.00  11.99
2374.5  46719.75  5563.25  11.91
2376.7  46071.70  5444.34  11.82
2379.0  45451.43  5316.43  11.70
2381.3  44811.67  5199.44  11.60
2383.5  44281.60  5096.18  11.51
2385.8  43654.33  4961.61  11.37
2388.0  43105.40  4853.73  11.26
2390.3  42577.60  4742.71  11.14
2392.5  42084.00  4644.00  11.04
2394.8  41611.90  4541.53  10.91
2397.0  41119.87  4436.76  10.79
2399.3  40643.60  4329.14  10.65
2401.5  40180.00  4234.42  10.54
2403.8  39647.35  4130.19  10.42
2406.0  39124.92  4035.41  10.31
2408.2  38721.47  3939.47  10.17
2410.4  38286.38  3849.03  10.05
2412.7  37863.37  3761.62  9.93
2414.9  37507.25  3681.15  9.81
2417.1  37084.00  3589.87  9.68
2419.3  36633.60  3498.67  9.55
2421.6  36244.17  3414.30  9.42
2423.8  35852.83  3315.14  9.25
2426.0  35483.45  3237.18  9.12
2428.2  35123.20  3166.49  9.02
2430.4  34816.90  3092.19  8.88
2432.6  34533.33  3013.33  8.73
2434.8  34218.67  2940.67  8.59
2437.0  33825.13  2865.78  8.47
2439.2  33467.27  2793.45  8.35
2441.4  33142.63  2713.03  8.19
2443.6  32897.48  2652.80  8.06
2445.7  32639.72  2586.93  7.93
2447.9  32356.25  2523.55  7.80
2450.1  32048.05  2454.07  7.66
2452.3  31677.80  2376.30  7.50
2454.5  31302.62  2326.07  7.43
2456.6  30901.60  2254.13  7.29
2458.8  30501.90  2173.60  7.13
2461.0  30202.92  2124.05  7.03
2463.1  29914.80  2075.80  6.94
2465.3  29617.87  2029.16  6.85
2467.5  29382.00  1981.42  6.74
2469.6  29132.25  1939.17  6.66
2471.8  28832.00  1892.10  6.56
2473.9  28492.42  1835.14  6.44
2476.1  28134.17  1794.72  6.38
2478.2  27770.37  1741.68  6.27
2480.4  27461.15  1703.85  6.20
2482.5  27111.32  1667.04  6.15
2484.6  26787.75  1620.67  6.05
2486.8  26517.30  1590.93  6.00
2488.9  26200.33  1546.77  5.90
2491.1  25846.80  1523.20  5.89
2493.2  25466.83  1484.90  5.83
2495.3  25028.03  1443.00  5.77
2497.4  24649.10  1411.43  5.73
2499.5  24323.55  1386.37  5.70
2501.7  24239.17  1358.49  5.60
2503.8  24155.58  1342.91  5.56
2505.9  24104.58  1332.50  5.53
2508.0  24120.45  1325.43  5.50
2510.1  24142.50  1335.29  5.53
2512.2  24258.70  1327.32  5.47
2514.3  24431.55  1322.50  5.41
2516.4  24703.80  1346.17  5.45
