/*** Spectra Vista SIG Data ***/
name= 64_20220722_BENI_59_avg.sig
comm= Averaged Ref/Tar of files: HR.072222.0066_moc.sig,HR.072222.0067_moc.sig,HR.072222.0068_moc.sig
data=
337.3  3176.00  347.38  10.94
338.8  3318.90  336.70  10.14
340.3  3466.90  327.95  9.46
341.8  3658.00  339.89  9.29
343.2  3818.40  316.72  8.29
344.7  4009.10  305.66  7.62
346.2  4125.85  303.65  7.36
347.7  4365.08  309.36  7.09
349.2  4536.00  318.78  7.03
350.6  4737.53  304.82  6.43
352.1  5001.50  316.76  6.33
353.6  5239.70  306.52  5.85
355.1  5489.03  312.06  5.69
356.6  5801.18  319.01  5.50
358.0  6061.00  319.00  5.26
359.5  6334.50  335.78  5.30
361.0  6613.43  342.14  5.17
362.5  6967.45  351.30  5.04
364.0  7283.45  360.35  4.95
365.4  7615.10  365.30  4.80
366.9  7983.63  375.70  4.71
368.4  8346.15  386.40  4.63
369.9  8675.03  402.67  4.64
371.3  9104.70  423.64  4.65
372.8  9478.35  437.19  4.61
374.3  9890.00  446.13  4.51
375.8  10267.95  446.47  4.35
377.2  10652.40  461.78  4.34
378.7  11082.80  466.27  4.21
380.2  11459.40  473.44  4.13
381.7  11972.08  499.96  4.18
383.1  12450.90  505.76  4.06
384.6  12948.00  514.32  3.97
386.1  13431.43  522.48  3.89
387.6  13879.25  531.81  3.83
389.0  14391.60  544.04  3.78
390.5  14841.45  564.63  3.80
392.0  15420.35  574.85  3.73
393.4  15975.20  598.19  3.74
394.9  16521.30  613.35  3.71
396.4  17051.63  626.18  3.67
397.9  17604.38  638.06  3.62
399.3  18132.70  652.54  3.60
400.8  18643.90  663.01  3.56
402.2  19271.75  681.67  3.54
403.7  19837.80  699.78  3.53
405.2  20455.20  726.03  3.55
406.6  20996.00  740.85  3.53
408.1  21583.00  766.89  3.55
409.6  22169.50  783.62  3.53
411.0  22780.45  801.34  3.52
412.5  23407.30  819.81  3.50
414.0  24042.50  837.41  3.48
415.4  24724.50  865.23  3.50
416.9  25385.18  889.22  3.50
418.4  26032.95  915.70  3.52
419.8  26735.80  945.19  3.54
421.3  27397.03  970.87  3.54
422.7  28153.20  995.28  3.54
424.2  28890.00  1020.38  3.53
425.7  29633.40  1049.18  3.54
427.1  30368.18  1079.79  3.56
428.6  31124.00  1110.83  3.57
430.0  31837.15  1144.20  3.59
431.5  32670.83  1178.58  3.61
432.9  33504.55  1209.11  3.61
434.4  34365.68  1241.98  3.61
435.9  35154.00  1274.47  3.63
437.3  35970.00  1308.54  3.64
438.8  36774.68  1348.00  3.67
440.2  37595.25  1378.49  3.67
441.7  38525.00  1418.61  3.68
443.1  39392.25  1453.97  3.69
444.6  40308.70  1496.02  3.71
446.0  41208.60  1532.35  3.72
447.5  42122.58  1576.42  3.74
448.9  43021.50  1613.79  3.75
450.4  43991.15  1657.17  3.77
451.8  44811.00  1695.20  3.78
453.3  45697.13  1736.80  3.80
454.7  46652.68  1780.38  3.82
456.2  47490.98  1819.32  3.83
457.6  48427.20  1860.27  3.84
459.1  49355.80  1899.70  3.85
460.5  50263.25  1934.03  3.85
462.0  51273.28  1978.71  3.86
463.4  52251.80  2022.12  3.87
464.8  53210.63  2067.84  3.89
466.3  54150.53  2103.75  3.89
467.7  55103.63  2145.50  3.89
469.2  56117.03  2184.44  3.89
470.6  57043.00  2223.18  3.90
472.0  58031.23  2265.61  3.90
473.5  59000.13  2303.79  3.90
474.9  59978.25  2348.40  3.92
476.4  61084.80  2399.52  3.93
477.8  62103.50  2443.73  3.93
479.2  63089.50  2485.78  3.94
480.7  64138.73  2533.61  3.95
482.1  65227.30  2581.25  3.96
483.6  66368.85  2632.79  3.97
485.0  67395.60  2690.90  3.99
486.4  68545.05  2748.50  4.01
487.9  69600.38  2811.41  4.04
489.3  70709.45  2874.81  4.07
490.7  71754.93  2936.17  4.09
492.2  72926.70  3007.13  4.12
493.6  73982.50  3084.80  4.17
495.0  75040.88  3165.83  4.22
496.5  76177.93  3259.32  4.28
497.9  77234.53  3351.77  4.34
499.3  78335.15  3456.94  4.41
500.7  79534.85  3581.93  4.50
502.2  80650.40  3711.81  4.60
503.6  81833.00  3866.57  4.72
505.0  82860.40  4037.05  4.87
506.5  84099.30  4241.90  5.04
507.9  85243.75  4466.77  5.24
509.3  86565.20  4729.59  5.46
510.7  87750.00  5024.18  5.73
512.2  89093.63  5365.40  6.02
513.6  90491.10  5751.48  6.36
515.0  91850.83  6185.03  6.73
516.4  93158.10  6664.14  7.15
517.8  94694.00  7199.98  7.60
519.3  95949.28  7754.39  8.08
520.7  97422.70  8368.18  8.59
522.1  98649.53  8989.65  9.11
523.5  99954.90  9631.77  9.64
524.9  101277.00  10277.43  10.15
526.3  102588.15  10896.91  10.62
527.8  104024.25  11519.15  11.07
529.2  105179.10  12105.75  11.51
530.6  106655.45  12709.26  11.92
532.0  108276.00  13287.87  12.27
533.4  109536.68  13768.67  12.57
534.8  110415.53  14160.45  12.82
536.3  112062.30  14602.80  13.03
537.7  113967.00  15071.28  13.22
539.1  115325.03  15441.99  13.39
540.5  116463.25  15764.61  13.54
541.9  118138.58  16150.59  13.67
543.3  119349.83  16469.68  13.80
544.7  120589.20  16794.48  13.93
546.1  122288.65  17172.58  14.04
547.5  123480.00  17471.63  14.15
549.0  125158.00  17823.67  14.24
550.4  126543.75  18104.29  14.31
551.8  127973.48  18361.21  14.35
553.2  129418.63  18570.78  14.35
554.6  130707.20  18703.01  14.31
556.0  132148.80  18807.33  14.23
557.4  133677.78  18866.87  14.11
558.8  135233.10  18888.75  13.97
560.2  136597.25  18841.69  13.79
561.6  138172.95  18778.55  13.59
563.0  139684.13  18661.21  13.36
564.4  141190.65  18503.29  13.11
565.8  142630.00  18299.79  12.83
567.2  144275.75  18077.20  12.53
568.6  145703.25  17793.31  12.21
570.0  147065.00  17470.74  11.88
571.4  148699.85  17165.07  11.54
572.8  150365.50  16857.34  11.21
574.2  151905.60  16554.72  10.90
575.6  153382.50  16270.50  10.61
577.0  154821.30  16010.59  10.34
578.4  156463.13  15803.67  10.10
579.8  157884.53  15602.18  9.88
581.2  159515.08  15450.70  9.69
582.5  160851.60  15288.78  9.50
583.9  162297.20  15165.75  9.34
585.3  164004.53  15085.13  9.20
586.7  165403.88  14997.58  9.07
588.1  166815.75  14935.98  8.95
589.5  168364.00  14907.84  8.85
590.9  169917.20  14899.84  8.77
592.3  171633.80  14927.39  8.70
593.7  173001.08  14945.52  8.64
595.0  174548.25  14988.15  8.59
596.4  175899.85  15019.84  8.54
597.8  177310.08  15050.63  8.49
599.2  178780.80  15073.08  8.43
600.6  180420.50  15093.67  8.37
602.0  181653.68  15048.98  8.28
603.3  183345.05  15010.24  8.19
604.7  184927.03  14933.10  8.08
606.1  186341.40  14807.86  7.95
607.5  187876.10  14674.17  7.81
608.9  189478.30  14525.36  7.67
610.2  190795.50  14338.96  7.52
611.6  192313.13  14157.40  7.36
613.0  193774.50  13978.45  7.21
614.4  195086.40  13803.59  7.08
615.8  196472.25  13646.10  6.95
617.1  197920.80  13515.18  6.83
618.5  199459.60  13417.68  6.73
619.9  200890.50  13338.47  6.64
621.3  202442.18  13288.61  6.56
622.6  203953.50  13263.43  6.50
624.0  205345.95  13258.16  6.46
625.4  206753.25  13275.68  6.42
626.8  208267.15  13327.10  6.40
628.1  209529.65  13370.48  6.38
629.5  211288.65  13460.71  6.37
630.9  212807.65  13532.95  6.36
632.2  214088.70  13577.74  6.34
633.6  215620.88  13619.51  6.32
635.0  217081.20  13629.85  6.28
636.3  218516.30  13597.80  6.22
637.7  219828.50  13520.07  6.15
639.1  221410.00  13412.00  6.06
640.4  222828.73  13268.62  5.95
641.8  223971.13  13093.06  5.85
643.2  225492.75  12908.90  5.72
644.5  226774.50  12715.99  5.61
645.9  228411.00  12531.86  5.49
647.2  230235.25  12387.31  5.38
648.6  232085.25  12253.95  5.28
650.0  233496.00  12118.32  5.19
651.3  233842.13  11967.15  5.12
652.7  234718.15  11864.60  5.05
654.0  236648.60  11808.00  4.99
655.4  238089.85  11709.39  4.92
656.8  238395.40  11521.76  4.83
658.1  239598.50  11379.51  4.75
659.5  241868.55  11300.29  4.67
660.8  243562.50  11209.50  4.60
662.2  244406.40  11061.87  4.53
663.5  245975.75  10958.34  4.46
664.9  247276.90  10889.41  4.40
666.2  247996.20  10820.28  4.36
667.6  249660.48  10822.42  4.33
668.9  250815.88  10840.53  4.32
670.3  251785.88  10873.50  4.32
671.6  253353.38  10948.19  4.32
673.0  254481.75  11045.54  4.34
674.3  255674.90  11147.24  4.36
675.7  256930.93  11276.65  4.39
677.0  258044.90  11424.37  4.43
678.4  259344.38  11618.92  4.48
679.7  260401.58  11823.75  4.54
681.1  261654.98  12074.29  4.61
682.4  262746.90  12353.90  4.70
683.8  263984.50  12681.72  4.80
685.1  264924.75  13067.76  4.93
686.4  266178.00  13561.24  5.09
687.8  267422.75  14199.21  5.31
689.1  268424.00  15023.94  5.60
690.5  269742.15  16127.76  5.98
691.8  270531.58  17552.98  6.49
693.1  271800.00  19439.74  7.15
694.5  272931.75  21779.33  7.98
695.8  274092.00  24622.33  8.98
697.1  275229.50  27970.37  10.16
698.5  276259.00  31826.91  11.52
699.8  277337.93  36149.24  13.03
701.1  278449.00  40892.10  14.69
702.5  279214.10  45922.32  16.45
703.8  280170.00  51209.25  18.28
705.1  281254.35  56686.66  20.15
706.5  282283.00  62242.78  22.05
707.8  283263.90  67833.00  23.95
709.1  284130.28  73383.02  25.83
710.5  285268.85  78944.92  27.67
711.8  286109.00  84361.64  29.49
713.1  287090.20  89721.08  31.25
714.4  288004.50  94938.53  32.96
715.8  288807.30  99993.20  34.62
717.1  290103.00  105055.43  36.21
718.4  290998.40  109837.65  37.75
719.7  292107.58  114499.64  39.20
721.0  292657.50  118771.50  40.58
722.4  293420.60  122934.33  41.90
723.7  294359.40  126967.60  43.13
725.0  295379.55  130845.25  44.30
726.3  296314.15  134462.84  45.38
727.6  296884.78  137710.83  46.39
729.0  297795.75  140919.98  47.32
730.3  298542.15  143870.95  48.19
731.6  299422.10  146690.75  48.99
732.9  300224.23  149278.87  49.72
734.2  301023.25  151713.10  50.40
735.5  302061.00  154091.89  51.01
736.8  302838.60  156209.07  51.58
738.1  303697.30  158210.03  52.09
739.5  304629.18  160133.59  52.57
740.8  305350.10  161798.51  52.99
742.1  306070.35  163391.95  53.38
743.4  306800.00  164869.17  53.74
744.7  307789.55  166377.38  54.06
746.0  308661.60  167734.19  54.34
747.3  309184.33  168831.71  54.61
748.6  309927.00  169942.28  54.83
749.9  310622.00  170980.33  55.04
751.2  311341.90  171939.74  55.23
752.5  312231.00  172935.18  55.39
753.8  312873.93  173742.94  55.53
755.1  313586.00  174539.73  55.66
756.4  314193.60  175222.16  55.77
757.7  315194.60  176082.74  55.86
759.0  316955.35  177339.57  55.95
760.3  318146.40  178223.76  56.02
761.6  319705.40  179303.51  56.08
762.9  320277.75  179792.99  56.14
764.2  320674.90  180167.23  56.18
765.5  321002.95  180472.05  56.22
766.8  321449.60  180846.45  56.26
768.1  322004.80  181240.04  56.28
769.3  322647.85  181656.81  56.30
770.6  323325.60  182112.88  56.32
771.9  324097.03  182592.78  56.34
773.2  324498.40  182885.59  56.36
774.5  325153.40  183285.01  56.37
775.8  325860.75  183724.49  56.38
777.1  326480.00  184097.80  56.39
778.4  326852.90  184337.82  56.40
779.6  327658.68  184819.15  56.41
780.9  328170.00  185135.00  56.41
782.2  328636.00  185432.50  56.42
783.5  329003.50  185661.63  56.43
784.8  329580.90  185997.02  56.43
786.0  330034.25  186265.58  56.44
787.3  330487.50  186526.10  56.44
788.6  330948.18  186807.45  56.45
789.9  331434.60  187107.76  56.45
791.2  332134.70  187512.56  56.46
792.4  332816.68  187915.73  56.46
793.7  333332.00  188217.91  56.47
795.0  334021.88  188611.58  56.47
796.2  334686.28  189003.00  56.47
797.5  335443.50  189429.51  56.47
798.8  336152.18  189841.62  56.47
800.0  336879.03  190246.45  56.47
801.3  337354.50  190557.46  56.49
802.6  337996.80  190908.05  56.48
803.8  338664.25  191314.94  56.49
805.1  339189.38  191614.09  56.49
806.4  339699.60  191897.00  56.49
807.7  340272.90  192224.95  56.49
808.9  340851.45  192564.91  56.50
810.2  341435.15  192885.35  56.49
811.4  341972.80  193193.78  56.49
812.7  342631.25  193579.48  56.50
814.0  343479.05  194057.91  56.50
815.2  344103.50  194421.40  56.50
816.5  344541.25  194672.15  56.50
817.7  345028.20  194974.64  56.51
819.0  345557.85  195262.85  56.51
820.2  345796.00  195387.87  56.50
821.5  346484.00  195778.34  56.50
822.7  346851.78  196000.00  56.51
824.0  347279.40  196191.90  56.49
825.2  347682.38  196479.74  56.51
826.5  348038.55  196652.97  56.50
827.7  348565.45  196945.72  56.50
829.0  349017.18  197175.46  56.49
830.2  349364.25  197346.71  56.49
831.5  349846.40  197622.76  56.49
832.7  350160.30  197784.21  56.48
834.0  350488.60  197955.02  56.48
835.2  350761.95  198162.82  56.49
836.4  351096.35  198330.40  56.49
837.7  351541.20  198545.44  56.48
838.9  351984.33  198811.57  56.48
840.1  352341.23  199030.68  56.49
841.4  352780.00  199269.49  56.49
842.6  353100.20  199467.80  56.49
843.8  353416.60  199691.22  56.50
845.1  353904.05  199981.80  56.51
846.3  354289.50  200187.09  56.50
847.5  354620.70  200413.78  56.51
848.8  355102.80  200644.00  56.50
850.0  355413.45  200849.64  56.51
851.2  355954.50  201149.19  56.51
852.5  356350.60  201361.88  56.51
853.7  356852.25  201642.08  56.51
854.9  357270.50  201904.65  56.51
856.1  357713.85  202164.45  56.52
857.4  357912.53  202256.41  56.51
858.6  358353.00  202506.06  56.51
859.8  358738.13  202729.94  56.51
861.0  359213.40  202995.00  56.51
862.2  359710.58  203250.81  56.50
863.5  360058.73  203422.77  56.50
864.7  360531.60  203705.92  56.50
865.9  360981.20  203934.56  56.49
867.1  361258.80  204110.23  56.50
868.3  361750.05  204357.97  56.49
869.5  362212.20  204618.12  56.49
870.8  362763.00  204925.65  56.49
872.0  363272.85  205189.62  56.48
873.2  363631.95  205388.62  56.48
874.4  364074.75  205635.11  56.48
875.6  364491.98  205872.68  56.48
876.8  365021.90  206136.02  56.47
878.0  365547.05  206389.43  56.46
879.2  366056.85  206663.57  56.46
880.4  366528.38  206938.43  56.46
881.6  366970.93  207172.10  56.45
882.8  367395.20  207405.95  56.45
884.0  368030.33  207736.71  56.45
885.2  368603.10  208001.01  56.43
886.5  369171.75  208341.40  56.43
887.7  369732.68  208572.92  56.41
888.8  370485.23  208937.60  56.40
890.0  371001.85  209223.60  56.39
891.2  371614.20  209535.06  56.39
892.4  372117.90  209846.88  56.39
893.6  372681.80  210168.26  56.39
894.8  373698.25  210651.25  56.37
896.0  374569.50  211114.68  56.36
897.2  375495.25  211554.85  56.34
898.4  376157.10  211928.09  56.34
899.6  376754.63  212233.94  56.33
900.8  377105.23  212463.00  56.34
902.0  377533.50  212566.69  56.30
903.2  377992.58  212763.26  56.29
904.3  378303.60  212926.06  56.28
905.5  379029.03  213255.52  56.26
906.7  379657.50  213580.52  56.26
907.9  380110.15  213868.10  56.26
909.1  380452.95  214033.01  56.26
910.2  380736.38  214140.03  56.24
911.4  381001.73  214246.01  56.23
912.6  381423.90  214373.68  56.20
913.8  381751.05  214505.97  56.19
915.0  382222.05  214739.07  56.18
916.2  382531.50  214841.25  56.16
917.3  382470.08  214861.59  56.18
918.5  382754.20  214972.90  56.16
919.7  383073.60  215075.48  56.14
920.8  383245.03  215070.39  56.12
922.0  383498.50  215128.38  56.10
923.2  383838.00  215205.90  56.07
924.4  384129.00  215293.05  56.05
925.5  384422.00  215397.91  56.03
926.7  385124.38  215674.40  56.00
927.9  386082.00  216066.14  55.96
929.0  387445.95  216801.00  55.96
930.2  389809.70  217975.22  55.92
931.4  392256.00  219208.79  55.88
932.5  394975.65  220537.20  55.84
933.7  396400.60  221185.59  55.80
934.9  397241.25  221439.60  55.74
936.0  396854.25  221136.55  55.72
937.2  395094.60  219987.84  55.68
938.3  393471.10  218972.07  55.65
939.5  392036.40  218076.24  55.63
940.7  392275.80  218015.04  55.58
941.8  394004.55  218725.74  55.51
943.0  395425.50  219396.03  55.48
944.2  396350.50  219740.13  55.44
945.3  396064.50  219342.18  55.38
946.5  395378.55  218749.86  55.33
947.6  395511.80  218707.47  55.30
948.8  395616.98  218465.68  55.22
949.9  395787.00  218317.82  55.16
951.1  395635.83  217843.68  55.06
952.2  395556.00  217389.20  54.96
953.4  395433.00  216997.66  54.88
954.5  395506.80  216714.42  54.79
955.7  395627.40  216399.12  54.70
956.8  395488.50  216026.06  54.62
958.0  395156.00  215608.10  54.56
959.1  395244.48  215326.60  54.48
960.3  394867.08  214911.64  54.43
961.4  394747.65  214761.80  54.40
962.6  394868.25  214720.10  54.38
963.7  394973.25  214528.54  54.31
964.9  394862.33  214484.13  54.32
966.0  395020.80  214406.80  54.28
967.2  395432.55  214375.34  54.21
968.3  395085.60  214276.05  54.24
969.5  395039.48  214182.41  54.22
970.6  394975.80  214214.70  54.23
971.8  395241.00  214228.61  54.20
972.9  395276.85  214186.35  54.19
974.0  395642.60  214344.43  54.18
975.2  395363.88  214317.47  54.21
976.3  395453.08  214182.84  54.16
977.5  395571.05  214185.71  54.15
978.6  395298.80  214186.87  54.18
979.7  395418.98  214372.87  54.21
980.9  395461.23  214324.65  54.20
982.0  395478.80  214249.68  54.17
983.2  394945.03  214128.67  54.22
984.3  394798.80  214003.43  54.21
985.4  394588.15  214130.61  54.27
986.6  394882.38  214288.68  54.27
987.7  395900.58  214886.40  54.28
988.9  395715.60  214725.12  54.26
990.0  396596.50  215302.17  54.29
993.1  335934.73  180704.80  53.79
996.9  336711.53  181693.12  53.96
1000.7  337866.55  182796.10  54.10
1004.5  338417.25  183550.99  54.24
1008.4  338196.79  183879.72  54.37
1012.2  338188.08  184302.56  54.50
1016.0  338179.80  184711.55  54.62
1019.8  338438.10  185202.33  54.72
1023.7  338553.49  185589.56  54.82
1027.5  338523.37  185871.11  54.91
1031.3  339028.03  186352.06  54.97
1035.1  339141.37  186594.86  55.02
1038.9  339258.70  186804.97  55.06
1042.7  339175.58  186902.15  55.10
1046.5  339068.83  186937.86  55.13
1050.3  339155.70  187046.47  55.15
1054.2  338908.50  186989.89  55.17
1058.0  338471.99  186768.37  55.18
1061.8  338335.99  186725.74  55.19
1065.6  338175.33  186620.46  55.18
1069.4  338363.40  186690.98  55.17
1073.2  338193.98  186537.74  55.16
1077.0  337811.28  186251.75  55.13
1080.8  337185.42  185792.28  55.10
1084.6  335979.12  184984.99  55.06
1088.4  335175.26  184432.53  55.03
1092.2  334356.75  183807.00  54.97
1096.0  333843.21  183328.63  54.91
1099.8  333504.17  182910.76  54.85
1103.6  332950.07  182375.16  54.78
1107.4  332183.98  181683.14  54.69
1111.2  332012.20  181343.55  54.62
1114.9  331467.50  180737.63  54.53
1118.7  330919.88  180063.12  54.41
1122.5  330271.93  179243.74  54.27
1126.3  329203.76  178092.90  54.10
1130.1  328734.60  177017.71  53.85
1133.9  327298.30  175091.40  53.50
1137.7  326004.50  172970.79  53.06
1141.4  324405.90  170439.75  52.54
1145.2  323803.78  168275.06  51.97
1149.0  322812.29  166038.45  51.43
1152.8  321359.50  163813.19  50.98
1156.6  319860.57  161964.16  50.64
1160.3  318328.67  160437.39  50.40
1164.1  316123.83  158864.88  50.25
1167.9  314453.13  157768.67  50.17
1171.7  313267.50  157010.25  50.12
1175.4  312249.17  156393.70  50.09
1179.2  311365.10  155833.14  50.05
1183.0  311074.67  155539.21  50.00
1186.7  310467.27  155103.46  49.96
1190.5  309376.87  154453.00  49.92
1194.3  308232.07  153825.01  49.91
1198.0  307224.50  153314.80  49.90
1201.8  305912.03  152697.33  49.92
1205.6  304738.33  152227.90  49.95
1209.3  303830.00  151955.89  50.01
1213.1  302908.13  151699.54  50.08
1216.8  302007.11  151508.52  50.17
1220.6  301059.73  151309.48  50.26
1224.3  299984.75  151029.85  50.35
1228.1  298954.00  150814.99  50.45
1231.9  297855.40  150509.49  50.53
1235.6  296587.88  150074.69  50.60
1239.4  295429.75  149689.42  50.67
1243.1  294303.45  149274.36  50.72
1246.9  293195.09  148832.38  50.76
1250.6  292295.40  148453.84  50.79
1254.3  291328.68  148007.64  50.80
1258.1  290463.60  147587.96  50.81
1261.8  289317.87  147004.46  50.81
1265.6  287958.30  146258.81  50.79
1269.3  286455.63  145406.17  50.76
1273.1  286344.28  145185.04  50.70
1276.8  286704.80  145179.57  50.64
1280.6  286760.37  145002.95  50.57
1284.3  285606.00  144165.63  50.48
1288.0  284245.41  143153.28  50.36
1291.8  282864.87  142062.51  50.22
1295.5  281462.13  140907.51  50.06
1299.2  280304.83  139794.86  49.87
1302.9  279045.78  138534.61  49.65
1306.7  277701.78  137155.76  49.39
1310.4  276379.28  135658.15  49.08
1314.1  275208.63  134139.26  48.74
1317.9  274130.21  132540.87  48.35
1321.6  272887.91  130750.58  47.91
1325.3  271400.85  128731.48  47.43
1329.0  270163.48  126751.72  46.92
1332.8  268206.40  124332.27  46.36
1336.5  266540.73  122022.10  45.78
1340.2  266205.33  120333.78  45.20
1343.9  265856.88  118636.83  44.62
1347.6  265353.75  116891.51  44.05
1351.4  265608.00  115540.69  43.50
1355.1  266030.97  114298.82  42.96
1358.8  266176.00  112874.92  42.41
1362.5  265722.90  111065.25  41.80
1366.2  264020.20  108480.07  41.09
1369.9  262318.50  105581.85  40.25
1373.6  260616.18  102219.20  39.22
1377.3  259011.00  98285.72  37.95
1381.0  257923.00  93723.56  36.34
1384.8  255937.50  87963.06  34.37
1388.4  253751.40  81656.57  32.18
1392.2  252106.25  75187.54  29.82
1395.9  250614.98  68734.28  27.43
1399.6  249056.66  62638.86  25.15
1403.3  247957.38  57321.06  23.12
1407.0  246898.20  52815.80  21.39
1410.7  245799.68  49160.28  20.00
1414.3  244684.24  46319.17  18.93
1418.1  243642.13  44223.26  18.15
1421.7  242812.56  42725.81  17.60
1425.4  241971.28  41685.23  17.23
1429.1  241218.38  41001.71  17.00
1432.8  239876.93  40503.13  16.88
1436.5  239088.45  40293.78  16.85
1440.2  238263.40  40232.17  16.89
1443.9  237068.98  40205.05  16.96
1447.6  235589.20  40205.24  17.07
1451.2  234625.78  40321.75  17.19
1454.9  233476.65  40452.91  17.33
1458.6  232517.31  40707.26  17.51
1462.3  231513.33  41081.33  17.74
1466.0  230303.93  41575.08  18.05
1469.7  228799.13  42188.50  18.44
1473.3  227884.50  43038.80  18.89
1477.0  226151.50  43858.40  19.39
1480.7  224736.71  44787.06  19.93
1484.4  222997.19  45674.83  20.48
1488.0  221613.33  46658.62  21.05
1491.7  220115.29  47604.73  21.63
1495.4  218535.14  48535.86  22.21
1499.0  217079.50  49459.04  22.78
1502.7  215904.00  50442.31  23.36
1506.4  214642.73  51360.44  23.93
1510.0  213388.10  52257.49  24.49
1513.7  212074.04  53100.80  25.04
1517.4  210900.67  53941.57  25.58
1521.0  209819.87  54768.60  26.10
1524.7  208729.08  55529.24  26.60
1528.3  207566.88  56241.94  27.10
1532.0  206442.13  56920.19  27.57
1535.7  205163.38  57499.74  28.03
1539.3  204021.58  58078.16  28.47
1543.0  203148.85  58701.59  28.90
1546.6  202504.25  59363.04  29.31
1550.3  201617.50  59902.29  29.71
1553.9  200662.63  60376.08  30.09
1557.6  199525.33  60758.84  30.45
1561.2  198369.00  61089.71  30.80
1564.9  197190.23  61379.66  31.13
1568.5  196004.90  61640.90  31.45
1572.2  194957.80  61910.54  31.76
1575.8  193970.00  62180.22  32.06
1579.5  193082.85  62448.55  32.34
1583.1  192171.44  62697.44  32.63
1586.8  191072.00  62851.33  32.89
1590.4  190165.70  63039.52  33.15
1594.0  188947.85  63122.73  33.41
1597.7  187850.08  63221.34  33.66
1601.3  186585.53  63248.40  33.90
1604.9  185361.78  63250.56  34.12
1608.6  184188.47  63241.51  34.34
1612.2  183334.80  63304.18  34.53
1615.8  182373.75  63305.86  34.71
1619.5  181403.75  63281.07  34.88
1623.1  180211.90  63159.93  35.05
1626.7  179061.68  63028.80  35.20
1630.3  177966.33  62897.59  35.34
1634.0  176862.00  62736.67  35.47
1637.6  175833.33  62575.68  35.59
1641.2  174782.00  62367.50  35.68
1644.8  173546.61  62050.02  35.75
1648.5  172510.18  61778.09  35.81
1652.1  171597.00  61484.28  35.83
1655.7  170740.80  61169.77  35.83
1659.3  169970.79  60855.21  35.80
1662.9  168696.67  60336.96  35.77
1666.6  167393.33  59794.05  35.72
1670.2  166155.44  59238.02  35.65
1673.8  164891.79  58650.40  35.57
1677.4  163921.35  58123.51  35.46
1681.0  163227.78  57660.81  35.33
1684.6  162873.75  57271.11  35.16
1688.2  162229.75  56735.89  34.97
1691.8  161653.39  56242.98  34.79
1695.4  161255.20  55800.14  34.60
1699.0  160964.77  55393.87  34.41
1702.6  160691.00  54977.66  34.21
1706.2  160177.44  54455.73  34.00
1709.8  159392.68  53826.61  33.77
1713.4  158748.76  53257.35  33.55
1717.0  158002.00  52660.31  33.33
1720.6  157294.65  52083.99  33.11
1724.2  156652.80  51522.76  32.89
1727.8  155978.20  50976.98  32.68
1731.4  155515.25  50536.71  32.50
1735.0  155286.08  50211.38  32.33
1738.6  155056.20  49869.90  32.16
1742.2  154525.03  49398.97  31.97
1745.8  153952.12  48880.87  31.75
1749.4  153097.73  48250.14  31.52
1753.0  151714.07  47441.26  31.27
1756.6  150193.17  46593.14  31.02
1760.1  148988.56  45859.13  30.78
1763.7  147430.00  45040.08  30.55
1767.3  146150.43  44344.72  30.34
1770.9  145040.00  43724.96  30.15
1774.5  143731.32  43079.50  29.97
1778.0  142710.52  42537.15  29.81
1781.6  141728.25  42049.19  29.67
1785.2  140679.08  41586.10  29.56
1788.8  139629.70  41157.09  29.48
1792.3  138547.17  40747.23  29.41
1795.9  138123.70  40564.56  29.37
1799.5  137647.33  40388.42  29.34
1803.1  136810.45  40110.58  29.32
1806.6  137008.84  40133.65  29.29
1810.2  138063.33  40398.04  29.26
1813.8  139158.50  40666.35  29.22
1817.3  139400.20  40688.14  29.19
1820.9  138892.38  40484.28  29.15
1824.5  137888.95  40121.15  29.10
1828.0  137196.58  39819.09  29.02
1831.6  136531.20  39494.92  28.93
1835.2  135915.00  39117.99  28.78
1838.7  135552.40  38723.26  28.57
1842.3  135195.00  38252.86  28.29
1845.8  134444.33  37550.27  27.93
1849.4  134013.50  36787.52  27.45
1852.9  133374.91  35794.33  26.84
1856.5  132543.47  34534.69  26.06
1860.0  131830.60  33060.95  25.08
1863.6  131652.23  31482.86  23.91
1867.1  131557.65  29670.32  22.55
1870.7  131505.10  27490.62  20.90
1874.2  130681.35  24820.52  18.99
1877.8  129506.73  21990.87  16.98
1881.3  128195.88  19143.84  14.93
1884.9  127364.88  16556.16  13.00
1888.4  126436.86  14164.62  11.20
1891.9  125595.40  12149.65  9.67
1895.5  124599.55  10563.59  8.48
1899.0  124151.13  9448.55  7.61
1901.3  153758.50  8055.88  5.24
1904.1  153687.38  7385.25  4.81
1906.8  152999.10  6887.85  4.50
1909.6  151448.33  6479.64  4.28
1912.4  149911.13  6166.91  4.11
1915.1  148717.80  5957.46  4.01
1917.9  147408.50  5814.79  3.94
1920.6  146294.95  5708.79  3.90
1923.3  145148.85  5649.24  3.89
1926.1  143742.60  5588.44  3.89
1928.8  142428.00  5569.67  3.91
1931.6  141323.78  5581.93  3.95
1934.3  140268.69  5621.79  4.01
1937.0  139248.98  5670.15  4.07
1939.8  138174.69  5716.37  4.14
1942.5  136941.75  5769.50  4.21
1945.2  135392.81  5828.49  4.30
1947.9  134133.13  5914.65  4.41
1950.7  133146.53  6006.50  4.51
1953.4  131625.26  6083.35  4.62
1956.1  130430.25  6198.52  4.75
1958.8  129380.55  6321.36  4.89
1961.5  128105.40  6444.60  5.03
1964.2  126781.20  6570.20  5.18
1966.9  125399.06  6701.53  5.34
1969.6  124321.50  6855.75  5.51
1972.3  123073.65  7010.98  5.70
1975.0  122136.64  7181.78  5.88
1977.7  121141.00  7361.92  6.08
1980.4  120131.83  7543.72  6.28
1983.1  119152.48  7727.33  6.49
1985.8  118317.83  7930.05  6.70
1988.4  117403.00  8122.83  6.92
1991.1  116562.95  8326.85  7.14
1993.8  115775.69  8532.65  7.37
1996.5  115194.06  8763.15  7.61
1999.1  114580.13  8980.72  7.84
2001.8  113966.48  9198.82  8.07
2004.5  113349.60  9411.20  8.30
2007.1  112713.83  9616.64  8.53
2009.8  112056.35  9824.74  8.77
2012.4  111549.21  10042.72  9.00
2015.1  111065.68  10245.61  9.22
2017.8  110353.43  10418.28  9.44
2020.4  109894.81  10617.89  9.66
2023.1  109589.38  10808.94  9.86
2025.7  109382.00  11000.17  10.06
2028.3  109076.50  11182.17  10.25
2031.0  108739.21  11351.29  10.44
2033.6  108497.70  11512.28  10.61
2036.2  108256.28  11668.88  10.78
2038.9  107721.23  11790.68  10.95
2041.5  107430.74  11926.58  11.10
2044.1  106944.75  12025.58  11.24
2046.8  106611.98  12145.20  11.39
2049.4  106044.30  12225.68  11.53
2052.0  105775.95  12342.38  11.67
2054.6  105413.44  12440.31  11.80
2057.2  104924.45  12532.33  11.94
2059.8  104649.35  12656.78  12.09
2062.4  103874.34  12726.34  12.25
2065.0  103404.85  12827.08  12.40
2067.6  102612.60  12885.41  12.56
2070.2  102063.45  12974.76  12.71
2072.8  101494.69  13048.85  12.86
2075.4  101108.44  13149.07  13.00
2078.0  100538.43  13225.50  13.15
2080.6  100029.60  13307.80  13.30
2083.2  99427.15  13364.78  13.44
2085.8  98990.36  13442.89  13.58
2088.4  98374.63  13503.96  13.73
2090.9  97660.01  13533.58  13.86
2093.5  96889.20  13548.89  13.98
2096.1  96197.26  13585.62  14.12
2098.7  95498.99  13614.17  14.26
2101.2  94647.50  13610.90  14.38
2103.8  94058.00  13645.83  14.51
2106.4  93455.40  13687.32  14.65
2108.9  92872.45  13724.43  14.78
2111.5  92119.20  13720.07  14.89
2114.0  91549.35  13750.63  15.02
2116.6  91080.94  13790.00  15.14
2119.1  90596.93  13822.84  15.26
2121.7  90168.75  13855.63  15.37
2124.2  89801.35  13897.36  15.48
2126.8  89089.35  13884.26  15.58
2129.3  88730.40  13908.40  15.67
2131.9  88195.80  13899.60  15.76
2134.4  87814.13  13916.63  15.85
2136.9  87458.64  13926.85  15.92
2139.4  86995.30  13920.67  16.00
2142.0  86583.00  13918.45  16.08
2144.5  86341.13  13939.63  16.14
2147.0  86141.90  13969.50  16.22
2149.5  85699.70  13953.87  16.28
2152.1  85546.04  13982.56  16.35
2154.6  85469.20  14008.00  16.39
2157.1  84972.31  13974.71  16.45
2159.6  84611.25  13956.55  16.49
2162.1  84459.38  13966.23  16.54
2164.6  84255.00  13969.43  16.58
2167.1  83972.40  13960.96  16.63
2169.6  83661.99  13956.34  16.68
2172.1  83238.50  13926.18  16.73
2174.6  82962.15  13920.85  16.78
2177.1  82582.21  13894.83  16.83
2179.5  82214.93  13870.19  16.87
2182.0  81779.78  13840.34  16.92
2184.5  81283.13  13814.61  17.00
2187.0  80725.75  13767.95  17.06
2189.5  80143.65  13703.42  17.10
2191.9  79458.00  13632.50  17.16
2194.4  78887.78  13589.65  17.23
2196.9  78220.80  13521.60  17.29
2199.3  77647.50  13456.00  17.33
2201.8  76847.10  13349.27  17.37
2204.3  76430.11  13311.40  17.42
2206.7  75862.24  13238.40  17.45
2209.2  75451.84  13186.84  17.48
2211.6  74888.55  13107.60  17.50
2214.1  74625.00  13069.33  17.51
2216.5  74105.15  12985.35  17.52
2219.0  73807.15  12938.17  17.53
2221.4  73475.06  12871.83  17.52
2223.9  73028.81  12777.63  17.50
2226.3  72575.13  12675.98  17.47
2228.7  72079.15  12554.30  17.42
2231.1  71547.30  12404.70  17.34
2233.6  71013.40  12257.73  17.26
2236.0  70537.25  12108.25  17.17
2238.4  70083.56  11944.63  17.04
2240.9  69679.85  11790.87  16.92
2243.3  69203.05  11609.58  16.78
2245.7  68707.24  11412.65  16.61
2248.1  68276.65  11234.93  16.46
2250.5  67821.78  11049.06  16.29
2252.9  67252.58  10833.77  16.11
2255.3  66752.06  10626.60  15.92
2257.7  66337.50  10430.00  15.72
2260.1  65896.43  10234.00  15.53
2262.5  65355.00  10027.50  15.34
2264.9  64894.16  9843.57  15.17
2267.3  64365.00  9645.00  14.98
2269.7  63917.35  9466.45  14.81
2272.1  63413.01  9295.47  14.66
2274.5  62902.49  9119.78  14.50
2276.8  62481.46  8957.41  14.34
2279.2  61965.79  8788.73  14.18
2281.6  61592.90  8652.30  14.05
2284.0  61168.13  8511.78  13.92
2286.3  60754.40  8372.67  13.78
2288.7  60389.71  8251.05  13.66
2291.1  59895.70  8104.80  13.53
2293.4  59497.90  7977.20  13.41
2295.8  58949.48  7828.00  13.28
2298.2  58405.05  7674.53  13.14
2300.5  57822.86  7521.86  13.01
2302.9  57148.50  7359.92  12.88
2305.2  56500.65  7204.85  12.75
2307.6  55911.18  7072.08  12.65
2309.9  55203.25  6933.67  12.56
2312.2  54660.75  6822.58  12.48
2314.6  54112.39  6722.33  12.42
2316.9  53468.10  6613.65  12.37
2319.2  52924.43  6520.64  12.32
2321.6  52363.15  6406.52  12.23
2323.9  51867.19  6296.88  12.14
2326.2  51378.95  6194.80  12.06
2328.6  50904.56  6097.58  11.98
2330.9  50439.38  5992.88  11.88
2333.2  50022.13  5889.63  11.77
2335.5  49618.58  5780.68  11.65
2337.8  49204.35  5680.12  11.54
2340.1  48678.66  5572.29  11.45
2342.4  48286.88  5470.83  11.33
2344.8  47921.44  5373.73  11.21
2347.1  47392.45  5261.26  11.10
2349.4  46889.69  5166.82  11.02
2351.6  46385.68  5067.67  10.93
2353.9  45959.35  4987.07  10.85
2356.2  45472.73  4899.67  10.77
2358.5  44931.60  4804.80  10.69
2360.8  44419.20  4706.80  10.60
2363.1  44022.61  4624.07  10.50
2365.4  43595.40  4542.60  10.42
2367.7  43151.85  4451.70  10.32
2369.9  42662.70  4359.59  10.22
2372.2  42114.20  4259.87  10.12
2374.5  41588.66  4166.67  10.02
2376.7  41018.45  4077.45  9.94
2379.0  40457.83  3972.79  9.82
2381.3  39900.00  3873.33  9.71
2383.5  39424.00  3786.93  9.61
2385.8  38874.13  3688.85  9.49
2388.0  38400.15  3599.00  9.37
2390.3  37940.70  3518.47  9.27
2392.5  37503.00  3441.00  9.18
2394.8  37062.30  3354.73  9.05
2397.0  36609.30  3272.97  8.94
2399.3  36202.78  3192.04  8.82
2401.5  35803.69  3120.69  8.72
2403.8  35305.73  3036.06  8.60
2406.0  34847.38  2948.96  8.46
2408.2  34482.80  2889.15  8.38
2410.4  34107.59  2824.36  8.28
2412.7  33722.65  2755.24  8.17
2414.9  33377.03  2688.13  8.05
2417.1  33004.13  2616.20  7.93
2419.3  32630.40  2547.20  7.81
2421.6  32288.44  2486.46  7.70
2423.8  31946.63  2418.29  7.57
2426.0  31607.93  2349.98  7.43
2428.2  31262.00  2299.73  7.36
2430.4  30966.00  2246.36  7.25
2432.6  30730.00  2186.67  7.12
2434.8  30455.95  2131.99  7.00
2437.0  30124.25  2078.81  6.90
2439.2  29783.98  2024.12  6.80
2441.4  29478.68  1966.61  6.67
2443.6  29253.34  1920.52  6.57
2445.7  29009.23  1881.19  6.48
2447.9  28755.31  1843.96  6.41
2450.1  28482.86  1798.40  6.31
2452.3  28141.58  1750.47  6.22
2454.5  27817.06  1694.91  6.09
2456.6  27477.60  1647.80  6.00
2458.8  27134.25  1608.75  5.93
2461.0  26847.44  1571.42  5.85
2463.1  26593.76  1535.03  5.77
2465.3  26329.03  1492.60  5.67
2467.5  26107.50  1463.94  5.61
2469.6  25876.69  1432.00  5.53
2471.8  25588.40  1404.06  5.49
2473.9  25294.75  1368.82  5.41
2476.1  24979.50  1327.09  5.31
2478.2  24666.58  1306.26  5.30
2480.4  24383.48  1270.21  5.21
2482.5  24061.10  1238.67  5.15
2484.6  23749.00  1207.71  5.09
2486.8  23514.68  1201.05  5.11
2488.9  23213.34  1164.02  5.01
2491.1  22871.80  1130.50  4.94
2493.2  22524.98  1109.68  4.93
2495.3  22162.08  1094.28  4.94
2497.4  21855.75  1066.63  4.88
2499.5  21531.93  1047.87  4.87
2501.7  21408.53  1031.19  4.82
2503.8  21326.29  1019.72  4.78
2505.9  21281.56  1012.19  4.76
2508.0  21282.75  1015.97  4.77
2510.1  21258.81  1001.47  4.71
2512.2  21318.11  1009.25  4.73
2514.3  21441.68  1025.10  4.78
2516.4  21660.15  1019.48  4.71
