/*** Spectra Vista SIG Data ***/
name= 15_20220824_QUPA_36_avg.sig
comm= Averaged Ref/Tar of files: HR.082422.0041_moc.sig,HR.082422.0042_moc.sig,HR.082422.0043_moc.sig
data=
337.3  3374.50  268.45  7.96
338.8  3463.20  260.20  7.51
340.3  3654.30  259.68  7.11
341.8  3840.90  259.54  6.76
343.2  4084.80  250.33  6.13
344.7  4265.00  240.46  5.64
346.2  4452.65  237.32  5.33
347.7  4601.03  232.20  5.05
349.2  4762.80  231.84  4.87
350.6  5031.33  237.14  4.71
352.1  5323.03  234.08  4.40
353.6  5656.10  241.25  4.27
355.1  5926.80  237.33  4.00
356.6  6194.48  238.48  3.85
358.0  6507.60  239.40  3.68
359.5  6767.10  237.78  3.51
361.0  7092.23  245.10  3.46
362.5  7465.13  250.37  3.35
364.0  7856.95  255.62  3.25
365.4  8233.30  267.08  3.24
366.9  8591.38  278.88  3.25
368.4  8946.20  281.58  3.15
369.9  9296.60  285.18  3.07
371.3  9745.50  293.95  3.02
372.8  10168.65  307.98  3.03
374.3  10615.63  314.31  2.96
375.8  11022.55  317.75  2.88
377.2  11459.40  330.49  2.88
378.7  11889.80  337.66  2.84
380.2  12293.30  341.25  2.78
381.7  12809.85  342.83  2.68
383.1  13340.25  348.04  2.61
384.6  13865.15  360.69  2.60
386.1  14350.28  370.11  2.58
387.6  14849.45  378.84  2.55
389.0  15329.60  385.41  2.51
390.5  15823.80  391.42  2.47
392.0  16425.45  403.05  2.45
393.4  17026.20  420.40  2.47
394.9  17591.40  434.50  2.47
396.4  18138.38  446.04  2.46
397.9  18706.25  462.71  2.47
399.3  19272.33  474.66  2.46
400.8  19840.30  482.83  2.43
402.2  20523.80  504.56  2.46
403.7  21113.78  519.10  2.46
405.2  21733.65  533.03  2.45
406.6  22318.40  551.94  2.47
408.1  22939.00  567.37  2.47
409.6  23552.35  581.99  2.47
411.0  24253.60  591.29  2.44
412.5  24906.70  614.44  2.47
414.0  25570.63  629.88  2.46
415.4  26294.63  648.87  2.47
416.9  26985.00  667.10  2.47
418.4  27713.70  686.17  2.48
419.8  28410.20  705.12  2.48
421.3  29143.88  725.22  2.49
422.7  29945.40  750.69  2.51
424.2  30746.25  769.50  2.50
425.7  31524.20  795.13  2.52
427.1  32298.83  815.06  2.52
428.6  33092.50  832.87  2.52
430.0  33840.25  851.82  2.52
431.5  34730.48  872.47  2.51
432.9  35628.80  894.35  2.51
434.4  36543.08  921.98  2.52
435.9  37380.00  951.20  2.54
437.3  38238.75  968.00  2.53
438.8  39082.43  989.04  2.53
440.2  39953.38  1011.78  2.53
441.7  40950.40  1041.37  2.54
443.1  41883.25  1065.80  2.54
444.6  42863.20  1094.66  2.55
446.0  43803.60  1123.76  2.57
447.5  44785.13  1154.14  2.58
448.9  45743.40  1185.33  2.59
450.4  46749.50  1216.31  2.60
451.8  47632.00  1239.83  2.60
453.3  48573.63  1267.15  2.61
454.7  49603.88  1297.17  2.62
456.2  50479.83  1329.05  2.63
457.6  51467.18  1358.85  2.64
459.1  52460.53  1386.31  2.64
460.5  53419.75  1410.36  2.64
462.0  54492.23  1440.86  2.64
463.4  55539.80  1467.60  2.64
464.8  56540.63  1496.39  2.65
466.3  57558.60  1527.26  2.65
467.7  58566.08  1553.08  2.65
469.2  59663.93  1581.23  2.65
470.6  60653.85  1612.94  2.66
472.0  61704.80  1640.21  2.66
473.5  62715.00  1668.36  2.66
474.9  63754.50  1698.60  2.66
476.4  64929.60  1734.58  2.67
477.8  66018.50  1765.13  2.67
479.2  67048.00  1795.51  2.68
480.7  68191.73  1833.78  2.69
482.1  69345.55  1866.11  2.69
483.6  70559.35  1902.17  2.70
485.0  71665.73  1934.41  2.70
486.4  72866.40  1977.97  2.71
487.9  73987.88  2017.97  2.73
489.3  75171.13  2067.11  2.75
490.7  76260.78  2105.25  2.76
492.2  77527.80  2155.16  2.78
493.6  78641.20  2200.29  2.80
495.0  79779.38  2250.30  2.82
496.5  80976.65  2316.41  2.86
497.9  82091.95  2375.67  2.89
499.3  83280.63  2444.16  2.93
500.7  84559.80  2523.71  2.98
502.2  85716.60  2605.75  3.04
503.6  86972.20  2705.03  3.11
505.0  88075.80  2815.87  3.20
506.5  89418.30  2947.12  3.30
507.9  90640.05  3092.92  3.41
509.3  92041.20  3266.99  3.55
510.7  93322.13  3460.41  3.71
512.2  94738.88  3688.23  3.89
513.6  96231.10  3954.59  4.11
515.0  97668.85  4250.43  4.35
516.4  99054.90  4581.63  4.63
517.8  100697.13  4957.74  4.92
519.3  102029.68  5356.01  5.25
520.7  103590.65  5797.97  5.60
522.1  104896.35  6247.76  5.96
523.5  106293.30  6706.95  6.31
524.9  107763.75  7167.38  6.65
526.3  109189.15  7617.25  6.98
527.8  110691.90  8060.58  7.28
529.2  111854.30  8467.17  7.57
530.6  113418.05  8890.74  7.84
532.0  115136.00  9289.33  8.07
533.4  116473.50  9617.82  8.26
534.8  117411.55  9877.19  8.41
536.3  119131.50  10180.68  8.55
537.7  121161.60  10482.48  8.65
539.1  122609.10  10721.81  8.74
540.5  123801.70  10933.14  8.83
541.9  125545.05  11186.92  8.91
543.3  126838.85  11395.09  8.98
544.7  128158.80  11601.51  9.05
546.1  129955.65  11858.94  9.13
547.5  131208.00  12063.15  9.19
549.0  133001.00  12302.40  9.25
550.4  134512.50  12507.55  9.30
551.8  136067.20  12684.53  9.32
553.2  137620.55  12827.78  9.32
554.6  138985.60  12908.68  9.29
556.0  140521.95  12957.41  9.22
557.4  142144.28  12971.74  9.13
558.8  143782.20  12944.20  9.00
560.2  145250.00  12868.36  8.86
561.6  146929.95  12769.73  8.69
563.0  148525.03  12632.05  8.50
564.4  150115.95  12460.86  8.30
565.8  151650.63  12255.99  8.08
567.2  153402.50  12038.57  7.85
568.6  154925.25  11778.56  7.60
570.0  156360.83  11501.17  7.36
571.4  158114.45  11239.64  7.11
572.8  159888.50  10983.02  6.87
574.2  161515.20  10735.79  6.65
575.6  163057.50  10506.43  6.44
577.0  164584.50  10302.80  6.26
578.4  166336.63  10135.67  6.09
579.8  167856.30  9978.88  5.94
581.2  169585.33  9856.17  5.81
582.5  171007.20  9725.93  5.69
583.9  172539.60  9625.88  5.58
585.3  174343.50  9551.81  5.48
586.7  175817.53  9479.14  5.39
588.1  177328.13  9420.32  5.31
589.5  178984.75  9387.23  5.24
590.9  180618.40  9365.42  5.19
592.3  182439.35  9367.08  5.13
593.7  183888.90  9368.88  5.09
595.0  185526.45  9385.46  5.06
596.4  186985.05  9396.52  5.03
597.8  188476.13  9412.51  4.99
599.2  190027.20  9421.03  4.96
600.6  191800.05  9427.50  4.92
602.0  193105.20  9397.76  4.87
603.3  194903.20  9376.60  4.81
604.7  196564.45  9329.22  4.75
606.1  198071.40  9253.10  4.67
607.5  199712.35  9172.20  4.59
608.9  201406.75  9081.92  4.51
610.2  202801.73  8971.83  4.42
611.6  204403.43  8869.22  4.34
613.0  205955.85  8759.18  4.25
614.4  207352.05  8657.67  4.18
615.8  208801.13  8568.30  4.10
617.1  210357.00  8492.40  4.04
618.5  211980.40  8439.38  3.98
619.9  213502.13  8390.12  3.93
621.3  215135.33  8367.06  3.89
622.6  216733.00  8354.97  3.85
624.0  218169.45  8358.60  3.83
625.4  219638.10  8370.15  3.81
626.8  221230.10  8403.24  3.80
628.1  222542.10  8434.84  3.79
629.5  224426.03  8488.18  3.78
630.9  226043.13  8535.12  3.78
632.2  227414.08  8562.84  3.77
633.6  229046.88  8587.94  3.75
635.0  230600.40  8587.88  3.72
636.3  232131.40  8563.99  3.69
637.7  233520.00  8505.81  3.64
639.1  235165.00  8434.33  3.59
640.4  236650.58  8337.55  3.52
641.8  237856.80  8224.96  3.46
643.2  239444.10  8121.89  3.39
644.5  240827.00  8019.92  3.33
645.9  242562.15  7939.83  3.27
647.2  244465.20  7885.42  3.23
648.6  246341.25  7843.89  3.18
650.0  247816.80  7806.45  3.15
651.3  248244.70  7754.41  3.12
652.7  249285.75  7720.21  3.10
654.0  251350.40  7717.08  3.07
655.4  252870.83  7703.16  3.05
656.8  253150.40  7646.22  3.02
658.1  254376.20  7614.66  2.99
659.5  256813.20  7600.68  2.96
660.8  258637.50  7573.71  2.93
662.2  259526.40  7538.35  2.90
663.5  261104.20  7525.94  2.88
664.9  262437.50  7519.05  2.87
666.2  263158.80  7511.21  2.85
667.6  264908.45  7553.50  2.85
668.9  266065.30  7599.72  2.86
670.3  267179.88  7659.07  2.87
671.6  268796.63  7747.12  2.88
673.0  269947.13  7852.48  2.91
674.3  271211.20  7972.00  2.94
675.7  272560.03  8110.14  2.98
677.0  273660.63  8256.65  3.02
678.4  275048.20  8434.53  3.07
679.7  276149.45  8609.05  3.12
681.1  277438.60  8822.85  3.18
682.4  278614.70  9043.32  3.25
683.8  279896.50  9288.74  3.32
685.1  280921.13  9560.11  3.40
686.4  282250.80  9887.25  3.50
687.8  283554.00  10279.50  3.63
689.1  284599.75  10766.46  3.78
690.5  285990.60  11443.20  4.00
691.8  286803.48  12344.98  4.30
693.1  288175.95  13610.28  4.72
694.5  289380.00  15252.03  5.27
695.8  290585.75  17333.77  5.97
697.1  291814.25  19869.20  6.81
698.5  292875.40  22872.95  7.81
699.8  294004.05  26317.25  8.95
701.1  295160.48  30161.64  10.22
702.5  295968.75  34281.15  11.58
703.8  296955.00  38643.86  13.01
705.1  298117.95  43188.84  14.49
706.5  299198.50  47827.10  15.99
707.8  300182.85  52525.48  17.50
709.1  301097.28  57222.59  19.00
710.5  302258.18  61979.73  20.51
711.8  303146.20  66651.51  21.99
713.1  304172.00  71330.69  23.45
714.4  305086.30  75936.81  24.89
715.8  305956.00  80462.22  26.30
717.1  307267.80  85057.29  27.68
718.4  308246.40  89460.05  29.02
719.7  309390.85  93824.35  30.33
721.0  309937.50  97897.29  31.59
722.4  310739.00  101911.40  32.80
723.7  311731.95  105851.86  33.96
725.0  312809.63  109685.13  35.06
726.3  313775.28  113318.52  36.11
727.6  314345.90  116657.92  37.11
729.0  315287.53  119964.56  38.05
730.3  316087.20  123045.60  38.93
731.6  317016.10  126010.52  39.75
732.9  317843.40  128766.61  40.51
734.2  318694.75  131384.86  41.23
735.5  319751.80  133942.84  41.89
736.8  320542.50  136244.30  42.50
738.1  321407.20  138418.78  43.07
739.5  322349.45  140497.73  43.59
740.8  323070.00  142342.40  44.06
742.1  323834.03  144092.82  44.50
743.4  324625.00  145739.52  44.89
744.7  325663.80  147390.75  45.26
746.0  326584.05  148860.51  45.58
747.3  327179.45  150086.51  45.87
748.6  327952.00  151302.10  46.14
749.9  328718.00  152422.40  46.37
751.2  329463.85  153480.58  46.58
752.5  330431.40  154533.05  46.77
753.8  331074.28  155404.52  46.94
755.1  331786.00  156237.71  47.09
756.4  332402.08  156954.31  47.22
757.7  333394.95  157807.89  47.33
759.0  335234.18  159014.91  47.43
760.3  336441.60  159878.40  47.52
761.6  338059.40  160909.73  47.60
762.9  338655.00  161396.76  47.66
764.2  339047.60  161783.77  47.72
765.5  339379.95  162096.98  47.76
766.8  339836.80  162466.90  47.81
768.1  340390.20  162859.86  47.85
769.3  341035.10  163266.67  47.87
770.6  341716.70  163691.70  47.90
771.9  342495.30  164149.16  47.93
773.2  342930.00  164415.98  47.94
774.5  343571.80  164800.28  47.97
775.8  344324.75  165209.39  47.98
777.1  344931.95  165563.12  48.00
778.4  345302.38  165798.39  48.02
779.6  346117.90  166235.22  48.03
780.9  346650.00  166518.86  48.04
782.2  347118.75  166809.45  48.06
783.5  347486.50  167020.90  48.07
784.8  348075.90  167332.78  48.07
786.0  348506.20  167582.25  48.09
787.3  348963.33  167828.90  48.09
788.6  349438.50  168091.16  48.10
789.9  349917.40  168371.65  48.12
791.2  350604.73  168737.88  48.13
792.4  351348.63  169120.92  48.13
793.7  351869.00  169401.62  48.14
795.0  352557.98  169757.04  48.15
796.2  353270.45  170119.11  48.16
797.5  354021.38  170510.33  48.16
798.8  354750.98  170882.85  48.17
800.0  355430.03  171254.95  48.18
801.3  355982.10  171531.38  48.19
802.6  356627.70  171876.51  48.19
803.8  357326.10  172217.97  48.20
805.1  357889.00  172506.68  48.20
806.4  358368.60  172760.64  48.21
807.7  358933.28  173064.21  48.22
808.9  359547.45  173388.34  48.22
810.2  360102.75  173697.57  48.24
811.4  360659.40  173980.53  48.24
812.7  361278.13  174310.65  48.25
814.0  362161.15  174743.28  48.25
815.2  362849.25  175088.37  48.25
816.5  363269.08  175322.88  48.26
817.7  363796.50  175598.48  48.27
819.0  364328.25  175881.46  48.28
820.2  364496.00  176005.87  48.29
821.5  365281.65  176386.21  48.29
822.7  365640.90  176604.41  48.30
824.0  366006.60  176789.31  48.30
825.2  366498.68  177061.29  48.31
826.5  366854.00  177232.62  48.31
827.7  367439.28  177534.25  48.32
829.0  367825.03  177770.15  48.33
830.2  368155.25  177950.30  48.34
831.5  368702.80  178222.59  48.34
832.7  369053.48  178401.43  48.34
834.0  369368.23  178571.45  48.35
835.2  369723.48  178774.09  48.35
836.4  370088.95  178954.19  48.35
837.7  370457.00  179194.49  48.37
838.9  370930.13  179432.25  48.37
840.1  371333.70  179668.44  48.38
841.4  371727.70  179906.96  48.40
842.6  372116.40  180129.02  48.41
843.8  372461.60  180331.73  48.42
845.1  373014.75  180611.66  48.42
846.3  373401.30  180842.62  48.43
847.5  373804.20  181066.72  48.44
848.8  374260.80  181296.48  48.44
850.0  374647.00  181486.91  48.44
851.2  375179.85  181783.65  48.45
852.5  375447.70  182006.97  48.48
853.7  375970.50  182267.49  48.48
854.9  376439.50  182521.62  48.49
856.1  376861.55  182787.53  48.50
857.4  377107.00  182874.29  48.49
858.6  377643.65  183149.05  48.50
859.8  378024.38  183358.79  48.50
861.0  378448.20  183612.45  48.52
862.2  378900.83  183843.27  48.52
863.5  379307.83  184027.96  48.52
864.7  379915.80  184321.03  48.52
865.9  380285.40  184538.78  48.53
867.1  380537.80  184715.42  48.54
868.3  381061.35  184945.08  48.53
869.5  381502.95  185192.64  48.54
870.8  382117.50  185462.23  48.54
872.0  382604.10  185712.56  48.54
873.2  383091.30  185915.13  48.53
874.4  383581.58  186176.42  48.54
875.6  383957.08  186377.19  48.54
876.8  384458.55  186636.39  48.55
878.0  384979.75  186880.52  48.54
879.2  385562.25  187133.77  48.54
880.4  386013.00  187369.38  48.54
881.6  386507.75  187598.63  48.54
882.8  386912.00  187834.12  48.55
884.0  387596.28  188136.54  48.54
885.2  388072.50  188413.01  48.55
886.5  388718.75  188707.25  48.55
887.7  389268.10  188929.04  48.53
888.8  390018.08  189274.79  48.53
890.0  390601.25  189518.98  48.52
891.2  391197.50  189832.63  48.53
892.4  391883.10  190116.97  48.51
893.6  392529.90  190433.48  48.51
894.8  393443.75  190886.20  48.52
896.0  394320.25  191289.72  48.51
897.2  395242.25  191699.42  48.50
898.4  396003.30  192058.99  48.50
899.6  396594.75  192372.54  48.51
900.8  397030.55  192566.29  48.50
902.0  397212.30  192679.08  48.51
903.2  397744.13  192818.95  48.48
904.3  398121.60  193000.06  48.48
905.5  398701.43  193300.49  48.48
906.7  399406.50  193626.68  48.48
907.9  400031.10  193930.15  48.48
909.1  400304.70  194082.27  48.48
910.2  400513.35  194171.89  48.48
911.4  400909.28  194287.64  48.46
912.6  401115.00  194389.71  48.46
913.8  401343.83  194531.20  48.47
915.0  401964.15  194733.98  48.45
916.2  402177.75  194849.76  48.45
917.3  402255.23  194868.43  48.44
918.5  402659.50  195003.79  48.43
919.7  402806.10  195127.49  48.44
920.8  402932.73  195138.81  48.43
922.0  403172.00  195189.87  48.41
923.2  403357.50  195267.80  48.41
924.4  403778.25  195446.12  48.40
925.5  404064.00  195519.41  48.39
926.7  404772.13  195804.95  48.37
927.9  405747.60  196215.31  48.36
929.0  407311.20  196881.09  48.34
930.2  409472.80  197923.29  48.34
931.4  412022.03  199043.65  48.31
932.5  414700.95  200324.36  48.31
933.7  416156.90  201007.45  48.30
934.9  416990.00  201310.83  48.28
936.0  416549.25  201051.56  48.27
937.2  414617.70  200043.23  48.25
938.3  413027.65  199144.10  48.22
939.5  411494.40  198328.18  48.20
940.7  411872.40  198382.42  48.17
941.8  413301.30  199078.97  48.17
943.0  414963.75  199752.79  48.14
944.2  415894.05  200121.78  48.12
945.3  415515.75  199823.00  48.09
946.5  414894.15  199334.34  48.04
947.6  415153.90  199323.27  48.01
948.8  415019.48  199158.35  47.99
949.9  415329.60  199095.76  47.94
951.1  415086.75  198794.76  47.89
952.2  414936.00  198548.34  47.85
953.4  414707.25  198265.22  47.81
954.5  414671.40  198120.45  47.78
955.7  414691.20  197896.32  47.72
956.8  414663.70  197583.42  47.65
958.0  414426.50  197333.30  47.62
959.1  414431.10  197085.87  47.56
960.3  413955.00  196876.12  47.56
961.4  413980.75  196731.60  47.52
962.6  414048.25  196745.70  47.52
963.7  414108.60  196549.72  47.46
964.9  413940.23  196382.83  47.44
966.0  413794.58  196310.25  47.44
967.2  413923.05  196326.34  47.43
968.3  413808.75  196214.48  47.42
969.5  413771.00  196075.27  47.39
970.6  414031.65  196036.03  47.35
971.8  414104.78  196183.26  47.38
972.9  414322.58  196184.35  47.35
974.0  414544.80  196278.71  47.35
975.2  414466.88  196208.60  47.34
976.3  414454.90  196130.25  47.32
977.5  414479.80  196103.55  47.31
978.6  414503.60  196049.00  47.30
979.7  414531.60  196133.96  47.31
980.9  414851.00  196139.49  47.28
982.0  414676.80  195984.15  47.26
983.2  414871.10  196000.56  47.24
984.3  414375.60  195881.94  47.27
985.4  414259.70  195977.13  47.31
986.6  413920.25  195958.51  47.34
987.7  415467.33  196524.71  47.30
988.9  415708.20  196196.67  47.20
990.0  416244.40  196811.66  47.28
993.1  360329.14  169985.24  47.17
996.9  360975.28  170678.15  47.28
1000.7  362080.95  171518.67  47.37
1004.5  362717.42  172083.68  47.44
1008.4  362513.29  172316.10  47.53
1012.2  362629.13  172653.42  47.61
1016.0  362751.60  172997.49  47.69
1019.8  363016.50  173359.73  47.76
1023.7  363063.81  173577.71  47.81
1027.5  362852.27  173685.59  47.87
1031.3  363089.85  173949.29  47.91
1035.1  363005.13  174032.82  47.94
1038.9  362952.33  174139.30  47.98
1042.7  362774.92  174184.01  48.01
1046.5  362679.17  174187.09  48.03
1050.3  362723.93  174272.59  48.05
1054.2  362436.08  174211.00  48.07
1058.0  361964.75  174014.00  48.07
1061.8  361819.47  174015.93  48.09
1065.6  361541.27  173867.26  48.09
1069.4  361606.13  173900.70  48.09
1073.2  361238.50  173704.62  48.09
1077.0  360780.40  173445.85  48.08
1080.8  360325.00  173141.22  48.05
1084.6  359245.95  172563.07  48.03
1088.4  358610.33  172184.54  48.01
1092.2  357756.75  171710.03  48.00
1096.0  357216.57  171344.09  47.97
1099.8  356721.73  170977.15  47.93
1103.6  356119.85  170545.45  47.89
1107.4  355223.39  169964.28  47.85
1111.2  354947.80  169686.24  47.81
1114.9  354250.75  169184.33  47.76
1118.7  353625.53  168651.10  47.69
1122.5  352947.40  168020.30  47.60
1126.3  351863.34  167143.94  47.50
1130.1  351378.65  166395.69  47.36
1133.9  349831.30  164931.20  47.15
1137.7  348440.60  163382.24  46.89
1141.4  346719.53  161507.00  46.58
1145.2  346030.53  159958.08  46.23
1149.0  344951.25  158316.05  45.90
1152.8  343356.30  156565.87  45.60
1156.6  341732.42  155039.68  45.37
1160.3  340058.33  153734.52  45.21
1164.1  337715.73  152316.89  45.10
1167.9  335967.71  151303.72  45.04
1171.7  334695.38  150595.88  44.99
1175.4  333573.50  149993.42  44.97
1179.2  332588.15  149421.38  44.93
1183.0  332303.67  149157.48  44.89
1186.7  331818.67  148789.83  44.84
1190.5  330735.67  148211.99  44.81
1194.3  329560.93  147614.05  44.79
1198.0  328428.93  147084.30  44.78
1201.8  326995.43  146451.11  44.79
1205.6  325776.33  145970.67  44.81
1209.3  324855.92  145681.14  44.84
1213.1  323867.85  145383.51  44.89
1216.8  322872.83  145151.38  44.96
1220.6  321777.87  144880.27  45.02
1224.3  320530.00  144539.75  45.09
1228.1  319343.40  144250.09  45.17
1231.9  318155.08  143902.38  45.23
1235.6  316768.28  143438.43  45.28
1239.4  315451.63  143037.34  45.34
1243.1  314258.41  142608.98  45.38
1246.9  313078.58  142175.67  45.41
1250.6  312147.60  141803.99  45.43
1254.3  311125.65  141384.22  45.44
1258.1  310176.65  140971.08  45.45
1261.8  308932.93  140422.02  45.45
1265.6  307547.30  139783.96  45.45
1269.3  306122.48  139075.14  45.43
1273.1  306091.58  138971.42  45.40
1276.8  306319.20  138959.54  45.36
1280.6  306171.23  138775.30  45.33
1284.3  304843.20  138020.06  45.28
1288.0  303459.30  137191.04  45.21
1291.8  302192.45  136360.39  45.12
1295.5  300838.27  135462.38  45.03
1299.2  299585.73  134570.87  44.92
1302.9  298165.99  133518.14  44.78
1306.7  296616.60  132357.17  44.62
1310.4  295162.03  131124.92  44.42
1314.1  293833.83  129891.64  44.21
1317.9  292653.96  128612.53  43.95
1321.6  291300.21  127167.27  43.66
1325.3  289716.53  125510.55  43.32
1329.0  288411.78  123932.55  42.97
1332.8  286378.40  121932.80  42.58
1336.5  284601.20  120024.35  42.17
1340.2  284193.00  118687.83  41.76
1343.9  283696.25  117301.87  41.35
1347.6  282982.20  115828.65  40.93
1351.4  283076.50  114733.22  40.53
1355.1  283295.47  113713.71  40.14
1358.8  283344.00  112592.00  39.74
1362.5  282852.23  111138.42  39.29
1366.2  281252.25  109067.87  38.78
1369.9  279463.50  106668.66  38.17
1373.6  277515.29  103847.20  37.42
1377.3  275674.20  100535.70  36.47
1381.0  274461.50  96720.55  35.24
1384.8  272545.00  91814.82  33.69
1388.4  270310.13  86271.18  31.92
1392.2  268543.42  80432.75  29.95
1395.9  267024.58  74468.18  27.89
1399.6  265444.69  68669.87  25.87
1403.3  264314.53  63449.80  24.01
1407.0  263241.90  58877.24  22.37
1410.7  262133.03  55057.32  21.00
1414.3  261007.78  51995.10  19.92
1418.1  259912.46  49654.23  19.10
1421.7  259074.73  47922.99  18.50
1425.4  258208.60  46662.94  18.07
1429.1  257362.13  45793.34  17.79
1432.8  255947.83  45135.41  17.63
1436.5  255196.25  44804.84  17.56
1440.2  254390.47  44651.87  17.55
1443.9  253149.33  44538.54  17.59
1447.6  251589.80  44457.60  17.67
1451.2  250572.85  44515.27  17.77
1454.9  249338.70  44586.45  17.88
1458.6  248303.19  44785.60  18.04
1462.3  247178.07  45095.70  18.24
1466.0  245853.33  45523.66  18.52
1469.7  244219.63  46072.77  18.87
1473.3  243222.17  46875.45  19.27
1477.0  241405.47  47624.61  19.73
1480.7  239891.14  48491.66  20.21
1484.4  238033.69  49304.56  20.71
1488.0  236558.67  50220.76  21.23
1491.7  235013.38  51095.85  21.74
1495.4  233370.08  51942.05  22.26
1499.0  231826.00  52769.64  22.76
1502.7  230551.33  53654.71  23.27
1506.4  229187.72  54467.31  23.77
1510.0  227840.97  55252.15  24.25
1513.7  226437.17  55968.21  24.72
1517.4  225148.00  56671.95  25.17
1521.0  223972.40  57366.27  25.61
1524.7  222798.33  57989.13  26.03
1528.3  221564.75  58564.27  26.43
1532.0  220375.28  59102.45  26.82
1535.7  219017.77  59535.15  27.18
1539.3  217811.80  59970.66  27.53
1543.0  216863.01  60455.97  27.88
1546.6  216179.17  60976.81  28.21
1550.3  215231.95  61376.42  28.52
1553.9  214204.80  61730.63  28.82
1557.6  212984.93  61987.41  29.10
1561.2  211774.95  62199.06  29.37
1564.9  210494.23  62384.28  29.64
1568.5  209235.72  62540.45  29.89
1572.2  208136.70  62717.19  30.13
1575.8  207102.00  62906.00  30.37
1579.5  206129.55  63086.75  30.61
1583.1  205161.83  63259.08  30.83
1586.8  203980.00  63336.00  31.05
1590.4  202964.10  63454.72  31.26
1594.0  201691.97  63479.33  31.47
1597.7  200585.92  63554.08  31.68
1601.3  199328.85  63566.78  31.89
1604.9  198086.56  63551.40  32.08
1608.6  196815.42  63498.32  32.26
1612.2  195789.00  63503.20  32.43
1615.8  194685.73  63454.49  32.59
1619.5  193608.67  63390.42  32.74
1623.1  192334.97  63243.06  32.88
1626.7  191108.13  63085.15  33.01
1630.3  189934.67  62927.19  33.13
1634.0  188762.00  62744.00  33.24
1637.6  187663.40  62548.44  33.33
1641.2  186527.80  62297.70  33.40
1644.8  185214.20  61937.60  33.44
1648.5  184107.63  61624.87  33.47
1652.1  183144.90  61292.70  33.47
1655.7  182228.60  60950.46  33.45
1659.3  181396.57  60623.96  33.42
1662.9  180030.00  60109.17  33.39
1666.6  178674.80  59598.46  33.36
1670.2  177359.93  59097.22  33.32
1673.8  176001.18  58571.12  33.28
1677.4  174936.55  58118.83  33.22
1681.0  174192.20  57723.58  33.14
1684.6  173788.33  57391.60  33.02
1688.2  173111.10  56905.24  32.87
1691.8  172457.63  56451.51  32.73
1695.4  172047.20  56067.69  32.59
1699.0  171753.63  55705.20  32.43
1702.6  171469.67  55334.86  32.27
1706.2  170940.47  54860.76  32.09
1709.8  170093.95  54294.48  31.92
1713.4  169427.45  53775.36  31.74
1717.0  168592.50  53224.32  31.57
1720.6  167829.23  52691.87  31.40
1724.2  167145.08  52184.20  31.22
1727.8  166437.95  51688.15  31.06
1731.4  165951.50  51286.71  30.90
1735.0  165739.93  51010.62  30.78
1738.6  165484.95  50704.69  30.64
1742.2  164931.13  50269.16  30.48
1745.8  164320.58  49786.42  30.30
1749.4  163411.88  49190.39  30.10
1753.0  161950.53  48424.06  29.90
1756.6  160349.29  47622.71  29.70
1760.1  159053.47  46923.79  29.50
1763.7  157381.33  46138.00  29.32
1767.3  155999.00  45477.31  29.15
1770.9  154799.98  44897.65  29.00
1774.5  153402.33  44286.15  28.87
1778.0  152281.27  43782.38  28.75
1781.6  151227.30  43331.16  28.65
1785.2  150114.78  42881.35  28.57
1788.8  148976.60  42474.14  28.51
1792.3  147778.57  42074.47  28.47
1795.9  147325.75  41902.74  28.44
1799.5  146828.00  41740.48  28.43
1803.1  146104.93  41540.33  28.43
1806.6  146378.63  41621.15  28.43
1810.2  147371.93  41907.00  28.44
1813.8  148264.10  42154.05  28.43
1817.3  148297.80  42162.14  28.43
1820.9  147588.73  41939.60  28.42
1824.5  146453.08  41582.23  28.39
1828.0  145650.08  41287.72  28.35
1831.6  144872.95  40982.02  28.29
1835.2  144188.33  40650.24  28.19
1838.7  143821.87  40323.77  28.04
1842.3  143490.00  39942.86  27.84
1845.8  142778.29  39343.27  27.56
1849.4  142308.10  38676.45  27.18
1852.9  141690.09  37811.28  26.69
1856.5  140859.67  36681.53  26.04
1860.0  140126.39  35350.89  25.23
1863.6  139856.57  33894.32  24.24
1867.1  139652.45  32190.55  23.05
1870.7  139575.88  30113.26  21.57
1874.2  138928.50  27524.76  19.81
1877.8  137816.73  24695.21  17.92
1881.3  136465.38  21727.39  15.92
1884.9  135527.06  18913.39  13.96
1888.4  134533.80  16222.59  12.06
1891.9  133541.53  13866.49  10.38
1895.5  132470.67  11924.95  9.00
1899.0  131912.13  10472.37  7.94
1901.3  160671.50  8746.55  5.44
1904.1  160572.75  7879.75  4.91
1906.8  159865.80  7172.20  4.49
1909.6  158195.10  6601.82  4.17
1912.4  156674.12  6194.76  3.95
1915.1  155535.05  5908.28  3.80
1917.9  154263.83  5687.67  3.69
1920.6  153233.67  5536.87  3.61
1923.3  152280.80  5450.43  3.58
1926.1  151074.50  5391.25  3.57
1928.8  149937.33  5363.11  3.58
1931.6  149040.38  5383.90  3.61
1934.3  148191.77  5431.36  3.67
1937.0  147362.73  5500.92  3.73
1939.8  146436.50  5594.75  3.82
1942.5  145233.00  5679.67  3.91
1945.2  143656.15  5778.85  4.02
1947.9  142383.03  5902.95  4.15
1950.7  141362.73  6048.82  4.28
1953.4  139745.15  6175.67  4.42
1956.1  138472.08  6340.56  4.58
1958.8  137336.98  6515.45  4.74
1961.5  135957.60  6697.60  4.93
1964.2  134552.60  6873.53  5.11
1966.9  133071.20  7052.97  5.30
1969.6  131904.00  7257.00  5.50
1972.3  130571.90  7461.17  5.71
1975.0  129572.85  7687.70  5.93
1977.7  128529.37  7914.43  6.16
1980.4  127449.80  8147.16  6.39
1983.1  126409.10  8388.34  6.64
1985.8  125532.30  8633.30  6.88
1988.4  124548.67  8877.56  7.13
1991.1  123672.50  9122.56  7.38
1993.8  122839.20  9380.68  7.64
1996.5  122236.03  9639.18  7.89
1999.1  121598.40  9891.94  8.13
2001.8  120935.73  10147.04  8.39
2004.5  120278.25  10391.53  8.64
2007.1  119577.60  10622.20  8.88
2009.8  118863.73  10843.47  9.12
2012.4  118298.22  11066.67  9.35
2015.1  117767.30  11283.76  9.58
2017.8  117016.20  11467.95  9.80
2020.4  116531.80  11666.97  10.01
2023.1  116187.40  11862.20  10.21
2025.7  115951.33  12064.00  10.40
2028.3  115639.33  12240.22  10.58
2031.0  115271.25  12388.22  10.75
2033.6  115005.30  12545.40  10.91
2036.2  114761.70  12684.60  11.05
2038.9  114196.20  12774.50  11.19
2041.5  113857.10  12891.95  11.32
2044.1  113326.20  12965.90  11.44
2046.8  112969.50  13052.90  11.55
2049.4  112377.90  13105.10  11.66
2052.0  112083.60  13190.24  11.77
2054.6  111702.50  13259.17  11.87
2057.2  111166.60  13321.25  11.98
2059.8  110852.20  13411.49  12.10
2062.4  110030.48  13441.10  12.22
2065.0  109533.47  13501.73  12.33
2067.6  108679.40  13525.36  12.45
2070.2  108104.10  13574.75  12.56
2072.8  107493.93  13621.24  12.67
2075.4  107073.75  13679.17  12.78
2078.0  106471.57  13716.64  12.88
2080.6  105943.20  13763.20  12.99
2083.2  105270.13  13789.97  13.10
2085.8  104793.95  13836.68  13.20
2088.4  104145.00  13862.45  13.31
2090.9  103384.23  13865.68  13.41
2093.5  102543.70  13860.10  13.52
2096.1  101798.83  13863.03  13.62
2098.7  101069.82  13874.74  13.73
2101.2  100153.87  13853.98  13.83
2103.8  99507.60  13865.62  13.93
2106.4  98843.87  13883.09  14.05
2108.9  98223.80  13900.56  14.15
2111.5  97411.60  13877.27  14.25
2114.0  96809.00  13888.91  14.35
2116.6  96302.50  13915.42  14.45
2119.1  95775.83  13930.23  14.54
2121.7  95313.75  13950.42  14.64
2124.2  94951.77  13979.91  14.72
2126.8  94183.68  13947.93  14.81
2129.3  93799.20  13968.53  14.89
2131.9  93227.20  13962.67  14.98
2134.4  92809.95  13971.20  15.05
2136.9  92431.08  13988.29  15.13
2139.4  91938.47  13976.82  15.20
2142.0  91504.00  13982.73  15.28
2144.5  91251.70  14008.60  15.35
2147.0  91030.67  14043.20  15.43
2149.5  90566.13  14034.26  15.50
2152.1  90390.30  14070.90  15.57
2154.6  90322.13  14116.80  15.63
2157.1  89806.92  14094.30  15.69
2159.6  89416.33  14079.17  15.75
2162.1  89252.80  14101.97  15.80
2164.6  89022.60  14114.05  15.85
2167.1  88692.63  14114.78  15.91
2169.6  88387.83  14113.79  15.97
2172.1  87938.27  14090.07  16.02
2174.6  87634.87  14091.51  16.08
2177.1  87216.92  14079.72  16.14
2179.5  86803.38  14061.96  16.20
2182.0  86337.90  14034.35  16.26
2184.5  85829.35  14009.31  16.32
2187.0  85239.60  13970.77  16.39
2189.5  84581.85  13927.85  16.47
2191.9  83856.50  13863.67  16.53
2194.4  83266.45  13822.03  16.60
2196.9  82540.80  13750.40  16.66
2199.3  81915.33  13697.67  16.72
2201.8  81068.93  13600.71  16.78
2204.3  80624.28  13560.09  16.82
2206.7  80011.55  13497.78  16.87
2209.2  79560.83  13464.39  16.92
2211.6  78982.20  13394.70  16.96
2214.1  78704.50  13362.85  16.98
2216.5  78165.40  13280.87  16.99
2219.0  77827.67  13231.20  17.00
2221.4  77449.17  13162.72  17.00
2223.9  77012.83  13083.39  16.99
2226.3  76526.92  12961.08  16.94
2228.7  75992.95  12828.57  16.88
2231.1  75428.10  12681.90  16.81
2233.6  74857.60  12519.31  16.72
2236.0  74325.42  12346.25  16.61
2238.4  73859.33  12171.06  16.48
2240.9  73427.20  11996.16  16.34
2243.3  72930.53  11800.80  16.18
2245.7  72376.30  11595.07  16.02
2248.1  71909.50  11395.22  15.85
2250.5  71430.75  11184.66  15.66
2252.9  70833.10  10963.33  15.48
2255.3  70316.65  10755.95  15.30
2257.7  69890.00  10560.00  15.11
2260.1  69430.67  10357.74  14.92
2262.5  68830.00  10153.33  14.75
2264.9  68335.92  9963.36  14.58
2267.3  67760.00  9766.67  14.41
2269.7  67283.53  9595.21  14.26
2272.1  66751.07  9415.67  14.11
2274.5  66209.47  9251.22  13.97
2276.8  65759.42  9101.81  13.84
2279.2  65214.45  8951.20  13.73
2281.6  64799.13  8821.76  13.61
2284.0  64347.10  8692.73  13.51
2286.3  63910.93  8552.53  13.38
2288.7  63523.63  8438.59  13.28
2291.1  63006.63  8295.82  13.17
2293.4  62565.07  8168.84  13.06
2295.8  61995.70  8013.40  12.93
2298.2  61427.25  7869.45  12.81
2300.5  60775.20  7717.65  12.70
2302.9  60067.67  7550.22  12.57
2305.2  59400.10  7388.53  12.44
2307.6  58753.42  7231.99  12.31
2309.9  58021.67  7081.78  12.21
2312.2  57443.00  6971.56  12.14
2314.6  56852.55  6862.05  12.07
2316.9  56190.15  6751.65  12.02
2319.2  55648.27  6648.49  11.95
2321.6  55031.67  6541.50  11.89
2323.9  54489.58  6444.44  11.83
2326.2  53961.20  6339.99  11.75
2328.6  53483.10  6235.17  11.66
2330.9  52993.50  6132.00  11.57
2333.2  52546.25  6036.03  11.49
2335.5  52109.00  5938.50  11.40
2337.8  51673.73  5837.38  11.30
2340.1  51123.78  5715.17  11.18
2342.4  50721.67  5608.06  11.06
2344.8  50293.08  5523.83  10.98
2347.1  49755.77  5417.53  10.89
2349.4  49255.52  5324.72  10.81
2351.6  48682.65  5225.57  10.73
2353.9  48215.67  5134.18  10.65
2356.2  47701.62  5046.97  10.58
2358.5  47140.80  4957.87  10.52
2360.8  46592.00  4860.80  10.43
2363.1  46179.02  4770.82  10.33
2365.4  45719.80  4678.20  10.23
2367.7  45280.80  4590.40  10.14
2369.9  44758.05  4499.85  10.05
2372.2  44158.13  4403.20  9.97
2374.5  43601.25  4304.30  9.87
2376.7  42993.28  4205.23  9.78
2379.0  42403.50  4098.81  9.67
2381.3  41813.33  3993.89  9.55
2383.5  41324.80  3903.29  9.45
2385.8  40724.43  3800.63  9.33
2388.0  40226.20  3705.20  9.21
2390.3  39741.47  3615.38  9.10
2392.5  39276.00  3532.00  8.99
2394.8  38828.90  3440.43  8.86
2397.0  38365.60  3364.98  8.77
2399.3  37938.90  3273.25  8.63
2401.5  37509.50  3193.17  8.51
2403.8  36986.95  3095.59  8.37
2406.0  36505.00  3025.53  8.29
2408.2  36103.47  2942.13  8.15
2410.4  35702.33  2871.16  8.04
2412.7  35299.77  2785.61  7.89
2414.9  34951.95  2711.32  7.76
2417.1  34569.40  2624.67  7.59
2419.3  34163.20  2555.73  7.48
2421.6  33790.00  2492.92  7.38
2423.8  33428.07  2433.41  7.28
2426.0  33055.57  2362.97  7.15
2428.2  32718.93  2295.38  7.02
2430.4  32421.67  2227.61  6.87
2432.6  32160.00  2177.78  6.77
2434.8  31866.13  2116.39  6.64
2437.0  31514.60  2064.25  6.55
2439.2  31169.43  1995.96  6.40
2441.4  30879.50  1931.39  6.25
2443.6  30631.55  1883.67  6.15
2445.7  30362.85  1846.48  6.08
2447.9  30087.83  1795.25  5.97
2450.1  29800.05  1737.52  5.83
2452.3  29461.48  1670.47  5.67
2454.5  29104.20  1626.35  5.59
2456.6  28747.33  1574.09  5.48
2458.8  28385.50  1534.87  5.41
2461.0  28098.08  1484.92  5.28
2463.1  27805.05  1435.60  5.16
2465.3  27525.30  1395.05  5.07
2467.5  27302.25  1376.67  5.04
2469.6  27058.83  1332.55  4.92
2471.8  26759.70  1301.44  4.86
2473.9  26441.08  1267.00  4.79
2476.1  26101.83  1228.50  4.71
2478.2  25759.57  1188.20  4.61
2480.4  25450.30  1161.48  4.56
2482.5  25144.93  1140.61  4.54
2484.6  24808.67  1111.61  4.48
2486.8  24554.80  1088.53  4.43
2488.9  24243.20  1052.22  4.34
2491.1  23911.07  1026.04  4.29
2493.2  23550.83  1000.58  4.25
2495.3  23152.13  972.69  4.20
2497.4  22813.70  949.90  4.16
2499.5  22494.83  938.63  4.17
2501.7  22349.33  931.22  4.17
2503.8  22249.88  924.99  4.16
2505.9  22191.25  911.11  4.11
2508.0  22193.62  893.35  4.03
2510.1  22175.33  882.24  3.98
2512.2  22258.55  886.92  3.98
2514.3  22381.35  898.55  4.01
2516.4  22556.50  919.33  4.08
