/*** Spectra Vista SIG Data ***/
name= 8_20220824_QUPH_6_avg.sig
comm= Averaged Ref/Tar of files: HR.082422.0022_moc.sig,HR.082422.0023_moc.sig
data=
337.3  3424.13  337.45  9.86
338.8  3559.40  346.32  9.73
340.3  3748.00  318.58  8.50
341.8  3886.63  310.93  8.00
343.2  4084.80  310.80  7.61
344.7  4265.00  315.61  7.40
346.2  4452.65  310.46  6.97
347.7  4679.68  306.74  6.55
349.2  4876.20  302.40  6.20
350.6  5104.78  301.15  5.90
352.1  5394.48  292.95  5.43
353.6  5690.80  291.48  5.12
355.1  6027.83  303.08  5.03
356.6  6292.80  308.09  4.90
358.0  6571.40  319.00  4.85
359.5  6859.80  333.72  4.86
361.0  7211.93  323.19  4.48
362.5  7611.50  327.88  4.31
364.0  7971.65  326.90  4.10
365.4  8345.70  348.44  4.18
366.9  8729.50  364.65  4.18
368.4  9082.58  376.40  4.14
369.9  9458.75  394.57  4.17
371.3  9905.70  395.16  3.99
372.8  10354.50  419.49  4.05
374.3  10776.88  403.13  3.74
375.8  11238.15  425.81  3.79
377.2  11674.60  430.40  3.69
378.7  12105.00  441.16  3.64
380.2  12535.40  451.92  3.61
381.7  13080.10  470.24  3.60
383.1  13582.80  474.32  3.49
384.6  14134.90  480.16  3.40
386.1  14620.53  491.86  3.36
387.6  15118.95  495.88  3.28
389.0  15651.20  514.56  3.29
390.5  16195.50  525.69  3.25
392.0  16795.75  544.87  3.24
393.4  17394.05  562.29  3.23
394.9  17956.80  558.54  3.11
396.4  18526.50  579.60  3.13
397.9  19090.63  589.38  3.09
399.3  19702.85  607.80  3.08
400.8  20288.95  628.11  3.10
402.2  20965.70  643.21  3.07
403.7  21595.28  659.66  3.05
405.2  22207.15  672.37  3.03
406.6  22805.60  686.72  3.01
408.1  23413.60  700.60  2.99
409.6  24079.15  719.96  2.99
411.0  24787.35  742.98  3.00
412.5  25489.80  766.36  3.01
414.0  26161.50  790.55  3.02
415.4  26871.00  814.88  3.03
416.9  27563.25  836.54  3.03
418.4  28292.63  859.05  3.04
419.8  29047.20  877.24  3.02
421.3  29785.58  901.95  3.03
422.7  30624.00  939.60  3.07
424.2  31438.13  968.63  3.08
425.7  32225.10  997.56  3.10
427.1  33010.95  1025.46  3.11
428.6  33836.50  1041.60  3.08
430.0  34614.18  1068.32  3.09
431.5  35521.50  1101.47  3.10
432.9  36419.90  1136.84  3.12
434.4  37373.93  1171.79  3.14
435.9  38248.00  1201.20  3.14
437.3  39132.50  1229.25  3.14
438.8  39991.95  1259.76  3.15
440.2  40896.63  1296.30  3.17
441.7  41901.80  1329.28  3.17
443.1  42837.25  1362.10  3.18
444.6  43858.80  1401.70  3.20
446.0  44828.63  1435.04  3.20
447.5  45832.05  1476.04  3.22
448.9  46801.20  1514.46  3.24
450.4  47850.25  1556.59  3.25
451.8  48737.00  1599.00  3.28
453.3  49711.15  1634.38  3.29
454.7  50776.45  1673.23  3.30
456.2  51670.08  1708.67  3.31
457.6  52688.48  1746.99  3.32
459.1  53699.75  1785.55  3.33
460.5  54677.00  1821.68  3.33
462.0  55777.10  1863.75  3.34
463.4  56855.00  1904.30  3.35
464.8  57872.63  1936.95  3.35
466.3  58905.00  1977.53  3.36
467.7  59931.35  2015.54  3.36
469.2  61043.28  2054.95  3.37
470.6  62058.85  2099.07  3.38
472.0  63126.38  2136.59  3.38
473.5  64184.00  2175.25  3.39
474.9  65250.75  2217.30  3.40
476.4  66456.00  2263.68  3.41
477.8  67555.50  2308.40  3.42
479.2  68614.00  2346.10  3.42
480.7  69769.50  2394.17  3.43
482.1  70935.05  2444.94  3.45
483.6  72177.75  2491.18  3.45
485.0  73315.88  2538.92  3.46
486.4  74539.65  2595.72  3.48
487.9  75684.38  2647.13  3.50
489.3  76893.95  2706.46  3.52
490.7  77998.33  2765.36  3.55
492.2  79277.10  2834.16  3.58
493.6  80428.50  2894.84  3.60
495.0  81578.25  2965.95  3.64
496.5  82811.03  3049.47  3.68
497.9  83955.68  3131.65  3.73
499.3  85173.70  3228.50  3.79
500.7  86464.30  3337.27  3.86
502.2  87643.80  3451.44  3.94
503.6  88928.60  3582.84  4.03
505.0  90053.55  3729.89  4.14
506.5  91412.93  3900.60  4.27
507.9  92656.25  4085.77  4.41
509.3  94083.60  4306.80  4.58
510.7  95369.63  4545.45  4.77
512.2  96823.28  4825.97  4.98
513.6  98340.55  5140.17  5.23
515.0  99816.83  5490.85  5.50
516.4  101237.85  5874.12  5.80
517.8  102914.75  6311.05  6.13
519.3  104267.60  6770.08  6.49
520.7  105880.80  7272.28  6.87
522.1  107216.20  7784.08  7.26
523.5  108628.50  8323.32  7.66
524.9  110135.25  8863.83  8.05
526.3  111614.30  9404.99  8.43
527.8  113142.15  9946.53  8.79
529.2  114283.00  10447.88  9.14
530.6  115860.10  10999.34  9.49
532.0  117642.00  11527.60  9.80
533.4  118998.45  11967.72  10.06
534.8  119924.30  12338.93  10.29
536.3  121685.70  12765.84  10.49
537.7  123782.40  13219.92  10.68
539.1  125283.63  13584.62  10.84
540.5  126500.90  13905.70  10.99
541.9  128300.40  14285.43  11.13
543.3  129605.28  14609.97  11.27
544.7  130940.40  14936.28  11.41
546.1  132763.13  15318.22  11.54
547.5  134052.80  15630.72  11.66
549.0  135872.00  15991.80  11.77
550.4  137423.75  16296.63  11.86
551.8  139003.68  16576.88  11.93
553.2  140584.98  16818.66  11.96
554.6  141970.40  16976.96  11.96
556.0  143564.85  17104.41  11.91
557.4  145231.45  17191.13  11.84
558.8  146918.25  17241.03  11.74
560.2  148414.38  17224.58  11.61
561.6  150130.43  17201.25  11.46
563.0  151772.28  17135.01  11.29
564.4  153397.00  17053.02  11.12
565.8  154955.00  16923.50  10.92
567.2  156745.75  16789.35  10.71
568.6  158296.50  16595.25  10.48
570.0  159763.08  16357.14  10.24
571.4  161551.00  16117.53  9.98
572.8  163359.50  15879.83  9.72
574.2  165032.00  15637.44  9.48
575.6  166612.50  15399.00  9.24
577.0  168189.20  15187.20  9.03
578.4  169965.25  15019.55  8.84
579.8  171528.30  14857.83  8.66
581.2  173312.48  14741.92  8.51
582.5  174762.90  14610.96  8.36
583.9  176327.40  14518.72  8.23
585.3  178183.35  14462.64  8.12
586.7  179689.58  14393.93  8.01
588.1  181220.25  14351.15  7.92
589.5  182904.75  14339.85  7.84
590.9  184586.40  14351.76  7.78
592.3  186455.35  14397.36  7.72
593.7  187932.23  14431.76  7.68
595.0  189604.80  14497.38  7.65
596.4  191090.20  14548.03  7.61
597.8  192620.90  14599.55  7.58
599.2  194211.60  14646.72  7.54
600.6  196010.75  14689.48  7.49
602.0  197334.08  14673.53  7.44
603.3  199171.45  14666.52  7.36
604.7  200872.08  14613.11  7.27
606.1  202418.40  14523.12  7.17
607.5  204098.73  14409.59  7.06
608.9  205818.45  14271.99  6.93
610.2  207252.68  14104.13  6.81
611.6  208887.15  13938.23  6.67
613.0  210478.70  13776.63  6.55
614.4  211906.20  13610.07  6.42
615.8  213393.38  13457.93  6.31
617.1  214958.10  13335.84  6.20
618.5  216612.80  13243.04  6.11
619.9  218158.73  13166.84  6.04
621.3  219838.73  13130.33  5.97
622.6  221475.75  13111.95  5.92
624.0  222958.95  13107.78  5.88
625.4  224466.00  13126.25  5.85
626.8  226087.23  13169.98  5.83
628.1  227425.83  13220.13  5.81
629.5  229300.90  13309.24  5.80
630.9  230941.43  13389.81  5.80
632.2  232336.83  13450.99  5.79
633.6  233978.88  13518.48  5.78
635.0  235536.80  13539.84  5.75
636.3  237096.50  13521.68  5.70
637.7  238489.25  13469.10  5.65
639.1  240170.00  13394.50  5.58
640.4  241687.95  13273.93  5.49
641.8  242936.93  13115.64  5.40
643.2  244563.20  12967.19  5.30
644.5  245955.25  12789.60  5.20
645.9  247691.25  12634.56  5.10
647.2  249481.93  12482.68  5.00
648.6  251403.75  12356.55  4.92
650.0  252871.20  12225.60  4.83
651.3  253266.20  12083.56  4.77
652.7  254518.10  11981.39  4.71
654.0  256617.40  11917.16  4.64
655.4  258154.63  11779.23  4.56
656.8  258371.40  11567.92  4.48
658.1  259688.00  11381.78  4.38
659.5  262208.63  11246.87  4.29
660.8  264060.00  11097.00  4.20
662.2  264992.00  10886.40  4.11
663.5  266641.70  10733.89  4.03
664.9  267940.40  10585.90  3.95
666.2  268708.80  10447.32  3.89
667.6  270467.38  10376.66  3.84
668.9  271583.93  10334.47  3.81
670.3  272863.13  10323.83  3.78
671.6  274372.13  10345.65  3.77
673.0  275566.88  10398.75  3.77
674.3  276868.80  10466.56  3.78
675.7  278189.15  10551.85  3.79
677.0  279343.08  10660.10  3.82
678.4  280708.63  10801.06  3.85
679.7  281853.93  10964.05  3.89
681.1  283200.18  11169.95  3.94
682.4  284382.80  11425.70  4.02
683.8  285664.60  11739.52  4.11
685.1  286695.75  12120.08  4.23
686.4  288067.20  12640.68  4.39
687.8  289361.25  13309.95  4.60
689.1  290451.50  14177.70  4.88
690.5  291823.95  15314.22  5.25
691.8  292624.50  16752.87  5.73
693.1  294042.30  18631.89  6.34
694.5  295226.75  20934.55  7.09
695.8  296478.00  23669.10  7.98
697.1  297683.75  26822.25  9.01
698.5  298800.10  30381.68  10.17
699.8  299922.23  34316.35  11.44
701.1  301055.98  38574.71  12.81
702.5  301899.40  43038.93  14.26
703.8  302872.50  47718.00  15.76
705.1  304083.00  52550.75  17.28
706.5  305127.88  57472.43  18.84
707.8  306172.65  62454.84  20.40
709.1  307080.38  67452.76  21.97
710.5  308241.28  72560.72  23.54
711.8  309122.60  77635.22  25.11
713.1  310148.40  82795.44  26.70
714.4  311085.00  87942.28  28.27
715.8  311954.70  93093.58  29.84
717.1  313324.65  98398.11  31.40
718.4  314272.00  103582.08  32.96
719.7  315414.15  108810.47  34.50
721.0  315967.50  113787.00  36.01
722.4  316759.85  118788.89  37.50
723.7  317779.50  123773.19  38.95
725.0  318854.48  128696.22  40.36
726.3  319823.90  133457.78  41.73
727.6  320394.53  137904.09  43.04
729.0  321339.73  142345.91  44.30
730.3  322119.75  146544.92  45.49
731.6  323081.40  150618.53  46.62
732.9  323918.18  154471.52  47.69
734.2  324772.25  158141.23  48.69
735.5  325844.78  161734.38  49.64
736.8  326633.40  165023.10  50.52
738.1  327477.80  168146.06  51.35
739.5  328465.73  171154.17  52.11
740.8  329188.75  173850.82  52.81
742.1  329953.45  176432.69  53.47
743.4  330700.00  178835.00  54.08
744.7  331730.98  181229.79  54.63
746.0  332668.05  183412.32  55.13
747.3  333254.40  185265.56  55.59
748.6  334003.25  187078.90  56.01
749.9  334776.00  188780.80  56.39
751.2  335504.50  190372.00  56.74
752.5  336419.75  191961.92  57.06
753.8  337045.45  193288.76  57.35
755.1  337740.00  194568.40  57.61
756.4  338350.35  195685.26  57.84
757.7  339366.13  196960.12  58.04
759.0  341213.48  198664.87  58.22
760.3  342460.80  199927.20  58.38
761.6  344097.60  201367.32  58.52
762.9  344647.00  202149.75  58.65
764.2  345046.30  202788.34  58.77
765.5  345352.48  203325.29  58.87
766.8  345793.60  203907.52  58.97
768.1  346336.00  204530.04  59.06
769.3  346952.20  205157.47  59.13
770.6  347642.10  205807.03  59.20
771.9  348412.05  206483.31  59.26
773.2  348837.20  206933.76  59.32
774.5  349463.40  207498.72  59.38
775.8  350152.45  208089.28  59.43
777.1  350761.95  208609.06  59.47
778.4  351128.53  208964.58  59.51
779.6  351944.00  209602.87  59.56
780.9  352440.00  210030.00  59.59
782.2  352896.50  210455.30  59.64
783.5  353251.00  210785.50  59.67
784.8  353809.35  211231.40  59.70
786.0  354206.65  211577.03  59.73
787.3  354628.83  211940.06  59.76
788.6  355103.35  212310.94  59.79
789.9  355584.60  212693.88  59.82
791.2  356272.78  213203.38  59.84
792.4  356987.35  213710.98  59.87
793.7  357513.60  214107.36  59.89
795.0  358139.10  214599.33  59.92
796.2  358814.90  215083.59  59.94
797.5  359577.38  215607.53  59.96
798.8  360281.30  216105.38  59.98
800.0  360995.33  216611.47  60.00
801.3  361505.40  216989.88  60.02
802.6  362165.63  217438.74  60.04
803.8  362790.83  217927.29  60.07
805.1  363307.00  218307.78  60.09
806.4  363778.80  218671.14  60.11
807.7  364358.25  219099.74  60.13
808.9  364961.50  219506.62  60.15
810.2  365521.10  219913.82  60.16
811.4  366032.80  220293.36  60.18
812.7  366721.88  220756.25  60.20
814.0  367551.80  221362.31  60.23
815.2  368193.25  221842.80  60.25
816.5  368638.00  222180.49  60.27
817.7  369152.75  222562.90  60.29
819.0  369716.05  222959.33  60.31
820.2  369908.00  223141.60  60.32
821.5  370639.65  223651.85  60.34
822.7  370938.08  223939.21  60.37
824.0  371285.10  224230.68  60.39
825.2  371808.23  224612.60  60.41
826.5  372101.53  224887.18  60.44
827.7  372674.00  225304.49  60.46
829.0  373136.05  225606.50  60.46
830.2  373495.85  225857.93  60.47
831.5  374018.70  226236.68  60.49
832.7  374349.68  226504.22  60.51
834.0  374644.18  226772.75  60.53
835.2  375028.50  227086.59  60.55
836.4  375370.60  227356.36  60.57
837.7  375822.80  227683.36  60.58
838.9  376217.33  228043.55  60.61
840.1  376600.05  228357.90  60.64
841.4  377076.30  228749.38  60.66
842.6  377434.00  229072.96  60.69
843.8  377794.20  229383.84  60.72
845.1  378356.25  229803.20  60.74
846.3  378810.30  230134.92  60.75
847.5  379224.30  230457.78  60.77
848.8  379699.20  230810.64  60.79
850.0  379972.25  231103.32  60.82
851.2  380509.65  231567.12  60.86
852.5  380977.50  231852.94  60.86
853.7  381516.75  232250.85  60.88
854.9  381991.90  232619.12  60.90
856.1  382418.40  232972.61  60.92
857.4  382600.83  233168.79  60.94
858.6  383135.65  233561.03  60.96
859.8  383574.38  233890.88  60.98
861.0  384064.20  234257.40  60.99
862.2  384515.75  234632.79  61.02
863.5  384910.18  234896.48  61.03
864.7  385506.00  235282.08  61.03
865.9  385937.20  235599.32  61.05
867.1  386247.35  235856.32  61.06
868.3  386675.10  236211.63  61.09
869.5  387176.70  236602.94  61.11
870.8  387778.50  236981.70  61.11
872.0  388326.15  237387.75  61.13
873.2  388796.25  237701.04  61.14
874.4  389188.80  238030.65  61.16
875.6  389621.10  238287.93  61.16
876.8  390184.70  238675.61  61.17
878.0  390695.25  239038.54  61.18
879.2  391265.10  239387.46  61.18
880.4  391783.13  239769.60  61.20
881.6  392343.43  240142.26  61.21
882.8  392732.80  240399.04  61.21
884.0  393396.80  240782.39  61.21
885.2  393948.40  241139.92  61.21
886.5  394582.85  241565.38  61.22
887.7  395029.70  241897.18  61.24
888.8  395768.40  242353.38  61.24
890.0  396425.60  242736.72  61.23
891.2  397100.60  243132.76  61.23
892.4  397679.63  243549.08  61.24
893.6  398310.90  243958.20  61.25
894.8  399308.75  244550.95  61.24
896.0  400176.00  245107.80  61.25
897.2  400985.00  245628.50  61.26
898.4  401936.70  246113.34  61.23
899.6  402411.75  246516.15  61.26
900.8  402828.93  246799.93  61.27
902.0  403094.55  246947.55  61.26
903.2  403495.95  247198.25  61.26
904.3  403846.80  247416.72  61.26
905.5  404513.73  247827.53  61.27
906.7  405195.00  248179.10  61.25
907.9  405788.60  248562.79  61.25
909.1  406143.45  248824.17  61.27
910.2  406434.60  248953.04  61.25
911.4  406545.75  249108.21  61.27
912.6  406827.85  249226.12  61.26
913.8  407012.18  249407.40  61.28
915.0  407586.90  249700.08  61.26
916.2  408008.25  249849.60  61.24
917.3  408036.60  249909.57  61.25
918.5  408123.70  250052.20  61.27
919.7  408462.75  250208.10  61.26
920.8  408652.80  250246.63  61.24
922.0  408696.75  250311.60  61.25
923.2  409090.50  250477.50  61.23
924.4  409313.25  250624.80  61.23
925.5  409676.00  250716.10  61.20
926.7  410182.38  251064.08  61.21
927.9  411097.80  251517.24  61.18
929.0  412608.60  252362.25  61.16
930.2  414876.40  253699.02  61.15
931.4  417538.13  255211.56  61.12
932.5  420336.75  256804.62  61.09
933.7  421733.28  257564.80  61.07
934.9  422493.75  257899.25  61.04
936.0  421965.38  257512.13  61.03
937.2  419912.10  256149.69  61.00
938.3  418376.45  255004.04  60.95
939.5  416739.60  253935.36  60.93
940.7  417029.40  253965.06  60.90
941.8  418739.48  254822.36  60.85
943.0  420162.00  255538.80  60.82
944.2  421008.25  255856.12  60.77
945.3  420702.75  255422.70  60.71
946.5  419773.05  254791.17  60.70
947.6  420112.10  254698.92  60.63
948.8  420064.13  254366.78  60.55
949.9  420462.00  254172.24  60.45
951.1  419899.35  253624.02  60.40
952.2  419832.00  253164.00  60.30
953.4  419474.00  252637.75  60.23
954.5  419515.20  252214.56  60.12
955.7  419403.60  251813.52  60.04
956.8  419239.60  251238.70  59.93
958.0  419078.00  250693.70  59.82
959.1  419171.33  250329.03  59.72
960.3  418784.48  249890.84  59.67
961.4  418437.20  249608.11  59.65
962.6  418603.50  249483.85  59.60
963.7  418279.13  249201.14  59.58
964.9  418207.65  248966.60  59.53
966.0  418423.73  248893.97  59.48
967.2  418677.75  248723.64  59.41
968.3  418421.70  248556.60  59.40
969.5  418244.20  248262.60  59.36
970.6  418073.80  248188.01  59.36
971.8  418296.73  248283.21  59.36
972.9  418381.50  248218.88  59.33
974.0  418781.50  248270.62  59.28
975.2  418560.38  248134.33  59.28
976.3  418757.20  248027.60  59.23
977.5  419017.90  247855.90  59.15
978.6  418904.70  247821.94  59.16
979.7  419203.58  247954.46  59.15
980.9  419360.25  247828.38  59.10
982.0  418996.35  247750.19  59.13
983.2  418958.50  247492.07  59.07
984.3  419269.80  247211.48  58.96
985.4  418888.30  247167.24  59.01
986.6  418833.25  247246.73  59.03
987.7  420032.90  247975.95  59.04
988.9  419844.60  247908.24  59.05
990.0  420610.60  248436.78  59.07
993.1  369299.99  217975.92  59.02
996.9  369918.20  218859.03  59.16
1000.7  370972.18  220073.59  59.32
1004.5  371585.25  220985.64  59.47
1008.4  371346.21  221498.38  59.65
1012.2  371456.38  222073.36  59.78
1016.0  371686.80  222679.20  59.91
1019.8  371910.00  223240.33  60.03
1023.7  371942.16  223640.83  60.13
1027.5  371679.57  223840.24  60.22
1031.3  371877.05  224313.88  60.32
1035.1  371655.32  224557.18  60.42
1038.9  371648.75  224892.62  60.51
1042.7  371430.17  225122.95  60.61
1046.5  371235.50  225338.22  60.70
1050.3  371262.69  225599.67  60.77
1054.2  370938.17  225660.75  60.84
1058.0  370474.42  225556.82  60.88
1061.8  370337.10  225637.31  60.93
1065.6  370010.67  225560.35  60.96
1069.4  370023.13  225624.82  60.98
1073.2  369602.15  225334.13  60.97
1077.0  369097.33  224987.34  60.96
1080.8  368632.29  224629.17  60.94
1084.6  367646.18  223986.08  60.92
1088.4  366950.10  223549.81  60.92
1092.2  366093.00  222953.25  60.90
1096.0  365479.58  222446.58  60.86
1099.8  364952.90  221938.75  60.81
1103.6  364300.72  221294.31  60.74
1107.4  363356.58  220456.68  60.67
1111.2  363119.30  219993.40  60.58
1114.9  362393.50  219214.53  60.49
1118.7  361765.80  218380.80  60.37
1122.5  361061.13  217351.33  60.20
1126.3  359940.82  215861.41  59.97
1130.1  359428.11  214397.10  59.65
1133.9  357834.40  211887.90  59.21
1137.7  356381.90  209060.94  58.66
1141.4  354620.18  205660.69  57.99
1145.2  353873.78  202663.45  57.27
1149.0  352760.63  199523.33  56.56
1152.8  351138.65  196408.19  55.93
1156.6  349461.93  193774.35  55.45
1160.3  347699.00  191584.45  55.10
1164.1  345252.30  189448.12  54.87
1167.9  343466.67  187945.14  54.72
1171.7  342208.13  186873.75  54.61
1175.4  341048.73  185927.88  54.52
1179.2  340013.88  185034.08  54.42
1183.0  339687.67  184529.00  54.32
1186.7  339147.90  183969.26  54.24
1190.5  338111.20  183201.74  54.18
1194.3  336931.60  182454.71  54.15
1198.0  335732.93  181747.87  54.13
1201.8  334225.95  180988.38  54.15
1205.6  332967.67  180475.67  54.20
1209.3  332011.33  180279.81  54.30
1213.1  331042.28  180198.73  54.43
1216.8  330030.98  180241.45  54.61
1220.6  328882.40  180262.14  54.81
1224.3  327619.42  180174.28  54.99
1228.1  326366.20  180090.20  55.18
1231.9  325099.20  179900.40  55.34
1235.6  323620.58  179534.03  55.48
1239.4  322249.75  179191.13  55.61
1243.1  321008.15  178840.57  55.71
1246.9  319791.31  178460.25  55.81
1250.6  318818.80  178149.74  55.88
1254.3  317724.64  177736.38  55.94
1258.1  316730.05  177311.75  55.98
1261.8  315448.00  176669.51  56.01
1265.6  314059.78  175888.60  56.00
1269.3  312621.68  175066.56  56.00
1273.1  312585.44  174974.33  55.98
1276.8  312830.00  174949.73  55.92
1280.6  312668.80  174583.24  55.84
1284.3  311304.80  173468.27  55.72
1288.0  309874.76  172259.12  55.59
1291.8  308607.91  171105.96  55.44
1295.5  307243.20  169819.47  55.27
1299.2  305964.98  168463.95  55.06
1302.9  304502.98  166853.09  54.80
1306.7  302931.88  165030.09  54.48
1310.4  301433.23  163050.99  54.09
1314.1  300042.23  160992.34  53.66
1317.9  298813.33  158800.35  53.14
1321.6  297392.07  156347.57  52.57
1325.3  295760.85  153605.03  51.94
1329.0  294433.42  150877.07  51.24
1332.8  292384.40  147639.80  50.50
1336.5  290555.20  144493.92  49.73
1340.2  290168.67  142076.28  48.96
1343.9  289703.54  139642.92  48.20
1347.6  289084.95  137170.25  47.45
1351.4  289261.00  135175.50  46.73
1355.1  289570.60  133291.40  46.03
1358.8  289696.00  131290.67  45.32
1362.5  289176.65  128887.79  44.57
1366.2  287470.00  125679.30  43.72
1369.9  285607.13  122020.54  42.72
1373.6  283585.69  117698.31  41.50
1377.3  281748.00  112678.00  39.99
1381.0  280540.17  106904.78  38.11
1384.8  278557.50  99769.59  35.82
1388.4  276192.00  91957.45  33.29
1392.2  274349.50  83965.72  30.61
1395.9  272777.55  76118.75  27.91
1399.6  271167.75  68767.04  25.36
1403.3  269971.77  62360.98  23.10
1407.0  268878.20  56912.50  21.17
1410.7  267713.33  52453.78  19.59
1414.3  266500.09  48914.35  18.35
1418.1  265341.00  46221.61  17.42
1421.7  264459.65  44209.57  16.72
1425.4  263554.85  42729.27  16.21
1429.1  262651.13  41666.25  15.86
1432.8  261202.07  40847.49  15.64
1436.5  260393.83  40383.96  15.51
1440.2  259574.17  40115.30  15.45
1443.9  258308.05  39916.86  15.45
1447.6  256718.00  39762.80  15.49
1451.2  255655.22  39756.08  15.55
1454.9  254368.50  39783.90  15.64
1458.6  253283.44  39932.55  15.77
1462.3  252139.07  40209.16  15.95
1466.0  250787.98  40620.24  16.20
1469.7  249132.22  41151.00  16.52
1473.3  248117.17  41948.67  16.91
1477.0  246219.40  42715.04  17.35
1480.7  244667.44  43625.51  17.83
1484.4  242780.51  44519.84  18.34
1488.0  241266.67  45505.78  18.86
1491.7  239653.53  46489.05  19.40
1495.4  237970.52  47465.02  19.95
1499.0  236364.50  48439.67  20.49
1502.7  235078.17  49478.00  21.05
1506.4  233667.52  50474.33  21.60
1510.0  232251.53  51432.67  22.15
1513.7  230796.13  52355.14  22.68
1517.4  229491.00  53272.23  23.21
1521.0  228280.93  54194.32  23.74
1524.7  227051.50  55051.75  24.25
1528.3  225774.00  55854.96  24.74
1532.0  224553.82  56636.07  25.22
1535.7  223179.73  57322.16  25.68
1539.3  221931.88  58001.98  26.14
1543.0  220953.44  58722.93  26.58
1546.6  220263.33  59478.61  27.00
1550.3  219292.40  60124.64  27.42
1553.9  218232.37  60703.53  27.82
1557.6  216983.80  61185.91  28.20
1561.2  215722.80  61621.80  28.57
1564.9  214429.99  62025.28  28.93
1568.5  213123.05  62382.45  29.27
1572.2  212014.50  62751.98  29.60
1575.8  210952.00  63144.67  29.93
1579.5  209966.00  63520.72  30.25
1583.1  208972.71  63890.25  30.57
1586.8  207746.00  64166.67  30.89
1590.4  206696.97  64483.17  31.20
1594.0  205410.18  64695.08  31.50
1597.7  204290.37  64971.46  31.80
1601.3  203014.35  65176.65  32.10
1604.9  201750.39  65366.55  32.40
1608.6  200437.10  65497.94  32.68
1612.2  199393.43  65669.73  32.93
1615.8  198235.38  65775.67  33.18
1619.5  197129.58  65853.67  33.41
1623.1  195826.63  65838.87  33.62
1626.7  194587.90  65803.62  33.82
1630.3  193386.00  65760.89  34.00
1634.0  192178.00  65669.34  34.17
1637.6  191039.40  65560.05  34.32
1641.2  189899.80  65369.97  34.42
1644.8  188586.09  65044.12  34.49
1648.5  187461.44  64713.64  34.52
1652.1  186444.30  64343.00  34.51
1655.7  185523.00  63947.34  34.47
1659.3  184667.14  63552.04  34.41
1662.9  183288.33  62961.39  34.35
1666.6  181924.20  62395.05  34.30
1670.2  180579.29  61842.61  34.25
1673.8  179205.27  61278.84  34.19
1677.4  178111.85  60770.94  34.12
1681.0  177345.00  60320.76  34.01
1684.6  176914.83  59924.59  33.87
1688.2  176224.10  59349.82  33.68
1691.8  175568.79  58791.63  33.49
1695.4  175157.00  58272.07  33.27
1699.0  174842.27  57782.59  33.05
1702.6  174565.67  57280.78  32.81
1706.2  173995.03  56663.17  32.57
1709.8  173126.70  55942.20  32.31
1713.4  172422.16  55273.07  32.06
1717.0  171586.75  54565.17  31.80
1720.6  170799.00  53899.20  31.56
1724.2  170100.23  53272.30  31.32
1727.8  169372.70  52685.04  31.11
1731.4  168900.88  52231.67  30.92
1735.0  168661.53  51909.13  30.78
1738.6  168420.45  51566.95  30.62
1742.2  167846.69  51074.11  30.43
1745.8  167220.63  50517.00  30.21
1749.4  166280.40  49830.83  29.97
1753.0  164793.13  48976.60  29.72
1756.6  163147.25  48080.57  29.47
1760.1  161829.46  47310.76  29.23
1763.7  160141.33  46470.23  29.02
1767.3  158715.33  45757.69  28.83
1770.9  157504.38  45138.67  28.66
1774.5  156085.36  44509.92  28.52
1778.0  154939.81  43974.81  28.38
1781.6  153863.40  43495.65  28.27
1785.2  152714.10  43046.63  28.19
1788.8  151558.70  42642.40  28.14
1792.3  150353.00  42252.19  28.10
1795.9  149866.38  42101.19  28.09
1799.5  149366.00  41960.56  28.09
1803.1  148758.28  41838.11  28.12
1806.6  149197.07  42051.63  28.19
1810.2  150261.30  42429.57  28.24
1813.8  151136.70  42709.60  28.26
1817.3  151085.00  42710.27  28.27
1820.9  150290.77  42458.65  28.25
1824.5  149081.15  42075.35  28.22
1828.0  148215.38  41757.99  28.17
1831.6  147443.85  41435.25  28.10
1835.2  146752.50  41073.89  27.99
1838.7  146379.73  40703.03  27.81
1842.3  146025.00  40260.00  27.57
1845.8  145270.83  39559.54  27.23
1849.4  144768.63  38770.03  26.78
1852.9  144124.58  37739.77  26.19
1856.5  143277.17  36412.92  25.41
1860.0  142542.64  34831.59  24.44
1863.6  142302.89  33122.46  23.28
1867.1  142139.20  31138.69  21.91
1870.7  142092.38  28801.94  20.27
1874.2  141400.80  25977.60  18.37
1877.8  140180.47  22997.16  16.41
1881.3  138756.25  19978.42  14.40
1884.9  137770.69  17226.98  12.50
1888.4  136743.88  14680.31  10.74
1891.9  135718.27  12532.07  9.23
1895.5  134625.58  10850.20  8.06
1899.0  134076.25  9634.92  7.19
1901.3  164499.67  7916.50  4.81
1904.1  164378.25  7191.75  4.38
1906.8  163644.60  6570.60  4.02
1909.6  161947.45  6088.25  3.76
1912.4  160395.43  5749.10  3.58
1915.1  159299.80  5514.85  3.46
1917.9  158030.50  5320.42  3.37
1920.6  156989.57  5184.20  3.30
1923.3  156041.43  5094.25  3.26
1926.1  154810.50  5020.25  3.24
1928.8  153662.67  4972.00  3.24
1931.6  152798.52  4967.09  3.25
1934.3  151969.92  4972.62  3.27
1937.0  151155.07  4997.32  3.31
1939.8  150259.00  5050.33  3.36
1942.5  149061.00  5098.50  3.42
1945.2  147449.50  5136.18  3.48
1947.9  146115.43  5197.27  3.56
1950.7  145074.07  5278.89  3.64
1953.4  143402.80  5357.55  3.74
1956.1  142097.50  5466.38  3.85
1958.8  140905.27  5580.69  3.96
1961.5  139472.00  5690.20  4.08
1964.2  138001.50  5805.80  4.21
1966.9  136455.90  5923.23  4.34
1969.6  135261.00  6061.50  4.48
1972.3  133918.30  6198.85  4.63
1975.0  132891.60  6363.15  4.79
1977.7  131800.35  6528.74  4.95
1980.4  130684.70  6693.35  5.12
1983.1  129599.40  6868.73  5.30
1985.8  128707.80  7051.35  5.48
1988.4  127720.67  7232.34  5.66
1991.1  126823.67  7420.35  5.85
1993.8  125967.05  7621.44  6.05
1996.5  125329.42  7823.93  6.24
1999.1  124674.55  8013.50  6.43
2001.8  123991.93  8223.25  6.63
2004.5  123323.05  8429.43  6.84
2007.1  122605.10  8615.40  7.03
2009.8  121859.50  8810.32  7.23
2012.4  121279.58  9004.42  7.42
2015.1  120745.80  9190.18  7.61
2017.8  119986.07  9349.90  7.79
2020.4  119470.08  9517.11  7.97
2023.1  119105.47  9695.24  8.14
2025.7  118889.33  9871.34  8.30
2028.3  118560.00  10031.67  8.46
2031.0  118162.80  10176.87  8.61
2033.6  117893.70  10326.90  8.76
2036.2  117624.00  10457.40  8.89
2038.9  117041.10  10548.75  9.01
2041.5  116716.17  10656.13  9.13
2044.1  116179.80  10731.45  9.24
2046.8  115805.70  10814.10  9.34
2049.4  115188.00  10870.65  9.44
2052.0  114904.47  10960.34  9.54
2054.6  114520.00  11029.38  9.63
2057.2  113952.53  11086.97  9.73
2059.8  113638.13  11174.30  9.83
2062.4  112784.95  11209.64  9.94
2065.0  112275.73  11279.10  10.05
2067.6  111390.28  11314.24  10.16
2070.2  110797.55  11362.18  10.25
2072.8  110161.23  11414.48  10.36
2075.4  109733.75  11484.38  10.47
2078.0  109115.35  11528.13  10.57
2080.6  108556.80  11585.20  10.67
2083.2  107882.60  11615.83  10.77
2085.8  107402.60  11673.05  10.87
2088.4  106742.00  11708.59  10.97
2090.9  105949.88  11726.17  11.07
2093.5  105086.03  11729.80  11.16
2096.1  104346.00  11743.32  11.25
2098.7  103581.85  11756.50  11.35
2101.2  102634.13  11741.97  11.44
2103.8  101970.40  11763.80  11.54
2106.4  101315.40  11790.00  11.64
2108.9  100660.40  11803.10  11.73
2111.5  99830.73  11798.73  11.82
2114.0  99210.67  11803.10  11.90
2116.6  98700.00  11830.00  11.99
2119.1  98169.13  11852.53  12.07
2121.7  97676.25  11873.75  12.16
2124.2  97266.17  11896.37  12.23
2126.8  96493.70  11875.07  12.31
2129.3  96113.60  11902.00  12.38
2131.9  95550.40  11897.60  12.45
2134.4  95119.80  11907.68  12.52
2136.9  94731.87  11925.88  12.59
2139.4  94208.33  11943.40  12.68
2142.0  93773.87  11956.70  12.75
2144.5  93512.30  11988.30  12.82
2147.0  93281.87  12037.67  12.90
2149.5  92799.47  12046.60  12.98
2152.1  92636.13  12087.08  13.05
2154.6  92561.60  12144.80  13.12
2157.1  92032.33  12139.88  13.19
2159.6  91632.67  12158.04  13.27
2162.1  91482.30  12194.00  13.33
2164.6  91242.00  12215.83  13.39
2167.1  90933.37  12236.80  13.46
2169.6  90609.05  12258.17  13.53
2172.1  90154.27  12243.40  13.58
2174.6  89831.07  12264.43  13.65
2177.1  89398.50  12277.21  13.73
2179.5  88992.80  12288.69  13.81
2182.0  88525.80  12295.25  13.89
2184.5  88006.28  12282.78  13.96
2187.0  87409.27  12272.77  14.04
2189.5  86734.57  12247.73  14.12
2191.9  85965.50  12217.00  14.21
2194.4  85357.90  12200.13  14.29
2196.9  84633.60  12153.60  14.36
2199.3  83974.33  12126.84  14.44
2201.8  83103.20  12054.73  14.51
2204.3  82656.33  12040.14  14.57
2206.7  82040.65  12007.15  14.64
2209.2  81567.15  11983.54  14.69
2211.6  80952.30  11934.45  14.74
2214.1  80654.70  11930.05  14.79
2216.5  80112.33  11865.37  14.81
2219.0  79784.53  11820.67  14.82
2221.4  79392.83  11766.13  14.82
2223.9  78926.75  11686.80  14.81
2226.3  78430.92  11577.71  14.76
2228.7  77880.67  11464.67  14.72
2231.1  77309.10  11320.65  14.64
2233.6  76725.07  11165.07  14.55
2236.0  76179.83  10992.63  14.43
2238.4  75703.83  10824.05  14.30
2240.9  75264.87  10643.57  14.14
2243.3  74738.40  10449.87  13.98
2245.7  74167.30  10243.53  13.81
2248.1  73703.50  10051.39  13.64
2250.5  73207.78  9853.55  13.46
2252.9  72587.23  9627.80  13.26
2255.3  72047.95  9407.73  13.06
2257.7  71590.00  9215.00  12.87
2260.1  71116.27  9019.97  12.68
2262.5  70510.00  8830.00  12.52
2264.9  69983.17  8645.57  12.35
2267.3  69380.00  8470.00  12.21
2269.7  68918.97  8307.60  12.05
2272.1  68373.77  8148.56  11.92
2274.5  67816.78  7986.67  11.78
2276.8  67342.05  7868.09  11.68
2279.2  66782.25  7728.45  11.57
2281.6  66369.53  7610.40  11.47
2284.0  65912.60  7489.15  11.36
2286.3  65451.20  7366.94  11.26
2288.7  65040.95  7250.54  11.15
2291.1  64521.17  7122.40  11.04
2293.4  64064.00  7001.87  10.93
2295.8  63468.60  6864.95  10.82
2298.2  62876.25  6722.33  10.69
2300.5  62234.55  6582.60  10.58
2302.9  61504.00  6422.17  10.44
2305.2  60800.90  6277.85  10.33
2307.6  60135.85  6143.58  10.22
2309.9  59385.67  6024.34  10.14
2312.2  58807.00  5931.34  10.09
2314.6  58187.70  5842.58  10.04
2316.9  57504.60  5744.25  9.99
2319.2  56933.73  5665.39  9.95
2321.6  56329.58  5555.08  9.86
2323.9  55770.83  5458.34  9.79
2326.2  55234.07  5373.17  9.73
2328.6  54726.65  5272.03  9.63
2330.9  54232.50  5171.25  9.54
2333.2  53763.33  5080.00  9.45
2335.5  53339.50  5002.25  9.38
2337.8  52881.47  4917.20  9.30
2340.1  52309.95  4814.76  9.20
2342.4  51891.67  4717.92  9.09
2344.8  51472.08  4634.13  9.00
2347.1  50907.27  4545.68  8.93
2349.4  50390.23  4456.25  8.84
2351.6  49817.37  4379.13  8.79
2353.9  49319.00  4303.00  8.72
2356.2  48802.17  4229.89  8.67
2358.5  48238.40  4144.00  8.59
2360.8  47678.40  4065.60  8.53
2363.1  47233.38  3987.53  8.44
2365.4  46770.70  3921.10  8.38
2367.7  46306.80  3853.20  8.32
2369.9  45765.65  3767.05  8.23
2372.2  45155.73  3680.80  8.15
2374.5  44583.00  3592.05  8.06
2376.7  43992.32  3514.04  7.99
2379.0  43380.70  3437.65  7.92
2381.3  42770.00  3348.34  7.83
2383.5  42251.73  3273.60  7.75
2385.8  41677.53  3182.89  7.64
2388.0  41146.60  3103.40  7.54
2390.3  40643.33  3043.80  7.49
2392.5  40176.00  2970.00  7.39
2394.8  39724.30  2891.90  7.28
2397.0  39251.33  2821.00  7.19
2399.3  38779.55  2747.34  7.08
2401.5  38342.50  2682.75  7.00
2403.8  37824.48  2604.98  6.89
2406.0  37324.50  2533.00  6.79
2408.2  36926.27  2493.34  6.75
2410.4  36513.75  2415.53  6.62
2412.7  36104.03  2356.25  6.53
2414.9  35736.25  2295.98  6.42
2417.1  35331.40  2228.85  6.31
2419.3  34918.40  2169.60  6.21
2421.6  34552.08  2105.42  6.09
2423.8  34180.13  2055.22  6.01
2426.0  33821.58  1992.94  5.89
2428.2  33450.67  1960.00  5.86
2430.4  33162.73  1898.98  5.73
2432.6  32893.33  1853.34  5.63
2434.8  32601.30  1811.18  5.56
2437.0  32226.57  1759.77  5.46
2439.2  31872.30  1709.86  5.36
2441.4  31547.53  1649.64  5.23
2443.6  31322.38  1616.55  5.16
2445.7  31057.02  1575.76  5.07
2447.9  30797.58  1551.71  5.04
2450.1  30488.50  1517.40  4.98
2452.3  30124.97  1482.25  4.92
2454.5  29770.82  1418.33  4.76
2456.6  29403.60  1383.87  4.71
2458.8  29057.60  1358.50  4.68
2461.0  28775.67  1297.50  4.51
2463.1  28474.35  1265.85  4.45
2465.3  28183.80  1251.15  4.44
2467.5  27936.50  1231.63  4.41
2469.6  27670.42  1178.42  4.26
2471.8  27375.38  1163.79  4.25
2473.9  27074.58  1138.79  4.21
2476.1  26738.83  1114.75  4.17
2478.2  26353.67  1081.57  4.10
2480.4  26079.65  1074.50  4.12
2482.5  25748.78  1045.13  4.06
2484.6  25400.83  1005.13  3.96
2486.8  25151.40  981.25  3.90
2488.9  24858.75  978.57  3.94
2491.1  24466.40  944.07  3.86
2493.2  24077.73  934.05  3.88
2495.3  23681.23  913.90  3.86
2497.4  23361.10  893.55  3.82
2499.5  23045.07  849.63  3.69
2501.7  22924.50  846.32  3.69
2503.8  22818.25  844.19  3.70
2505.9  22755.00  845.63  3.72
2508.0  22736.63  832.04  3.66
2510.1  22711.83  831.58  3.66
2512.2  22809.05  834.93  3.66
2514.3  22931.87  835.27  3.64
2516.4  23167.20  876.65  3.78
