/*** Spectra Vista SIG Data ***/
name= 35_20220926_QUPH_15_avg.sig
comm= Averaged Ref/Tar of files: HR.092722.0023_moc.sig,HR.092722.0024_moc.sig
data=
337.3  6517.88  512.84  7.87
338.8  6734.00  492.00  7.31
340.3  7089.38  483.43  6.82
341.8  7258.00  451.04  6.21
343.2  7727.78  441.59  5.71
344.7  8158.13  461.27  5.65
346.2  8636.25  493.50  5.71
347.7  8943.95  490.73  5.49
349.2  9298.80  479.52  5.16
350.6  9715.65  463.35  4.77
352.1  10188.00  468.97  4.60
353.6  10801.60  479.64  4.44
355.1  11309.25  477.08  4.22
356.6  11973.80  511.31  4.27
358.0  12475.03  540.98  4.34
359.5  12987.68  526.13  4.05
361.0  13757.60  532.01  3.87
362.5  14361.08  528.96  3.68
364.0  15105.53  554.44  3.67
365.4  15767.63  583.29  3.70
366.9  16469.20  616.05  3.74
368.4  17104.00  652.09  3.81
369.9  17861.00  661.75  3.70
371.3  18803.95  720.35  3.83
372.8  19585.15  752.54  3.84
374.3  20408.80  746.92  3.66
375.8  21288.48  768.23  3.61
377.2  22007.70  765.68  3.48
378.7  22860.95  769.06  3.36
380.2  23673.53  784.85  3.32
381.7  24634.25  818.38  3.32
383.1  25624.35  839.08  3.27
384.6  26550.38  851.72  3.21
386.1  27469.73  872.22  3.18
387.6  28390.50  887.77  3.13
389.0  29410.43  903.21  3.07
390.5  30434.63  921.59  3.03
392.0  31515.75  972.90  3.09
393.4  32674.50  998.15  3.05
394.9  33594.00  1013.64  3.02
396.4  34711.60  1039.47  2.99
397.9  35771.40  1053.53  2.95
399.3  36796.45  1078.11  2.93
400.8  38015.18  1113.96  2.93
402.2  39189.15  1170.28  2.99
403.7  40377.00  1187.17  2.94
405.2  41490.00  1219.68  2.94
406.6  42717.90  1242.52  2.91
408.1  43760.85  1280.50  2.93
409.6  44956.53  1315.03  2.93
411.0  46258.85  1365.58  2.95
412.5  47605.70  1397.24  2.94
414.0  48941.20  1440.32  2.94
415.4  50232.60  1469.50  2.93
416.9  51484.30  1518.16  2.95
418.4  52852.88  1565.09  2.96
419.8  54226.90  1620.04  2.99
421.3  55682.55  1669.14  3.00
422.7  57122.00  1718.97  3.01
424.2  58634.48  1766.11  3.01
425.7  60055.88  1819.80  3.03
427.1  61584.20  1870.07  3.04
428.6  63052.50  1918.17  3.04
430.0  64617.30  1984.93  3.07
431.5  66296.10  2041.28  3.08
432.9  67929.75  2099.75  3.09
434.4  69617.48  2158.59  3.10
435.9  71245.90  2210.59  3.10
437.3  72952.50  2265.41  3.11
438.8  74621.00  2327.97  3.12
440.2  76347.60  2398.16  3.14
441.7  78189.80  2475.47  3.17
443.1  80002.35  2548.15  3.19
444.6  81799.75  2617.16  3.20
446.0  83600.05  2691.62  3.22
447.5  85575.00  2780.00  3.25
448.9  87337.20  2859.26  3.27
450.4  89250.00  2952.15  3.31
451.8  91053.00  3024.33  3.32
453.3  92860.35  3107.38  3.35
454.7  94682.70  3190.48  3.37
456.2  96476.80  3266.02  3.39
457.6  98393.40  3347.69  3.40
459.1  100250.33  3425.10  3.42
460.5  102086.23  3501.13  3.43
462.0  104139.00  3585.40  3.44
463.4  106096.38  3675.34  3.46
464.8  108063.90  3753.09  3.47
466.3  110005.73  3834.60  3.49
467.7  112009.60  3925.35  3.50
469.2  113867.10  4002.69  3.52
470.6  115932.25  4081.15  3.52
472.0  117993.85  4170.98  3.53
473.5  119982.73  4265.03  3.55
474.9  122156.70  4349.75  3.56
476.4  124238.20  4454.36  3.59
477.8  126308.00  4554.40  3.61
479.2  128354.50  4645.75  3.62
480.7  130503.38  4739.77  3.63
482.1  132699.60  4846.98  3.65
483.6  134924.40  4954.25  3.67
485.0  137161.43  5073.87  3.70
486.4  139252.00  5185.05  3.72
487.9  141504.25  5324.72  3.76
489.3  143631.53  5469.78  3.81
490.7  145806.25  5622.54  3.86
492.2  148032.38  5798.23  3.92
493.6  150301.30  5994.75  3.99
495.0  152571.90  6214.04  4.07
496.5  154734.30  6462.18  4.18
497.9  157027.25  6734.61  4.29
499.3  159297.25  7039.43  4.42
500.7  161593.00  7395.20  4.58
502.2  163959.03  7786.07  4.75
503.6  166267.20  8230.37  4.95
505.0  168562.08  8743.53  5.19
506.5  171014.50  9340.75  5.46
507.9  173426.40  10012.49  5.77
509.3  175679.10  10756.45  6.12
510.7  178302.15  11580.63  6.49
512.2  180914.33  12492.84  6.91
513.6  183789.03  13504.45  7.35
515.0  186527.78  14611.21  7.83
516.4  189361.40  15826.24  8.36
517.8  192139.75  17102.10  8.90
519.3  195051.20  18471.91  9.47
520.7  197748.70  19883.66  10.06
522.1  200424.25  21329.52  10.64
523.5  202957.95  22791.29  11.23
524.9  205895.48  24290.20  11.80
526.3  208558.80  25758.31  12.35
527.8  211367.00  27232.19  12.88
529.2  213811.20  28701.26  13.42
530.6  216504.00  30190.99  13.94
532.0  219414.65  31640.14  14.42
533.4  221908.90  32984.87  14.86
534.8  224420.63  34268.31  15.27
536.3  227365.85  35585.07  15.65
537.7  230326.50  36898.11  16.02
539.1  233240.48  38176.24  16.37
540.5  236103.75  39396.80  16.69
541.9  239039.85  40630.36  17.00
543.3  241575.90  41789.57  17.30
544.7  244552.00  43012.52  17.59
546.1  247380.00  44195.46  17.87
547.5  250279.20  45387.16  18.13
549.0  253318.80  46559.44  18.38
550.4  256162.73  47637.72  18.60
551.8  259094.23  48660.00  18.78
553.2  261992.55  49570.55  18.92
554.6  264860.50  50369.61  19.02
556.0  267768.90  51061.74  19.07
557.4  270878.80  51690.54  19.08
558.8  273749.58  52200.66  19.07
560.2  276920.00  52707.43  19.03
561.6  279845.50  53075.43  18.97
563.0  282644.05  53358.35  18.88
564.4  285803.70  53655.22  18.77
565.8  288815.35  53868.81  18.65
567.2  291993.03  54011.96  18.50
568.6  294979.73  54018.79  18.31
570.0  297841.38  53852.46  18.08
571.4  301232.73  53650.08  17.81
572.8  304393.60  53352.65  17.53
574.2  307247.85  52978.56  17.24
575.6  310318.75  52643.28  16.96
577.0  313317.95  52333.67  16.70
578.4  316728.13  52121.88  16.46
579.8  319778.45  51890.76  16.23
581.2  322825.25  51716.00  16.02
582.5  325755.00  51560.36  15.83
583.9  328786.80  51466.09  15.65
585.3  331660.70  51384.33  15.49
586.7  334626.60  51361.86  15.35
588.1  337593.70  51393.81  15.22
589.5  340933.35  51537.50  15.12
590.9  343890.05  51685.96  15.03
592.3  346824.45  51889.88  14.96
593.7  349769.18  52160.45  14.91
595.0  352665.60  52456.34  14.87
596.4  355961.25  52841.61  14.84
597.8  358628.80  53132.40  14.82
599.2  361719.15  53446.49  14.78
600.6  364904.10  53707.50  14.72
602.0  367856.40  53849.03  14.64
603.3  370708.00  53874.23  14.53
604.7  373706.25  53791.22  14.39
606.1  376712.78  53569.52  14.22
607.5  380029.50  53273.62  14.02
608.9  383094.25  52848.18  13.80
610.2  386241.08  52338.12  13.55
611.6  389125.00  51746.36  13.30
613.0  391920.60  51116.19  13.04
614.4  394664.03  50475.64  12.79
615.8  397896.00  49936.91  12.55
617.1  400569.20  49389.72  12.33
618.5  403805.55  49002.27  12.14
619.9  406514.85  48650.16  11.97
621.3  409462.30  48416.32  11.82
622.6  412337.25  48283.40  11.71
624.0  415016.63  48231.20  11.62
625.4  418072.58  48313.34  11.56
626.8  421009.55  48488.96  11.52
628.1  423764.60  48709.70  11.49
629.5  426472.20  48980.41  11.49
630.9  429234.65  49282.28  11.48
632.2  432205.10  49598.70  11.48
633.6  434570.18  49763.64  11.45
635.0  437446.35  49878.93  11.40
636.3  440398.13  49828.85  11.31
637.7  443089.20  49553.33  11.18
639.1  446047.25  49101.87  11.01
640.4  448742.13  48449.96  10.80
641.8  451508.40  47628.88  10.55
643.2  454056.10  46645.46  10.27
644.5  456925.00  45600.00  9.98
645.9  459443.95  44437.98  9.67
647.2  461722.80  43278.68  9.37
648.6  464397.20  42202.21  9.09
650.0  467074.80  41222.57  8.83
651.3  469896.60  40357.04  8.59
652.7  473784.75  39592.37  8.36
654.0  476561.80  38685.73  8.12
655.4  478802.10  37597.76  7.85
656.8  480414.38  36283.04  7.55
658.1  483116.03  34882.41  7.22
659.5  486259.20  33378.79  6.86
660.8  489091.05  31758.60  6.49
662.2  491834.65  30075.71  6.12
663.5  494633.08  28459.90  5.75
664.9  496429.93  26946.52  5.43
666.2  498595.83  25665.43  5.15
667.6  501115.50  24627.67  4.91
668.9  503712.00  23843.93  4.73
670.3  506868.25  23246.83  4.59
671.6  508800.00  22824.53  4.49
673.0  511047.20  22597.99  4.42
674.3  513451.40  22520.52  4.39
675.7  515933.10  22577.33  4.38
677.0  518185.20  22750.83  4.39
678.4  520283.80  23078.58  4.44
679.7  522576.60  23576.03  4.51
681.1  525083.95  24332.04  4.63
682.4  527229.75  25394.73  4.82
683.8  529433.25  26946.87  5.09
685.1  531601.35  29130.41  5.48
686.4  533805.35  32172.11  6.03
687.8  536126.03  36307.89  6.77
689.1  538489.70  41652.02  7.73
690.5  540467.05  48239.31  8.93
691.8  542968.80  56160.81  10.34
693.1  545359.50  65257.46  11.97
694.5  547692.10  75238.92  13.74
695.8  550051.90  85773.11  15.59
697.1  552280.60  96538.30  17.48
698.5  554517.38  107352.40  19.36
699.8  556772.00  118011.50  21.20
701.1  558631.50  128237.49  22.96
702.5  560621.88  137988.27  24.61
703.8  563008.38  147295.10  26.16
705.1  564790.35  155817.12  27.59
706.5  566996.23  163915.15  28.91
707.8  568790.50  171368.58  30.13
709.1  570984.78  178444.35  31.25
710.5  573093.00  185076.34  32.29
711.8  574910.00  191260.32  33.27
713.1  576802.00  197102.17  34.17
714.4  578858.35  202680.94  35.01
715.8  581038.68  208049.79  35.81
717.1  583258.55  213153.61  36.55
718.4  585467.48  218014.51  37.24
719.7  587583.68  222592.83  37.88
721.0  589241.45  226766.50  38.48
722.4  590977.35  230758.85  39.05
723.7  592895.85  234572.45  39.56
725.0  594585.98  238096.99  40.04
726.3  596832.60  241628.77  40.49
727.6  598437.00  244732.85  40.90
729.0  600208.35  247719.85  41.27
730.3  602040.30  250547.61  41.62
731.6  603545.80  253026.90  41.92
732.9  605480.53  255543.36  42.21
734.2  607026.75  257805.20  42.47
735.5  608742.75  259980.67  42.71
736.8  610705.73  262091.34  42.92
738.1  612438.60  264028.26  43.11
739.5  614152.95  265822.85  43.28
740.8  616001.10  267584.91  43.44
742.1  617458.98  269127.58  43.59
743.4  619119.90  270666.36  43.72
744.7  620879.00  272175.40  43.84
746.0  622284.20  273426.80  43.94
747.3  623884.10  274674.86  44.03
748.6  625370.50  275867.99  44.11
749.9  627052.45  277079.32  44.19
751.2  628215.90  278010.37  44.25
752.5  629643.20  279019.68  44.31
753.8  630845.10  279929.25  44.37
755.1  632287.13  280926.65  44.43
756.4  633386.83  281670.47  44.47
757.7  635327.00  282785.06  44.51
759.0  638817.53  284585.64  44.55
760.3  641385.10  285937.54  44.58
761.6  644129.63  287330.70  44.61
762.9  645444.25  288082.62  44.63
764.2  646102.25  288532.53  44.66
765.5  646894.95  289013.12  44.68
766.8  647367.00  289339.49  44.69
768.1  648383.40  289873.80  44.71
769.3  649518.85  290483.23  44.72
770.6  650826.85  291176.76  44.74
771.9  651922.78  291751.16  44.75
773.2  653228.55  292422.95  44.77
774.5  654055.50  292864.68  44.78
775.8  654981.40  293363.25  44.79
777.1  656072.63  293913.37  44.80
778.4  657270.75  294508.21  44.81
779.6  658474.80  295120.56  44.82
780.9  659070.68  295463.93  44.83
782.2  659944.18  295933.79  44.84
783.5  660715.50  296349.76  44.85
784.8  661408.13  296729.33  44.86
786.0  662182.28  297069.70  44.86
787.3  662882.90  297458.53  44.87
788.6  663732.38  297908.35  44.88
789.9  664316.80  298219.62  44.89
791.2  665572.40  298874.56  44.90
792.4  666606.88  299385.47  44.91
793.7  668027.38  300070.80  44.92
795.0  669007.05  300554.13  44.93
796.2  670224.15  301175.43  44.94
797.5  671303.75  301719.79  44.95
798.8  672586.25  302368.55  44.96
800.0  673680.00  302860.00  44.96
801.3  674800.88  303417.90  44.96
802.6  675720.00  303905.83  44.98
803.8  676697.18  304397.49  44.98
805.1  677581.50  304888.46  45.00
806.4  678513.10  305320.21  45.00
807.7  679494.83  305839.07  45.01
808.9  680613.35  306362.37  45.01
810.2  681429.00  306748.50  45.02
811.4  682486.80  307236.70  45.02
812.7  683755.55  307876.51  45.03
814.0  684880.35  308468.16  45.04
815.2  686184.15  309129.24  45.05
816.5  687277.50  309619.25  45.05
817.7  688069.75  309984.64  45.05
819.0  688751.00  310309.44  45.05
820.2  689457.30  310719.45  45.07
821.5  690547.00  311281.11  45.08
822.7  691400.15  311765.05  45.09
824.0  692261.70  312169.58  45.09
825.2  692874.00  312481.99  45.10
826.5  693594.70  312812.83  45.10
827.7  694758.75  313312.57  45.10
829.0  695648.10  313781.64  45.11
830.2  696604.80  314245.80  45.11
831.5  697450.28  314666.11  45.12
832.7  698335.65  315087.53  45.12
834.0  699001.65  315350.13  45.11
835.2  700101.55  315812.71  45.11
836.4  700737.20  316192.13  45.12
837.7  701527.50  316572.91  45.13
838.9  702639.55  317152.46  45.14
840.1  703540.20  317565.93  45.14
841.4  704570.20  318043.23  45.14
842.6  705480.30  318456.36  45.14
843.8  706348.50  318872.51  45.14
845.1  707117.40  319347.56  45.16
846.3  707984.55  319748.19  45.16
847.5  708994.00  320236.06  45.17
848.8  709964.85  320639.30  45.16
850.0  711107.20  321218.56  45.17
851.2  711988.00  321655.27  45.18
852.5  713158.10  322194.87  45.18
853.7  713986.65  322537.20  45.17
854.9  715178.10  323123.58  45.18
856.1  716145.85  323622.22  45.19
857.4  717165.38  324097.80  45.19
858.6  718110.40  324519.32  45.19
859.8  719314.70  325083.25  45.19
861.0  720316.80  325559.85  45.20
862.2  721368.90  326070.24  45.20
863.5  722360.78  326512.03  45.20
864.7  723206.25  326928.57  45.21
865.9  724403.63  327434.35  45.20
867.1  725121.88  327762.06  45.20
868.3  726347.53  328315.27  45.20
869.5  727407.45  328870.34  45.21
870.8  728678.25  329396.80  45.20
872.0  729589.00  329878.46  45.21
873.2  730626.30  330264.69  45.20
874.4  731558.15  330714.11  45.21
875.6  732739.98  331173.97  45.20
876.8  734149.35  331779.08  45.19
878.0  735058.80  332313.62  45.21
879.2  736256.40  332782.46  45.20
880.4  737372.00  333290.06  45.20
881.6  738424.20  333732.43  45.20
882.8  739717.50  334298.87  45.19
884.0  740652.90  334674.12  45.19
885.2  741956.50  335257.00  45.19
886.5  743204.18  335845.65  45.19
887.7  744149.08  336251.20  45.19
888.8  745578.05  336890.44  45.19
890.0  746576.25  337307.25  45.18
891.2  747693.38  337737.66  45.17
892.4  749087.63  338359.28  45.17
893.6  750795.10  339117.70  45.17
894.8  752229.30  339781.17  45.17
896.0  753768.65  340428.39  45.16
897.2  755389.80  341179.81  45.17
898.4  757356.60  342000.66  45.16
899.6  758702.30  342561.38  45.15
900.8  759389.15  342746.38  45.13
902.0  759949.35  342986.15  45.13
903.2  760239.80  343111.23  45.13
904.3  761231.25  343560.06  45.13
905.5  762250.50  344034.20  45.13
906.7  763509.38  344482.51  45.12
907.9  764547.78  344864.59  45.11
909.1  765391.55  345294.68  45.11
910.2  765686.25  345417.75  45.11
911.4  765838.35  345484.87  45.11
912.6  766300.00  345666.43  45.11
913.8  767183.90  346037.69  45.10
915.0  767653.20  346152.95  45.09
916.2  768032.10  346170.99  45.07
917.3  768741.63  346364.58  45.06
918.5  769192.05  346528.21  45.05
919.7  768806.50  346522.21  45.07
920.8  768887.08  346654.13  45.09
922.0  768906.60  346561.81  45.07
923.2  769225.50  346587.92  45.06
924.4  770124.00  346745.49  45.02
925.5  771088.80  346997.98  45.00
926.7  771469.25  347417.37  45.03
927.9  772986.55  347856.34  45.00
929.0  776069.10  349107.07  44.98
930.2  780219.80  350839.45  44.97
931.4  785445.15  352911.62  44.93
932.5  789572.85  354849.54  44.94
933.7  792171.68  355910.74  44.93
934.9  793835.00  356430.25  44.90
936.0  792784.13  355812.59  44.88
937.2  789241.98  354289.95  44.89
938.3  785323.50  352376.98  44.87
939.5  783104.40  351097.95  44.83
940.7  783218.98  350915.18  44.80
941.8  785937.75  352001.65  44.79
943.0  788059.88  352695.90  44.75
944.2  789828.00  353231.83  44.72
945.3  789225.00  352745.11  44.70
946.5  787491.25  351686.25  44.66
947.6  788465.00  351889.42  44.63
948.8  787098.73  351012.35  44.60
949.9  787297.70  350776.32  44.55
951.1  787022.35  350575.36  44.54
952.2  786358.23  349936.14  44.50
953.4  786446.40  349533.06  44.44
954.5  784814.63  348412.05  44.39
955.7  784476.25  347773.22  44.33
956.8  785020.23  347507.96  44.27
958.0  784178.10  346693.95  44.21
959.1  783367.20  346148.64  44.19
960.3  783012.50  345659.29  44.14
961.4  783073.40  345642.64  44.14
962.6  782452.80  345205.44  44.12
963.7  782812.80  344979.84  44.07
964.9  783404.10  344911.80  44.03
966.0  783765.50  344975.46  44.02
967.2  784098.00  344865.96  43.98
968.3  785021.15  345164.46  43.97
969.5  785203.65  344965.17  43.93
970.6  785539.70  345155.81  43.94
971.8  785102.15  344949.17  43.94
972.9  786173.50  345402.30  43.93
974.0  787214.75  345561.76  43.90
975.2  785970.00  344672.36  43.85
976.3  786483.00  344949.78  43.86
977.5  785433.83  344467.74  43.86
978.6  785953.43  344593.38  43.84
979.7  785646.40  344393.28  43.84
980.9  786507.15  344434.09  43.79
982.0  786615.70  344147.86  43.75
983.2  786391.20  343979.28  43.74
984.3  784402.15  343031.72  43.73
985.4  782505.50  342823.14  43.81
986.6  784392.68  343138.29  43.75
987.7  784178.00  343002.18  43.74
988.9  784682.28  342749.54  43.68
990.0  784214.50  342264.19  43.64
993.1  858783.00  373775.92  43.52
996.9  857877.20  374284.10  43.63
1000.7  857355.78  374698.62  43.70
1004.5  856076.67  374862.27  43.79
1008.4  856881.74  375940.72  43.87
1012.2  857980.04  377089.01  43.95
1016.0  857675.45  377614.55  44.03
1019.8  856248.93  377516.38  44.09
1023.7  854599.80  377290.88  44.15
1027.5  851930.33  376584.52  44.20
1031.3  849992.68  376173.25  44.26
1035.1  848640.75  375962.29  44.30
1038.9  847947.55  375999.22  44.34
1042.7  847359.70  376083.60  44.38
1046.5  846517.00  375958.88  44.41
1050.3  844786.14  375426.13  44.44
1054.2  842622.83  374706.10  44.47
1058.0  841798.80  374387.40  44.47
1061.8  840551.00  374003.59  44.50
1065.6  838574.54  373136.14  44.50
1069.4  835965.40  372034.15  44.50
1073.2  833811.88  371010.83  44.50
1077.0  832268.80  370232.97  44.48
1080.8  831840.17  369846.71  44.46
1084.6  831501.00  369526.93  44.44
1088.4  830939.65  369142.16  44.42
1092.2  829615.03  368376.95  44.40
1096.0  828106.60  367490.70  44.38
1099.8  826488.75  366493.64  44.34
1103.6  824594.38  365337.25  44.31
1107.4  822781.54  364223.37  44.27
1111.2  821306.57  363169.53  44.22
1114.9  820225.50  362265.75  44.17
1118.7  819738.33  361447.54  44.09
1122.5  819681.20  360679.39  44.00
1126.3  817251.75  358663.95  43.89
1130.1  816631.68  357047.20  43.72
1133.9  813112.16  353651.54  43.49
1137.7  810471.60  350255.62  43.22
1141.4  806630.88  346003.37  42.89
1145.2  805571.17  342654.24  42.54
1149.0  803497.95  338985.07  42.19
1152.8  800088.05  335064.55  41.88
1156.6  796425.63  331582.91  41.63
1160.3  793215.45  328790.06  41.45
1164.1  788543.73  325813.95  41.32
1167.9  785437.54  323818.77  41.23
1171.7  782930.40  322214.98  41.15
1175.4  780428.13  320768.55  41.10
1179.2  778248.75  319465.77  41.05
1183.0  778439.88  319082.39  40.99
1186.7  778596.00  318711.00  40.93
1190.5  777375.38  317852.14  40.89
1194.3  774697.12  316466.43  40.85
1198.0  771449.73  315077.19  40.84
1201.8  768870.67  314017.00  40.84
1205.6  767228.67  313481.11  40.86
1209.3  766212.00  313323.11  40.89
1213.1  764972.04  313198.43  40.94
1216.8  763090.40  312996.72  41.02
1220.6  760713.83  312602.46  41.09
1224.3  758266.67  312164.29  41.17
1228.1  755981.08  311820.11  41.25
1231.9  753458.55  311264.30  41.31
1235.6  750899.60  310628.71  41.37
1239.4  748451.63  310075.27  41.43
1243.1  746214.30  309463.78  41.47
1246.9  744205.46  308846.32  41.50
1250.6  742047.33  308183.97  41.53
1254.3  740071.20  307521.26  41.55
1258.1  737815.33  306699.29  41.57
1261.8  735319.20  305725.60  41.58
1265.6  733074.78  304730.59  41.57
1269.3  731088.93  303780.89  41.55
1273.1  731629.99  303839.88  41.53
1276.8  731506.40  303553.37  41.50
1280.6  730528.85  302839.55  41.45
1284.3  727799.63  301312.25  41.40
1288.0  725957.81  300041.54  41.33
1291.8  724626.00  298817.10  41.24
1295.5  723073.03  297445.90  41.14
1299.2  720696.60  295627.25  41.02
1302.9  717752.84  293345.43  40.87
1306.7  714574.35  290814.31  40.70
1310.4  711545.27  288022.71  40.48
1314.1  708901.88  285310.45  40.25
1317.9  706310.91  282320.19  39.97
1321.6  703495.22  278982.60  39.66
1325.3  700689.15  275357.62  39.30
1329.0  698005.00  271702.20  38.93
1332.8  694332.50  267385.18  38.51
1336.5  690903.42  263176.47  38.09
1340.2  689150.15  259590.57  37.67
1343.9  688635.10  256492.75  37.25
1347.6  688789.70  253671.08  36.83
1351.4  689475.00  251228.04  36.44
1355.1  692012.38  249489.32  36.05
1358.8  692255.96  246823.43  35.65
1362.5  692741.41  243970.28  35.22
1366.2  689940.75  239497.06  34.71
1369.9  684389.00  233433.00  34.11
1373.6  679615.84  226684.62  33.35
1377.3  677497.73  219378.80  32.38
1381.0  675556.93  210352.51  31.14
1384.8  671696.65  198800.38  29.60
1388.4  666362.30  185510.42  27.84
1392.2  661824.03  171574.20  25.92
1395.9  660074.83  158123.25  23.96
1399.6  655899.40  144770.88  22.07
1403.3  653232.00  132987.34  20.36
1407.0  650355.75  122711.39  18.87
1410.7  648362.33  114268.74  17.62
1414.3  645685.00  107325.65  16.62
1418.1  643052.08  101859.38  15.84
1421.7  640717.00  97606.90  15.23
1425.4  638929.99  94430.18  14.78
1429.1  635113.50  91759.50  14.45
1432.8  633640.58  90086.95  14.22
1436.5  630329.38  88626.81  14.06
1440.2  627038.83  87591.22  13.97
1443.9  624952.38  86999.74  13.92
1447.6  621331.20  86466.86  13.92
1451.2  618131.75  86157.29  13.94
1454.9  616236.13  86170.33  13.98
1458.6  612367.31  86179.17  14.07
1462.3  611438.20  86884.60  14.21
1466.0  611471.46  88056.82  14.40
1469.7  609680.87  89366.20  14.66
1473.3  607453.00  90913.90  14.97
1477.0  603155.57  92400.85  15.32
1480.7  599904.13  94229.24  15.71
1484.4  596144.79  96026.06  16.11
1488.0  593003.82  98034.60  16.53
1491.7  589486.05  99969.72  16.96
1495.4  585989.48  101953.13  17.40
1499.0  583024.65  103974.91  17.83
1502.7  580254.04  106027.07  18.27
1506.4  577483.01  108022.97  18.71
1510.0  574705.63  109963.17  19.13
1513.7  571998.67  111850.68  19.55
1517.4  569476.37  113703.00  19.97
1521.0  567034.69  115503.91  20.37
1524.7  564537.49  117158.72  20.75
1528.3  562135.45  118777.73  21.13
1532.0  559586.45  120262.37  21.49
1535.7  556884.00  121596.67  21.84
1539.3  554332.43  122914.45  22.17
1543.0  552660.79  124355.00  22.50
1546.6  551264.33  125797.27  22.82
1550.3  549718.21  127097.88  23.12
1553.9  547371.80  128142.47  23.41
1557.6  545160.35  129161.90  23.69
1561.2  542681.86  130001.13  23.96
1564.9  539965.90  130765.70  24.22
1568.5  537264.00  131448.57  24.47
1572.2  534932.18  132176.63  24.71
1575.8  533075.45  132992.22  24.95
1579.5  531165.00  133743.48  25.18
1583.1  528796.45  134355.65  25.41
1586.8  526588.95  134915.52  25.62
1590.4  524311.23  135449.51  25.83
1594.0  522007.27  135920.44  26.04
1597.7  520071.33  136495.45  26.25
1601.3  517986.23  137038.70  26.46
1604.9  515574.40  137399.12  26.65
1608.6  512671.73  137578.26  26.84
1612.2  509749.00  137656.85  27.00
1615.8  507211.20  137802.09  27.17
1619.5  504873.86  137974.88  27.33
1623.1  502148.63  137949.61  27.47
1626.7  499399.85  137845.26  27.60
1630.3  496874.40  137748.99  27.72
1634.0  494492.48  137635.39  27.83
1637.6  492278.33  137484.83  27.93
1641.2  490007.82  137175.28  27.99
1644.8  487516.83  136659.34  28.03
1648.5  484871.05  136016.34  28.05
1652.1  482731.38  135371.22  28.04
1655.7  480867.57  134709.11  28.01
1659.3  479039.40  134035.09  27.98
1662.9  475819.18  132984.15  27.95
1666.6  472287.75  131874.66  27.92
1670.2  469009.48  130855.67  27.90
1673.8  465766.16  129871.44  27.88
1677.4  463203.00  129073.78  27.87
1681.0  461556.83  128416.09  27.82
1684.6  460678.63  127836.11  27.75
1688.2  459222.40  126921.60  27.64
1691.8  457520.42  126037.07  27.55
1695.4  456650.14  125295.86  27.44
1699.0  455742.75  124479.11  27.31
1702.6  455166.40  123676.54  27.17
1706.2  453657.93  122532.04  27.01
1709.8  451517.97  121213.65  26.85
1713.4  449911.80  120031.42  26.68
1717.0  448252.00  118875.00  26.52
1720.6  446523.53  117720.98  26.36
1724.2  445074.72  116653.68  26.21
1727.8  443680.78  115695.93  26.08
1731.4  442920.69  114975.28  25.96
1735.0  442863.28  114493.90  25.85
1738.6  442378.13  113797.37  25.72
1742.2  441478.10  112886.96  25.57
1745.8  439827.20  111698.29  25.40
1749.4  437499.95  110300.79  25.21
1753.0  433815.20  108534.60  25.02
1756.6  430071.25  106786.13  24.83
1760.1  426826.00  105218.92  24.65
1763.7  423048.12  103581.58  24.48
1767.3  419902.43  102233.52  24.35
1770.9  417243.67  101051.56  24.22
1774.5  414187.65  99850.94  24.11
1778.0  412053.54  98935.61  24.01
1781.6  409823.38  98085.67  23.93
1785.2  407180.57  97223.78  23.88
1788.8  404402.71  96472.06  23.86
1792.3  402134.98  95898.77  23.85
1795.9  401594.18  95785.64  23.85
1799.5  402269.37  95999.34  23.86
1803.1  404954.29  96745.40  23.89
1806.6  407732.97  97524.31  23.92
1810.2  409801.35  98134.43  23.95
1813.8  409375.47  98121.95  23.97
1817.3  408517.73  97957.15  23.98
1820.9  407412.50  97703.57  23.98
1824.5  406346.33  97399.54  23.97
1828.0  406726.91  97392.00  23.95
1831.6  407926.66  97501.07  23.90
1835.2  407878.53  97147.41  23.82
1838.7  408420.83  96731.25  23.68
1842.3  406887.25  95625.38  23.50
1845.8  404915.68  94140.87  23.25
1849.4  404343.10  92614.60  22.90
1852.9  402397.92  90355.58  22.45
1856.5  400739.84  87594.21  21.86
1860.0  400259.88  84481.69  21.11
1863.6  399891.35  80729.74  20.19
1867.1  400595.15  76486.88  19.09
1870.7  402158.73  71476.23  17.77
1874.2  400629.88  65059.16  16.24
1877.8  395652.70  57809.36  14.61
1881.3  390891.20  50492.80  12.92
1884.9  387708.78  43738.03  11.28
1888.4  384975.63  37453.01  9.73
1891.9  382785.57  32159.16  8.40
1895.5  381049.32  27924.35  7.33
1899.0  380338.60  24844.60  6.53
1901.3  402463.20  18724.14  4.65
1904.1  402543.58  17032.67  4.23
1906.8  400692.83  15628.95  3.90
1909.6  397043.07  14444.14  3.64
1912.4  393138.28  13571.48  3.45
1915.1  389248.43  12940.75  3.32
1917.9  385545.25  12448.78  3.23
1920.6  382701.50  12109.79  3.16
1923.3  380171.80  11819.70  3.11
1926.1  376926.90  11579.55  3.07
1928.8  373253.40  11424.40  3.06
1931.6  372161.73  11413.94  3.07
1934.3  368514.62  11361.31  3.08
1937.0  364795.20  11336.40  3.11
1939.8  361559.17  11380.44  3.15
1942.5  357101.80  11390.14  3.19
1945.2  353374.75  11463.67  3.24
1947.9  350485.63  11603.26  3.31
1950.7  346243.33  11691.33  3.38
1953.4  342662.40  11831.90  3.45
1956.1  339930.03  12058.74  3.55
1958.8  337692.83  12313.30  3.65
1961.5  334703.95  12553.80  3.75
1964.2  331286.13  12796.24  3.86
1966.9  328260.80  13061.33  3.98
1969.6  325528.47  13334.80  4.10
1972.3  323014.57  13644.26  4.22
1975.0  320498.67  13981.00  4.36
1977.7  318259.48  14349.20  4.51
1980.4  316090.13  14701.87  4.65
1983.1  313733.40  15079.80  4.81
1985.8  311610.00  15493.80  4.97
1988.4  309604.90  15883.18  5.13
1991.1  307788.60  16290.75  5.29
1993.8  306306.70  16747.50  5.47
1996.5  304804.50  17204.25  5.64
1999.1  303429.42  17645.03  5.82
2001.8  302182.92  18100.40  5.99
2004.5  300942.20  18558.38  6.17
2007.1  299447.80  18993.07  6.34
2009.8  297491.25  19395.83  6.52
2012.4  296169.83  19822.79  6.69
2015.1  294996.03  20229.00  6.86
2017.8  293833.42  20657.45  7.03
2020.4  292721.30  21053.28  7.19
2023.1  292259.92  21501.47  7.36
2025.7  291993.85  21915.52  7.51
2028.3  291210.42  22296.93  7.66
2031.0  290580.15  22658.59  7.80
2033.6  290271.75  23032.50  7.93
2036.2  289881.90  23404.04  8.07
2038.9  288891.20  23670.40  8.19
2041.5  287979.17  23937.50  8.31
2044.1  287187.50  24197.92  8.43
2046.8  286041.82  24397.13  8.53
2049.4  285205.60  24633.10  8.64
2052.0  284995.63  24928.20  8.75
2054.6  284589.60  25164.14  8.84
2057.2  283480.35  25344.20  8.94
2059.8  282009.00  25504.50  9.04
2062.4  280677.58  25661.35  9.14
2065.0  279291.40  25817.83  9.24
2067.6  277408.63  25923.59  9.34
2070.2  275936.30  26039.27  9.44
2072.8  275053.17  26227.67  9.54
2075.4  274002.50  26373.67  9.63
2078.0  273300.98  26581.89  9.73
2080.6  272083.13  26729.70  9.82
2083.2  270785.62  26837.68  9.91
2085.8  269501.05  26943.70  10.00
2088.4  268398.90  27089.49  10.09
2090.9  266729.00  27186.75  10.19
2093.5  264825.00  27220.80  10.28
2096.1  263019.90  27295.13  10.38
2098.7  261495.13  27337.54  10.45
2101.2  259646.20  27381.30  10.55
2103.8  258177.92  27466.88  10.64
2106.4  256707.03  27531.12  10.72
2108.9  255651.67  27649.05  10.82
2111.5  254726.50  27788.54  10.91
2114.0  254128.33  27939.17  10.99
2116.6  251985.07  27907.00  11.07
2119.1  250873.70  27993.00  11.16
2121.7  250262.87  28123.08  11.24
2124.2  250122.67  28285.08  11.31
2126.8  248956.90  28348.43  11.39
2129.3  247840.10  28413.46  11.46
2131.9  248048.27  28607.34  11.53
2134.4  247255.87  28712.08  11.61
2136.9  246968.57  28860.49  11.69
2139.4  245888.42  28906.29  11.76
2142.0  245473.03  29048.47  11.83
2144.5  244916.25  29177.67  11.91
2147.0  244480.97  29329.55  12.00
2149.5  244104.20  29494.22  12.08
2152.1  244434.23  29730.35  12.16
2154.6  244504.80  29916.40  12.24
2157.1  244415.33  30084.59  12.31
2159.6  243363.83  30143.00  12.39
2162.1  243167.70  30299.30  12.46
2164.6  242503.87  30360.02  12.52
2167.1  241579.93  30392.47  12.58
2169.6  241715.35  30556.79  12.64
2172.1  240888.10  30603.95  12.70
2174.6  240525.60  30726.62  12.77
2177.1  239460.58  30742.38  12.84
2179.5  238989.13  30812.68  12.89
2182.0  238697.33  30935.92  12.96
2184.5  237717.65  30969.83  13.03
2187.0  236917.93  30995.49  13.08
2189.5  235892.63  31041.79  13.16
2191.9  234614.78  31044.20  13.23
2194.4  232931.25  30943.88  13.28
2196.9  231847.37  30924.03  13.34
2199.3  230426.20  30865.70  13.40
2201.8  229232.85  30829.75  13.45
2204.3  228441.80  30836.75  13.50
2206.7  227258.40  30787.80  13.55
2209.2  226073.25  30731.63  13.59
2211.6  224116.40  30511.82  13.61
2214.1  223404.77  30470.36  13.64
2216.5  223087.85  30463.74  13.66
2219.0  221761.83  30299.87  13.66
2221.4  221754.15  30286.80  13.66
2223.9  220602.20  30090.67  13.64
2226.3  219341.12  29853.94  13.61
2228.7  218372.27  29620.50  13.56
2231.1  217699.43  29371.72  13.49
2233.6  216648.00  29063.20  13.41
2236.0  215637.65  28713.59  13.32
2238.4  214774.40  28361.03  13.21
2240.9  214048.80  27989.10  13.08
2243.3  213160.73  27565.79  12.93
2245.7  212334.53  27163.57  12.79
2248.1  211355.73  26734.94  12.65
2250.5  210560.53  26334.00  12.51
2252.9  209889.83  25911.12  12.35
2255.3  209184.73  25538.37  12.21
2257.7  208277.30  25127.67  12.06
2260.1  207405.20  24736.40  11.93
2262.5  206326.00  24310.40  11.78
2264.9  205373.97  23969.30  11.67
2267.3  204404.20  23609.30  11.55
2269.7  203495.40  23257.85  11.43
2272.1  202698.33  22922.50  11.31
2274.5  201951.20  22645.90  11.21
2276.8  201257.60  22410.40  11.14
2279.2  200470.60  22150.80  11.05
2281.6  199877.15  21925.53  10.97
2284.0  199524.60  21710.70  10.88
2286.3  199026.73  21447.23  10.78
2288.7  198485.60  21249.07  10.71
2291.1  197914.50  21014.50  10.62
2293.4  197186.10  20722.50  10.51
2295.8  196496.30  20449.00  10.41
2298.2  195687.60  20125.90  10.28
2300.5  194549.70  19782.05  10.17
2302.9  193149.10  19419.03  10.05
2305.2  191742.42  19107.92  9.97
2307.6  190209.60  18754.40  9.86
2309.9  189122.45  18473.62  9.77
2312.2  188207.17  18286.75  9.72
2314.6  187208.80  18060.60  9.65
2316.9  186151.07  17862.82  9.60
2319.2  185446.98  17688.19  9.54
2321.6  184824.12  17535.28  9.49
2323.9  184000.60  17368.00  9.44
2326.2  183143.60  17127.70  9.35
2328.6  182383.80  16941.93  9.29
2330.9  182127.33  16739.27  9.19
2333.2  181673.00  16575.75  9.12
2335.5  181103.87  16386.93  9.05
2337.8  180611.00  16199.50  8.97
2340.1  180044.80  15977.53  8.87
2342.4  179625.60  15801.08  8.80
2344.8  178884.17  15546.33  8.69
2347.1  178107.50  15348.95  8.62
2349.4  177459.87  15168.80  8.55
2351.6  176700.00  15029.00  8.51
2353.9  175605.40  14840.70  8.45
2356.2  174883.18  14654.26  8.38
2358.5  174025.17  14456.27  8.31
2360.8  173295.83  14269.79  8.23
2363.1  172879.08  14070.63  8.14
2365.4  172368.00  13932.00  8.08
2367.7  171855.07  13759.10  8.01
2369.9  171127.73  13608.65  7.95
2372.2  169939.45  13424.00  7.90
2374.5  168767.50  13175.00  7.81
2376.7  167831.40  12973.10  7.73
2379.0  166630.75  12687.40  7.61
2381.3  165232.65  12443.93  7.53
2383.5  164255.00  12280.33  7.48
2385.8  163541.58  12105.04  7.40
2388.0  162684.87  11840.70  7.28
2390.3  161953.30  11656.78  7.20
2392.5  161487.17  11471.13  7.10
2394.8  160546.17  11324.84  7.05
2397.0  160043.33  11142.87  6.96
2399.3  159498.37  10888.18  6.83
2401.5  158696.70  10722.75  6.76
2403.8  158055.30  10532.02  6.66
2406.0  157639.90  10346.23  6.56
2408.2  156819.60  10135.65  6.46
2410.4  155916.35  10000.62  6.41
2412.7  155433.00  9862.50  6.35
2414.9  154899.47  9667.90  6.24
2417.1  154901.00  9542.77  6.16
2419.3  154456.33  9371.82  6.07
2421.6  153525.63  9145.74  5.96
2423.8  152922.77  8962.30  5.86
2426.0  152548.90  8791.05  5.76
2428.2  152229.00  8691.38  5.71
2430.4  152203.98  8586.93  5.64
2432.6  152146.00  8386.00  5.51
2434.8  151538.85  8177.43  5.40
2437.0  150917.00  8004.10  5.30
2439.2  150517.03  7900.75  5.25
2441.4  149778.00  7787.20  5.20
2443.6  149659.73  7623.94  5.09
2445.7  149813.13  7471.17  4.99
2447.9  149747.65  7319.98  4.89
2450.1  149013.50  7157.71  4.80
2452.3  148090.62  6997.47  4.73
2454.5  147440.53  6881.47  4.67
2456.6  146802.08  6770.17  4.61
2458.8  145602.80  6675.20  4.58
2461.0  145292.77  6427.64  4.42
2463.1  144959.67  6357.25  4.39
2465.3  144388.67  6249.34  4.33
2467.5  144018.33  6224.84  4.32
2469.6  143540.33  6105.71  4.25
2471.8  143170.77  5968.62  4.17
2473.9  142603.50  5922.59  4.15
2476.1  141808.33  5843.75  4.12
2478.2  140943.38  5711.79  4.05
2480.4  140158.07  5587.17  3.99
2482.5  139186.63  5468.63  3.93
2484.6  138334.00  5371.00  3.88
2486.8  137586.23  5272.62  3.83
2488.9  136993.40  5220.40  3.81
2491.1  135691.77  5182.97  3.82
2493.2  134556.13  5075.97  3.77
2495.3  132916.32  4991.96  3.76
2497.4  131625.07  4900.93  3.72
2499.5  130822.80  4786.20  3.66
2501.7  130863.00  4796.50  3.67
2503.8  131076.17  4770.62  3.64
2505.9  131773.70  4862.85  3.69
2508.0  132665.67  4871.63  3.67
2510.1  133553.10  4802.25  3.60
2512.2  134364.25  4780.17  3.56
2514.3  135573.32  4899.59  3.61
2516.4  137179.58  5039.25  3.67
