/*** Spectra Vista SIG Data ***/
name= 17_20220720_ACSA_19_avg.sig
comm= Averaged Ref/Tar of files: 16_20220720_ACSA_19_1_avg.sig,17_20220720_ACSA_19_2_avg.sig
data=
337.3  3192.54  269.39  8.44
338.8  3342.95  265.70  7.95
340.3  3482.52  258.79  7.43
341.8  3658.00  263.47  7.20
343.2  3840.60  255.83  6.66
344.7  4030.43  249.81  6.20
346.2  4166.70  245.10  5.88
347.7  4358.53  239.70  5.50
349.2  4536.00  243.00  5.36
350.6  4774.25  244.84  5.13
352.1  5043.18  241.57  4.79
353.6  5303.32  247.86  4.67
355.1  5590.05  251.76  4.50
356.6  5888.58  259.08  4.40
358.0  6114.17  262.79  4.30
359.5  6391.15  263.39  4.12
361.0  6688.24  265.05  3.96
362.5  7011.37  270.45  3.86
364.0  7350.36  278.56  3.79
365.4  7699.40  286.36  3.72
366.9  8034.28  297.30  3.70
368.4  8346.15  302.62  3.63
369.9  8670.53  316.58  3.65
371.3  9055.75  328.03  3.62
372.8  9429.68  340.09  3.61
374.3  9822.82  345.54  3.52
375.8  10196.09  349.07  3.42
377.2  10585.15  353.54  3.34
378.7  10952.79  358.67  3.27
380.2  11320.42  365.08  3.22
381.7  11778.40  375.78  3.19
383.1  12199.37  382.44  3.13
384.6  12651.28  393.07  3.11
386.1  13075.60  404.09  3.09
387.6  13470.51  408.10  3.03
389.0  13913.67  416.04  2.99
390.5  14345.85  424.81  2.96
392.0  14838.45  437.05  2.95
393.4  15362.12  449.18  2.92
394.9  15834.00  464.83  2.94
396.4  16327.13  475.61  2.91
397.9  16827.09  485.66  2.89
399.3  17339.19  495.65  2.86
400.8  17842.15  506.81  2.84
402.2  18428.87  516.72  2.80
403.7  18967.09  530.80  2.80
405.2  19516.09  545.66  2.80
406.6  20052.54  555.70  2.77
408.1  20592.37  569.31  2.76
409.6  21145.17  583.24  2.76
411.0  21744.98  597.80  2.75
412.5  22352.17  614.83  2.75
414.0  22945.65  630.66  2.75
415.4  23601.57  651.15  2.76
416.9  24215.83  667.29  2.76
418.4  24856.43  682.98  2.75
419.8  25498.20  702.87  2.76
421.3  26161.16  724.04  2.77
422.7  26880.10  747.37  2.78
424.2  27601.88  768.21  2.78
425.7  28299.52  786.29  2.78
427.1  28994.04  807.83  2.79
428.6  29718.67  826.67  2.78
430.0  30393.00  846.91  2.79
431.5  31193.25  871.34  2.79
432.9  31995.60  897.84  2.81
434.4  32818.58  918.85  2.80
435.9  33574.34  941.33  2.80
437.3  34354.38  967.08  2.82
438.8  35109.48  985.16  2.81
440.2  35906.39  1009.98  2.81
441.7  36785.24  1037.55  2.82
443.1  37607.92  1063.79  2.83
444.6  38498.72  1091.05  2.83
446.0  39355.34  1117.71  2.84
447.5  40226.91  1146.02  2.85
448.9  41088.65  1172.06  2.85
450.4  41996.85  1203.12  2.86
451.8  42787.34  1228.82  2.87
453.3  43626.92  1255.83  2.88
454.7  44555.66  1285.50  2.89
456.2  45355.14  1311.80  2.89
457.6  46243.47  1340.15  2.90
459.1  47134.97  1366.13  2.90
460.5  47980.59  1390.36  2.90
462.0  48946.98  1418.84  2.90
463.4  49881.70  1446.33  2.90
464.8  50787.13  1472.74  2.90
466.3  51689.14  1500.68  2.90
467.7  52605.32  1527.47  2.90
469.2  53567.11  1556.30  2.91
470.6  54460.14  1582.97  2.91
472.0  55408.59  1610.59  2.91
473.5  56316.38  1637.83  2.91
474.9  57254.13  1665.90  2.91
476.4  58300.80  1701.26  2.92
477.8  59278.42  1733.79  2.92
479.2  60208.84  1765.55  2.93
480.7  61226.84  1795.59  2.93
482.1  62265.05  1828.27  2.94
483.6  63346.39  1864.05  2.94
485.0  64336.55  1899.67  2.95
486.4  65421.65  1937.92  2.96
487.9  66414.57  1975.77  2.97
489.3  67484.68  2020.13  2.99
490.7  68468.80  2062.20  3.01
492.2  69599.60  2109.80  3.03
493.6  70605.68  2157.04  3.06
495.0  71606.44  2209.08  3.09
496.5  72680.39  2264.84  3.12
497.9  73683.18  2325.64  3.16
499.3  74747.12  2389.93  3.20
500.7  75884.56  2463.99  3.25
502.2  76922.54  2542.49  3.31
503.6  78061.34  2630.79  3.37
505.0  79012.34  2723.51  3.45
506.5  80201.17  2838.21  3.54
507.9  81310.19  2962.88  3.64
509.3  82571.67  3109.41  3.77
510.7  83718.38  3269.73  3.91
512.2  84992.38  3454.70  4.06
513.6  86317.64  3669.50  4.25
515.0  87609.41  3909.17  4.46
516.4  88848.90  4174.20  4.70
517.8  90310.54  4476.96  4.96
519.3  91503.93  4794.21  5.24
520.7  92917.34  5147.65  5.54
522.1  94086.69  5503.49  5.85
523.5  95321.57  5873.75  6.16
524.9  96578.18  6247.61  6.47
526.3  97831.13  6609.88  6.76
527.8  99267.30  6980.21  7.03
529.2  100376.34  7322.29  7.29
530.6  101634.08  7657.12  7.53
532.0  103210.34  7988.67  7.74
533.4  104475.47  8267.18  7.91
534.8  105293.04  8482.89  8.06
536.3  106805.55  8727.16  8.17
537.7  108605.70  8974.80  8.26
539.1  109971.87  9178.61  8.35
540.5  111121.09  9352.53  8.42
541.9  112778.99  9564.67  8.48
543.3  113950.09  9732.92  8.54
544.7  115254.00  9913.12  8.60
546.1  116871.02  10118.51  8.66
547.5  117949.07  10269.87  8.71
549.0  119516.84  10452.10  8.75
550.4  120836.36  10601.73  8.77
551.8  122197.01  10731.50  8.78
553.2  123615.48  10840.63  8.77
554.6  124843.34  10902.17  8.73
556.0  126226.88  10937.98  8.67
557.4  127665.19  10948.93  8.58
558.8  129136.95  10925.17  8.46
560.2  130450.07  10859.17  8.32
561.6  131945.75  10773.99  8.17
563.0  133379.93  10657.07  7.99
564.4  134809.66  10510.31  7.80
565.8  136171.78  10336.61  7.59
567.2  137757.67  10157.22  7.37
568.6  139125.69  9946.49  7.15
570.0  140395.86  9722.28  6.92
571.4  141957.51  9518.79  6.71
572.8  143536.61  9326.46  6.50
574.2  145019.47  9145.07  6.31
575.6  146431.88  8976.97  6.13
577.0  147773.87  8828.53  5.97
578.4  149340.48  8708.92  5.83
579.8  150703.09  8595.32  5.70
581.2  152259.48  8510.38  5.59
582.5  153535.20  8421.22  5.48
583.9  154898.60  8351.59  5.39
585.3  156521.59  8307.75  5.31
586.7  157844.16  8259.46  5.23
588.1  159197.21  8222.48  5.16
589.5  160677.13  8202.25  5.10
590.9  162134.14  8193.45  5.05
592.3  163775.41  8200.53  5.01
593.7  165064.42  8203.14  4.97
595.0  166539.04  8218.99  4.94
596.4  167847.11  8227.57  4.90
597.8  169168.71  8237.87  4.87
599.2  170566.00  8243.72  4.83
600.6  172141.24  8249.45  4.79
602.0  173298.85  8228.25  4.75
603.3  174919.21  8215.82  4.70
604.7  176418.90  8188.07  4.64
606.1  177760.10  8141.35  4.58
607.5  179226.36  8093.08  4.52
608.9  180753.25  8038.61  4.45
610.2  181983.38  7969.73  4.38
611.6  183410.14  7906.72  4.31
613.0  184803.46  7849.11  4.25
614.4  186053.28  7784.95  4.18
615.8  187346.25  7733.84  4.13
617.1  188733.30  7690.20  4.07
618.5  190202.20  7662.17  4.03
619.9  191564.87  7642.31  3.99
621.3  193012.77  7638.72  3.96
622.6  194429.88  7642.43  3.93
624.0  195730.90  7654.38  3.91
625.4  197053.04  7674.78  3.89
626.8  198483.89  7711.50  3.89
628.1  199683.78  7741.65  3.88
629.5  201368.14  7795.08  3.87
630.9  202818.14  7837.12  3.86
632.2  204081.94  7865.89  3.85
633.6  205562.79  7890.55  3.84
635.0  206947.54  7897.26  3.82
636.3  208323.72  7883.86  3.78
637.7  209545.40  7846.06  3.74
639.1  211032.50  7795.83  3.69
640.4  212365.13  7734.92  3.64
641.8  213442.49  7653.72  3.59
643.2  214864.01  7582.52  3.53
644.5  216076.96  7505.96  3.47
645.9  217623.90  7450.29  3.42
647.2  219197.19  7412.91  3.38
648.6  220947.75  7393.18  3.35
650.0  222300.00  7374.86  3.32
651.3  222577.99  7329.00  3.29
652.7  223435.18  7304.66  3.27
654.0  225156.62  7312.73  3.25
655.4  226721.33  7325.96  3.23
656.8  227011.35  7291.03  3.21
658.1  227964.75  7268.33  3.19
659.5  229997.87  7269.15  3.16
660.8  231600.00  7268.57  3.14
662.2  232411.20  7251.20  3.12
663.5  234025.83  7268.37  3.11
664.9  235295.02  7273.01  3.09
666.2  236093.30  7285.83  3.09
667.6  237817.07  7338.55  3.09
668.9  238836.33  7389.27  3.09
670.3  239759.32  7447.68  3.11
671.6  241206.75  7538.30  3.13
673.0  242268.75  7640.50  3.15
674.3  243372.57  7747.63  3.18
675.7  244561.57  7872.37  3.22
677.0  245611.79  8005.56  3.26
678.4  246863.54  8161.84  3.31
679.7  247869.35  8327.55  3.36
681.1  249050.15  8510.44  3.42
682.4  250109.39  8709.51  3.48
683.8  251277.00  8927.35  3.55
685.1  252162.32  9165.02  3.63
686.4  253327.90  9447.69  3.73
687.8  254528.88  9790.00  3.85
689.1  255474.50  10206.40  4.00
690.5  256652.50  10745.03  4.19
691.8  257488.59  11452.62  4.45
693.1  258666.78  12407.89  4.80
694.5  259698.84  13650.00  5.26
695.8  260783.25  15233.84  5.84
697.1  261856.29  17201.17  6.57
698.5  262816.82  19583.62  7.45
699.8  263804.73  22386.71  8.49
701.1  264862.90  25603.32  9.67
702.5  265586.39  29139.97  10.97
703.8  266501.25  32983.93  12.38
705.1  267522.78  37067.46  13.86
706.5  268466.44  41312.78  15.39
707.8  269373.38  45663.18  16.95
709.1  270195.76  50060.09  18.53
710.5  271248.75  54535.72  20.11
711.8  272056.29  58964.39  21.67
713.1  272981.74  63414.83  23.23
714.4  273821.70  67804.74  24.76
715.8  274568.75  72125.64  26.27
717.1  275765.48  76502.99  27.74
718.4  276625.07  80708.27  29.18
719.7  277648.66  84863.46  30.57
721.0  278148.75  88759.29  31.91
722.4  278868.34  92597.82  33.20
723.7  279776.58  96363.89  34.44
725.0  280729.50  100026.79  35.63
726.3  281633.88  103515.72  36.76
727.6  282128.42  106712.32  37.82
729.0  282963.28  109868.61  38.83
730.3  283683.35  112838.95  39.78
731.6  284540.51  115692.68  40.66
732.9  285293.32  118361.14  41.49
734.2  286047.67  120888.82  42.26
735.5  287016.77  123353.90  42.98
736.8  287745.65  125596.46  43.65
738.1  288504.87  127703.40  44.26
739.5  289398.93  129727.65  44.83
740.8  290040.99  131534.48  45.35
742.1  290751.14  133258.83  45.83
743.4  291462.50  134876.19  46.28
744.7  292395.04  136482.07  46.68
746.0  293210.78  137930.56  47.04
747.3  293716.18  139128.27  47.37
748.6  294421.21  140327.69  47.66
749.9  295134.67  141449.91  47.93
751.2  295843.67  142488.86  48.16
752.5  296715.34  143536.11  48.38
753.8  297337.58  144394.66  48.56
755.1  297986.00  145206.29  48.73
756.4  298552.33  145917.66  48.88
757.7  299471.38  146741.41  49.00
759.0  301106.71  147884.02  49.11
760.3  302218.40  148718.75  49.21
761.6  303687.77  149692.14  49.29
762.9  304236.67  150169.41  49.36
764.2  304606.64  150542.65  49.42
765.5  304896.05  150847.12  49.47
766.8  305329.07  151197.03  49.52
768.1  305838.80  151563.75  49.56
769.3  306417.30  151947.29  49.59
770.6  307044.73  152352.79  49.62
771.9  307736.74  152772.90  49.64
773.2  308149.47  153036.78  49.66
774.5  308751.30  153388.61  49.68
775.8  309397.02  153751.27  49.69
777.1  309981.10  154073.02  49.70
778.4  310325.86  154285.09  49.72
779.6  311077.08  154694.56  49.73
780.9  311545.00  154955.72  49.74
782.2  312003.54  155215.63  49.75
783.5  312320.00  155403.31  49.76
784.8  312863.48  155689.74  49.76
786.0  313270.36  155910.20  49.77
787.3  313653.63  156120.50  49.77
788.6  314086.23  156353.20  49.78
789.9  314529.60  156596.27  49.79
791.2  315184.84  156930.84  49.79
792.4  315851.04  157270.34  49.79
793.7  316314.70  157517.59  49.80
795.0  316912.07  157830.67  49.80
796.2  317568.08  158160.25  49.80
797.5  318289.35  158519.63  49.80
798.8  318956.51  158856.36  49.81
800.0  319588.54  159183.55  49.81
801.3  320080.65  159419.32  49.81
802.6  320686.20  159714.39  49.80
803.8  321297.33  160036.61  49.81
805.1  321794.09  160280.71  49.81
806.4  322275.20  160537.07  49.81
807.7  322786.02  160783.36  49.81
808.9  323343.43  161052.69  49.81
810.2  323874.95  161320.69  49.81
811.4  324388.95  161568.63  49.81
812.7  325013.54  161884.83  49.81
814.0  325784.55  162281.89  49.81
815.2  326394.54  162582.45  49.81
816.5  326792.80  162792.97  49.82
817.7  327259.74  163023.85  49.81
819.0  327757.84  163293.38  49.82
820.2  327939.34  163386.67  49.82
821.5  328646.33  163733.68  49.82
822.7  328983.24  163917.06  49.83
824.0  329286.60  164077.20  49.83
825.2  329766.53  164323.26  49.83
826.5  330081.93  164494.49  49.83
827.7  330572.09  164757.77  49.84
829.0  331005.17  164959.65  49.84
830.2  331323.24  165134.74  49.84
831.5  331758.97  165349.33  49.84
832.7  332056.47  165515.95  49.85
834.0  332350.37  165677.64  49.85
835.2  332719.62  165866.45  49.85
836.4  333010.70  166035.36  49.86
837.7  333411.30  166239.14  49.86
838.9  333818.76  166455.01  49.86
840.1  334151.78  166655.70  49.87
841.4  334572.00  166887.70  49.88
842.6  334941.37  167086.04  49.89
843.8  335260.37  167272.31  49.89
845.1  335723.17  167519.62  49.90
846.3  336069.19  167721.93  49.91
847.5  336442.05  167924.50  49.91
848.8  336851.20  168128.37  49.91
850.0  337150.98  168304.75  49.92
851.2  337638.60  168577.59  49.93
852.5  337992.95  168784.44  49.94
853.7  338473.50  169022.36  49.94
854.9  338883.69  169244.33  49.94
856.1  339313.76  169456.83  49.94
857.4  339543.26  169562.50  49.94
858.6  339966.24  169791.07  49.94
859.8  340307.50  169981.97  49.95
861.0  340704.00  170201.57  49.96
862.2  341207.39  170437.85  49.95
863.5  341551.82  170601.48  49.95
864.7  342067.00  170848.54  49.95
865.9  342435.47  171032.49  49.95
867.1  342721.30  171187.64  49.95
868.3  343149.83  171402.94  49.95
869.5  343551.87  171621.03  49.95
870.8  344071.50  171873.65  49.95
872.0  344560.20  172096.00  49.95
873.2  344954.10  172290.98  49.95
874.4  345344.52  172496.45  49.95
875.6  345718.26  172674.89  49.95
876.8  346230.45  172894.40  49.94
878.0  346685.90  173121.33  49.94
879.2  347130.00  173356.41  49.94
880.4  347712.75  173589.57  49.92
881.6  348110.70  173805.65  49.93
882.8  348563.20  174000.34  49.92
884.0  349099.26  174254.87  49.92
885.2  349572.20  174489.59  49.92
886.5  350217.09  174776.42  49.91
887.7  350737.40  174995.74  49.89
888.8  351287.05  175278.43  49.90
890.0  351864.70  175527.33  49.88
891.2  352405.70  175790.13  49.88
892.4  353065.39  176063.23  49.87
893.6  353588.44  176325.09  49.87
894.8  354425.21  176732.00  49.86
896.0  355215.75  177128.17  49.86
897.2  356033.71  177502.31  49.86
898.4  356805.35  177831.50  49.84
899.6  357399.25  178101.11  49.83
900.8  357830.03  178283.72  49.82
902.0  358032.95  178392.60  49.83
903.2  358367.64  178549.47  49.82
904.3  358760.85  178702.79  49.81
905.5  359393.89  178983.71  49.80
906.7  359984.17  179248.93  49.79
907.9  360515.46  179502.40  49.79
909.1  360854.22  179666.68  49.79
910.2  361117.30  179752.24  49.78
911.4  361473.94  179910.35  49.77
912.6  361651.77  179998.19  49.77
913.8  361952.90  180096.27  49.76
915.0  362417.48  180296.90  49.75
916.2  362652.88  180371.29  49.74
917.3  362813.40  180391.14  49.72
918.5  363130.79  180504.46  49.71
919.7  363384.95  180643.21  49.71
920.8  363490.82  180660.62  49.70
922.0  363667.79  180719.00  49.69
923.2  363954.50  180784.50  49.67
924.4  364295.25  180882.49  49.65
925.5  364592.94  180973.64  49.64
926.7  365263.07  181243.38  49.62
927.9  366054.90  181610.72  49.61
929.0  367335.45  182227.76  49.61
930.2  369421.12  183164.89  49.58
931.4  371647.24  184205.64  49.56
932.5  374206.69  185370.11  49.54
933.7  375661.80  185985.39  49.51
934.9  376278.44  186241.04  49.50
936.0  376065.09  186039.60  49.47
937.2  374275.48  185067.64  49.45
938.3  372772.36  184302.78  49.44
939.5  371535.00  183598.12  49.42
940.7  371905.65  183638.32  49.38
941.8  373479.83  184238.02  49.33
943.0  374722.13  184806.75  49.32
944.2  375619.73  185120.13  49.28
945.3  375347.38  184879.50  49.26
946.5  374643.23  184477.83  49.24
947.6  375011.55  184479.55  49.19
948.8  375115.00  184314.51  49.14
949.9  375323.20  184268.20  49.10
951.1  375082.02  183986.47  49.05
952.2  375054.00  183755.43  48.99
953.4  374708.00  183475.47  48.96
954.5  374868.00  183332.32  48.91
955.7  374957.10  183120.60  48.84
956.8  374896.95  182932.24  48.80
958.0  374630.34  182653.12  48.76
959.1  374515.40  182482.54  48.72
960.3  374284.32  182216.86  48.68
961.4  374341.80  182077.82  48.64
962.6  374569.42  182118.67  48.62
963.7  374488.62  182007.79  48.60
964.9  374529.30  181921.40  48.57
966.0  374703.98  181859.47  48.53
967.2  374652.75  181848.41  48.54
968.3  374553.45  181726.97  48.52
969.5  374397.53  181643.88  48.52
970.6  374428.21  181663.02  48.52
971.8  374880.10  181808.01  48.50
972.9  374930.19  181789.29  48.49
974.0  375056.59  181929.80  48.51
975.2  375123.79  181835.87  48.47
976.3  375136.66  181806.32  48.46
977.5  375149.60  181758.11  48.45
978.6  375293.80  181759.71  48.43
979.7  375456.90  181903.65  48.45
980.9  375545.38  181937.50  48.45
982.0  375720.86  181923.91  48.42
983.2  375359.57  181889.30  48.46
984.3  375403.27  181732.78  48.41
985.4  375880.89  181810.31  48.37
986.6  375844.50  181868.73  48.39
987.7  376768.64  182312.42  48.39
988.9  376986.90  182329.89  48.37
990.0  377555.02  182756.66  48.41
993.1  313271.53  150908.14  48.17
996.9  313730.29  151445.42  48.27
1000.7  314661.09  152177.78  48.36
1004.5  315211.17  152673.99  48.44
1008.4  315075.34  152861.42  48.52
1012.2  315170.80  153124.32  48.58
1016.0  315381.90  153409.51  48.64
1019.8  315638.41  153730.50  48.70
1023.7  315712.61  153910.37  48.75
1027.5  315450.39  153947.19  48.80
1031.3  315669.87  154156.03  48.83
1035.1  315530.05  154181.62  48.86
1038.9  315466.62  154231.30  48.89
1042.7  315284.50  154208.40  48.91
1046.5  315152.92  154186.33  48.92
1050.3  315162.11  154217.54  48.93
1054.2  314901.71  154115.17  48.94
1058.0  314432.18  153866.50  48.93
1061.8  314327.67  153822.97  48.94
1065.6  314118.64  153684.86  48.93
1069.4  314116.54  153664.05  48.92
1073.2  313800.00  153464.93  48.91
1077.0  313385.94  153200.42  48.89
1080.8  312988.54  152890.85  48.85
1084.6  312183.49  152378.33  48.81
1088.4  311695.36  152061.05  48.79
1092.2  311029.88  151619.47  48.75
1096.0  310570.97  151276.77  48.71
1099.8  310158.88  150926.35  48.66
1103.6  309556.15  150483.52  48.61
1107.4  308742.07  149922.76  48.56
1111.2  308481.05  149639.36  48.51
1114.9  307848.04  149142.75  48.45
1118.7  307247.74  148611.55  48.37
1122.5  306588.97  147983.52  48.27
1126.3  305611.14  147159.72  48.15
1130.1  305180.04  146464.33  47.99
1133.9  303910.60  145171.35  47.77
1137.7  302720.30  143773.14  47.49
1141.4  301297.16  142099.77  47.16
1145.2  300687.47  140707.91  46.80
1149.0  299780.84  139240.63  46.45
1152.8  298466.63  137736.02  46.15
1156.6  297110.92  136466.55  45.93
1160.3  295674.34  135383.72  45.79
1164.1  293659.54  134218.05  45.71
1167.9  292183.86  133410.27  45.66
1171.7  291130.88  132867.01  45.64
1175.4  290128.10  132396.66  45.63
1179.2  289228.48  131941.32  45.62
1183.0  288922.67  131732.05  45.59
1186.7  288420.65  131424.57  45.57
1190.5  287529.47  130954.77  45.54
1194.3  286580.74  130478.90  45.53
1198.0  285643.47  130055.22  45.53
1201.8  284400.65  129512.32  45.54
1205.6  283309.50  129088.27  45.56
1209.3  282517.87  128832.10  45.60
1213.1  281709.98  128579.20  45.64
1216.8  280910.49  128386.53  45.70
1220.6  280013.07  128130.94  45.76
1224.3  278997.67  127814.64  45.81
1228.1  277943.80  127500.96  45.87
1231.9  276851.80  127127.77  45.92
1235.6  275541.53  126641.16  45.96
1239.4  274364.88  126216.31  46.00
1243.1  273309.37  125800.32  46.03
1246.9  272292.87  125367.87  46.04
1250.6  271492.74  125015.83  46.05
1254.3  270629.43  124617.58  46.05
1258.1  269825.68  124249.09  46.05
1261.8  268777.07  123746.34  46.04
1265.6  267561.68  123141.91  46.02
1269.3  266391.04  122510.41  45.99
1273.1  266364.45  122382.06  45.95
1276.8  266631.20  122374.46  45.90
1280.6  266522.98  122187.69  45.85
1284.3  265319.20  121477.14  45.79
1288.0  264057.02  120701.11  45.71
1291.8  262936.34  119919.19  45.61
1295.5  261787.53  119105.49  45.50
1299.2  260729.63  118301.19  45.37
1302.9  259472.94  117353.49  45.23
1306.7  258127.51  116312.93  45.06
1310.4  256856.92  115215.81  44.86
1314.1  255670.43  114100.00  44.63
1317.9  254640.73  112956.64  44.36
1321.6  253488.15  111682.62  44.06
1325.3  252110.78  110221.39  43.72
1329.0  250944.69  108811.88  43.36
1332.8  249148.90  107047.60  42.97
1336.5  247602.44  105371.63  42.56
1340.2  247216.67  104184.17  42.14
1343.9  246671.57  102914.79  41.72
1347.6  245732.25  101484.43  41.30
1351.4  245396.00  100331.50  40.89
1355.1  245069.19  99206.12  40.48
1358.8  244744.00  98027.43  40.05
1362.5  244169.72  96652.56  39.58
1366.2  242879.85  94814.34  39.04
1369.9  241673.07  92789.38  38.39
1373.6  240128.59  90292.69  37.60
1377.3  238380.75  87221.72  36.59
1381.0  237189.25  83685.60  35.28
1384.8  235535.63  79267.50  33.65
1388.4  233828.18  74393.28  31.82
1392.2  232363.96  69230.71  29.79
1395.9  230992.37  63947.76  27.68
1399.6  229711.45  58899.91  25.64
1403.3  228811.01  54416.91  23.78
1407.0  228018.95  50582.04  22.18
1410.7  227169.94  47459.43  20.89
1414.3  226335.61  45060.67  19.91
1418.1  225475.63  43306.00  19.21
1421.7  224809.12  42084.39  18.72
1425.4  224107.17  41267.60  18.41
1429.1  223406.44  40771.20  18.25
1432.8  222188.17  40431.47  18.20
1436.5  221544.69  40360.92  18.22
1440.2  220844.30  40406.62  18.30
1443.9  219780.28  40454.28  18.41
1447.6  218479.80  40508.60  18.54
1451.2  217621.16  40658.93  18.68
1454.9  216591.98  40801.12  18.84
1458.6  215667.47  41048.26  19.03
1462.3  214653.45  41387.84  19.28
1466.0  213479.88  41834.92  19.60
1469.7  212042.89  42389.92  19.99
1473.3  211130.25  43163.95  20.44
1477.0  209524.24  43889.70  20.95
1480.7  208167.08  44705.16  21.48
1484.4  206574.98  45465.41  22.01
1488.0  205274.67  46306.86  22.56
1491.7  203918.54  47103.99  23.10
1495.4  202484.58  47874.04  23.64
1499.0  201122.25  48616.43  24.17
1502.7  200024.05  49411.07  24.70
1506.4  198834.20  50134.18  25.21
1510.0  197627.87  50821.06  25.72
1513.7  196381.79  51448.99  26.20
1517.4  195241.50  52067.89  26.67
1521.0  194197.87  52682.73  27.13
1524.7  193167.00  53240.03  27.56
1528.3  192100.01  53754.71  27.98
1532.0  191097.32  54245.31  28.39
1535.7  189912.28  54629.48  28.77
1539.3  188843.86  55013.22  29.13
1543.0  188026.86  55450.99  29.49
1546.6  187413.96  55912.85  29.83
1550.3  186605.08  56270.25  30.15
1553.9  185689.07  56565.36  30.46
1557.6  184630.60  56783.31  30.76
1561.2  183561.08  56951.87  31.03
1564.9  182458.82  57094.35  31.29
1568.5  181330.22  57193.39  31.54
1572.2  180338.78  57312.96  31.78
1575.8  179459.00  57447.00  32.01
1579.5  178616.53  57568.52  32.23
1583.1  177790.23  57683.82  32.44
1586.8  176743.00  57707.00  32.65
1590.4  175865.73  57757.19  32.84
1594.0  174756.18  57724.61  33.03
1597.7  173821.98  57729.73  33.21
1601.3  172715.29  57678.08  33.39
1604.9  171622.41  57602.71  33.56
1608.6  170477.81  57484.49  33.72
1612.2  169583.29  57417.35  33.86
1615.8  168615.37  57316.47  33.99
1619.5  167647.13  57184.58  34.11
1623.1  166545.52  56995.97  34.22
1626.7  165505.93  56807.38  34.32
1630.3  164481.09  56607.04  34.42
1634.0  163548.00  56410.00  34.49
1637.6  162695.07  56217.44  34.55
1641.2  161870.05  55994.27  34.59
1644.8  160856.16  55661.41  34.60
1648.5  159947.46  55344.02  34.60
1652.1  159125.55  55013.17  34.57
1655.7  158344.20  54675.08  34.53
1659.3  157610.57  54362.95  34.49
1662.9  156414.17  53901.13  34.46
1666.6  155204.57  53450.32  34.44
1670.2  153994.99  52993.89  34.41
1673.8  152768.02  52504.73  34.37
1677.4  151803.23  52081.35  34.31
1681.0  151123.28  51715.57  34.22
1684.6  150811.38  51427.31  34.10
1688.2  150273.00  51004.69  33.94
1691.8  149703.68  50586.77  33.79
1695.4  149348.50  50222.36  33.63
1699.0  149044.35  49879.70  33.47
1702.6  148772.84  49536.00  33.30
1706.2  148268.96  49088.17  33.11
1709.8  147485.52  48563.20  32.93
1713.4  146872.19  48102.11  32.75
1717.0  146150.38  47630.91  32.59
1720.6  145489.43  47195.57  32.44
1724.2  144891.90  46790.95  32.29
1727.8  144284.35  46401.30  32.16
1731.4  143876.57  46072.91  32.02
1735.0  143683.38  45828.26  31.90
1738.6  143445.53  45532.26  31.74
1742.2  142932.56  45118.18  31.57
1745.8  142351.92  44661.22  31.37
1749.4  141498.23  44101.62  31.17
1753.0  140211.64  43399.03  30.95
1756.6  138815.84  42672.73  30.74
1760.1  137682.99  42043.09  30.54
1763.7  136229.00  41331.00  30.34
1767.3  135011.98  40724.29  30.16
1770.9  133973.15  40176.30  29.99
1774.5  132756.69  39595.73  29.83
1778.0  131772.52  39113.12  29.68
1781.6  130835.40  38679.04  29.56
1785.2  129861.08  38262.24  29.46
1788.8  128863.40  37883.74  29.40
1792.3  127800.05  37501.20  29.34
1795.9  127341.50  37309.47  29.30
1799.5  126837.34  37117.69  29.26
1803.1  126158.26  36880.90  29.23
1806.6  126454.71  36928.76  29.20
1810.2  127324.29  37155.10  29.18
1813.8  127986.53  37321.54  29.16
1817.3  127889.60  37257.75  29.13
1820.9  127093.94  36982.44  29.10
1824.5  125951.48  36578.25  29.04
1828.0  125087.88  36234.04  28.97
1831.6  124196.35  35861.71  28.88
1835.2  123448.34  35474.35  28.74
1838.7  123068.27  35123.96  28.54
1842.3  122790.00  34748.57  28.30
1845.8  122279.81  34211.83  27.98
1849.4  121927.53  33597.33  27.56
1852.9  121479.14  32819.24  27.02
1856.5  120802.48  31797.03  26.32
1860.0  120232.60  30596.63  25.45
1863.6  119886.57  29252.49  24.40
1867.1  119484.05  27664.18  23.15
1870.7  119237.17  25759.46  21.60
1874.2  118790.33  23480.26  19.77
1877.8  118140.50  21041.45  17.81
1881.3  117235.07  18491.97  15.77
1884.9  116533.55  16071.54  13.79
1888.4  115728.01  13768.54  11.90
1891.9  114838.54  11775.80  10.25
1895.5  113802.28  10152.41  8.92
1899.0  113181.26  8967.44  7.92
1901.3  141897.69  7828.23  5.52
1904.1  141762.94  7095.01  5.00
1906.8  141133.95  6535.35  4.63
1909.6  139753.30  6094.46  4.36
1912.4  138429.64  5779.74  4.18
1915.1  137476.97  5570.82  4.05
1917.9  136376.88  5412.23  3.97
1920.6  135529.81  5320.87  3.93
1923.3  134730.49  5276.49  3.92
1926.1  133742.97  5257.65  3.93
1928.8  132869.00  5270.83  3.97
1931.6  132194.42  5321.15  4.03
1934.3  131534.16  5384.84  4.09
1937.0  130872.21  5474.42  4.18
1939.8  130121.38  5573.03  4.28
1942.5  129141.38  5678.75  4.40
1945.2  127841.39  5781.47  4.52
1947.9  126769.92  5903.37  4.66
1950.7  125902.11  6046.79  4.80
1953.4  124498.58  6175.28  4.96
1956.1  123381.88  6336.24  5.14
1958.8  122393.05  6503.04  5.31
1961.5  121191.60  6663.10  5.50
1964.2  119956.20  6832.97  5.70
1966.9  118655.69  7003.57  5.90
1969.6  117632.25  7196.63  6.12
1972.3  116472.08  7391.46  6.35
1975.0  115595.38  7607.68  6.58
1977.7  114660.75  7819.28  6.82
1980.4  113704.77  8033.56  7.07
1983.1  112788.22  8257.95  7.32
1985.8  112008.16  8487.94  7.58
1988.4  111133.75  8715.42  7.84
1991.1  110346.95  8947.38  8.11
1993.8  109607.24  9183.22  8.38
1996.5  109070.85  9434.18  8.65
1999.1  108492.45  9678.67  8.92
2001.8  107909.12  9917.55  9.19
2004.5  107329.20  10150.78  9.46
2007.1  106703.16  10373.52  9.72
2009.8  106076.69  10595.27  9.99
2012.4  105600.49  10816.07  10.24
2015.1  105137.82  11023.69  10.48
2017.8  104457.94  11208.23  10.73
2020.4  104020.40  11411.70  10.97
2023.1  103719.79  11612.92  11.20
2025.7  103509.25  11819.17  11.42
2028.3  103223.25  12010.92  11.64
2031.0  102907.27  12177.30  11.83
2033.6  102670.88  12339.87  12.02
2036.2  102439.24  12493.21  12.20
2038.9  101933.56  12605.22  12.37
2041.5  101654.86  12740.50  12.53
2044.1  101186.44  12842.29  12.69
2046.8  100879.77  12951.04  12.84
2049.4  100338.19  13021.73  12.98
2052.0  100067.63  13127.29  13.12
2054.6  99723.76  13221.25  13.26
2057.2  99255.43  13299.78  13.40
2059.8  99003.25  13414.40  13.55
2062.4  98261.90  13457.45  13.70
2065.0  97820.98  13544.31  13.85
2067.6  97065.53  13581.66  13.99
2070.2  96558.88  13644.86  14.13
2072.8  96029.34  13702.61  14.27
2075.4  95655.00  13781.25  14.41
2078.0  95107.04  13832.66  14.54
2080.6  94627.50  13888.60  14.68
2083.2  94058.67  13920.37  14.80
2085.8  93644.61  13976.49  14.93
2088.4  93074.63  14005.26  15.05
2090.9  92393.16  14011.89  15.17
2093.5  91645.64  14003.66  15.28
2096.1  90979.97  14008.32  15.40
2098.7  90317.92  14008.32  15.51
2101.2  89502.48  13979.88  15.62
2103.8  88935.90  13987.53  15.73
2106.4  88372.60  13991.89  15.83
2108.9  87819.13  13994.08  15.94
2111.5  87095.35  13966.79  16.04
2114.0  86551.70  13966.78  16.14
2116.6  86119.69  13977.04  16.23
2119.1  85668.97  13974.07  16.31
2121.7  85260.00  13983.60  16.40
2124.2  84912.84  13995.99  16.48
2126.8  84247.54  13950.13  16.56
2129.3  83912.40  13951.30  16.63
2131.9  83407.50  13924.90  16.70
2134.4  83038.45  13913.31  16.76
2136.9  82721.61  13907.97  16.81
2139.4  82277.13  13885.20  16.88
2142.0  81894.75  13871.90  16.94
2144.5  81665.29  13878.44  16.99
2147.0  81475.35  13892.45  17.05
2149.5  81063.30  13869.00  17.11
2152.1  80920.75  13881.50  17.15
2154.6  80845.20  13902.60  17.20
2157.1  80387.50  13860.04  17.24
2159.6  80040.07  13837.33  17.29
2162.1  79893.45  13845.65  17.33
2164.6  79686.05  13841.57  17.37
2167.1  79426.66  13823.21  17.40
2169.6  79144.67  13803.11  17.44
2172.1  78747.64  13765.75  17.48
2174.6  78472.45  13750.58  17.52
2177.1  78108.81  13718.45  17.56
2179.5  77760.40  13695.50  17.61
2182.0  77347.88  13655.68  17.65
2184.5  76888.21  13615.22  17.71
2187.0  76367.55  13567.50  17.77
2189.5  75783.69  13504.27  17.82
2191.9  75129.57  13427.07  17.87
2194.4  74608.18  13368.81  17.92
2196.9  73972.80  13290.00  17.97
2199.3  73406.25  13224.00  18.01
2201.8  72649.60  13120.54  18.06
2204.3  72248.22  13068.44  18.09
2206.7  71721.55  12994.62  18.12
2209.2  71330.49  12948.41  18.15
2211.6  70804.80  12870.00  18.18
2214.1  70531.82  12829.28  18.19
2216.5  70052.35  12751.92  18.20
2219.0  69765.53  12699.77  18.20
2221.4  69443.94  12640.04  18.20
2223.9  69031.16  12550.78  18.18
2226.3  68607.22  12456.58  18.16
2228.7  68146.82  12343.05  18.11
2231.1  67623.19  12209.18  18.05
2233.6  67124.50  12064.04  17.97
2236.0  66658.60  11919.84  17.88
2238.4  66238.38  11781.01  17.79
2240.9  65861.73  11638.15  17.67
2243.3  65411.00  11473.00  17.54
2245.7  64927.49  11292.01  17.39
2248.1  64509.26  11122.80  17.24
2250.5  64081.77  10950.47  17.09
2252.9  63541.24  10760.27  16.93
2255.3  63061.86  10570.64  16.76
2257.7  62681.25  10398.75  16.59
2260.1  62273.14  10218.96  16.41
2262.5  61751.25  10032.50  16.25
2264.9  61303.91  9866.03  16.09
2267.3  60795.00  9691.25  15.94
2269.7  60369.32  9532.93  15.79
2272.1  59893.41  9368.09  15.64
2274.5  59417.06  9222.11  15.52
2276.8  59021.96  9082.62  15.39
2279.2  58536.23  8934.46  15.26
2281.6  58168.98  8817.14  15.16
2284.0  57770.74  8687.27  15.04
2286.3  57380.00  8557.60  14.91
2288.7  57036.86  8438.17  14.79
2291.1  56580.11  8301.80  14.67
2293.4  56210.00  8173.55  14.54
2295.8  55674.08  8021.13  14.41
2298.2  55160.33  7880.23  14.29
2300.5  54601.43  7730.16  14.16
2302.9  53974.88  7571.75  14.03
2305.2  53364.31  7419.87  13.90
2307.6  52796.84  7290.02  13.81
2309.9  52118.75  7151.96  13.72
2312.2  51591.75  7040.88  13.65
2314.6  51077.25  6930.62  13.57
2316.9  50471.78  6809.01  13.49
2319.2  49973.82  6700.76  13.41
2321.6  49423.37  6589.52  13.33
2323.9  48937.50  6476.57  13.23
2326.2  48483.71  6372.17  13.14
2328.6  48043.88  6270.00  13.05
2330.9  47600.44  6162.19  12.95
2333.2  47196.38  6056.32  12.83
2335.5  46821.87  5959.90  12.73
2337.8  46434.39  5868.83  12.64
2340.1  45941.05  5761.00  12.54
2342.4  45573.13  5663.13  12.43
2344.8  45223.66  5571.60  12.32
2347.1  44723.44  5469.63  12.23
2349.4  44237.43  5366.50  12.13
2351.6  43741.68  5270.10  12.05
2353.9  43340.32  5187.05  11.97
2356.2  42892.27  5097.00  11.88
2358.5  42386.40  5000.80  11.80
2360.8  41878.20  4904.20  11.71
2363.1  41490.46  4824.57  11.63
2365.4  41091.04  4740.35  11.54
2367.7  40689.45  4655.48  11.44
2369.9  40232.44  4561.40  11.34
2372.2  39693.30  4466.27  11.25
2374.5  39189.15  4370.23  11.15
2376.7  38657.37  4266.22  11.04
2379.0  38132.62  4167.65  10.93
2381.3  37598.75  4067.30  10.82
2383.5  37153.60  3976.13  10.70
2385.8  36632.58  3878.59  10.59
2388.0  36192.08  3783.38  10.45
2390.3  35746.85  3692.02  10.33
2392.5  35329.50  3606.00  10.21
2394.8  34925.14  3525.64  10.09
2397.0  34511.75  3441.32  9.97
2399.3  34105.72  3356.51  9.84
2401.5  33731.91  3275.35  9.71
2403.8  33268.86  3188.48  9.58
2406.0  32821.91  3104.17  9.46
2408.2  32477.23  3030.96  9.33
2410.4  32108.70  2955.43  9.20
2412.7  31752.83  2882.48  9.08
2414.9  31436.83  2816.21  8.96
2417.1  31084.84  2744.79  8.83
2419.3  30724.80  2667.20  8.68
2421.6  30399.38  2602.71  8.56
2423.8  30064.84  2533.37  8.43
2426.0  29752.93  2468.46  8.30
2428.2  29424.50  2409.17  8.19
2430.4  29154.69  2345.61  8.05
2432.6  28915.00  2285.00  7.90
2434.8  28656.47  2237.25  7.81
2437.0  28346.02  2169.49  7.65
2439.2  28045.40  2106.91  7.51
2441.4  27760.88  2050.12  7.38
2443.6  27553.89  2005.15  7.28
2445.7  27317.20  1952.35  7.15
2447.9  27074.88  1899.63  7.02
2450.1  26817.94  1851.09  6.90
2452.3  26505.81  1799.88  6.79
2454.5  26194.85  1746.33  6.67
2456.6  25867.25  1695.95  6.56
2458.8  25557.68  1642.72  6.43
2461.0  25301.26  1598.45  6.32
2463.1  25055.11  1558.67  6.22
2465.3  24803.50  1523.70  6.14
2467.5  24580.88  1487.91  6.05
2469.6  24344.00  1450.65  5.96
2471.8  24073.60  1415.32  5.88
2473.9  23801.50  1383.90  5.81
2476.1  23495.07  1351.74  5.75
2478.2  23192.76  1319.59  5.69
2480.4  22927.15  1279.81  5.58
2482.5  22621.15  1246.41  5.51
2484.6  22346.51  1213.55  5.43
2486.8  22095.79  1185.35  5.36
2488.9  21822.44  1166.00  5.34
2491.1  21527.10  1138.43  5.29
2493.2  21195.75  1107.69  5.23
2495.3  20833.32  1076.24  5.17
2497.4  20533.54  1052.54  5.13
2499.5  20257.49  1029.67  5.08
2501.7  20139.06  1018.87  5.06
2503.8  20034.93  1007.18  5.03
2505.9  19974.69  995.11  4.98
2508.0  19949.30  989.70  4.96
2510.1  19930.98  990.29  4.97
2512.2  20031.32  986.32  4.92
2514.3  20146.07  980.02  4.86
2516.4  20293.47  987.47  4.87
