/*** Spectra Vista SIG Data ***/
name= 12_20220926_BENI_49_avg.sig
comm= Averaged Ref/Tar of files: HR.092622.0032_moc.sig,HR.092622.0033_moc.sig,HR.092622.0034_moc.sig
data=
337.3  6217.05  494.69  7.96
338.8  6349.20  474.59  7.47
340.3  6742.78  504.13  7.48
341.8  7016.07  495.96  7.07
343.2  7402.08  497.42  6.72
344.7  7786.00  469.45  6.03
346.2  8115.33  460.60  5.68
347.7  8442.67  443.24  5.25
349.2  8769.60  453.60  5.17
350.6  9204.30  457.78  4.97
352.1  9669.17  452.80  4.68
353.6  10228.27  458.67  4.48
355.1  10688.35  443.50  4.15
356.6  11323.05  451.19  3.98
358.0  11862.88  472.83  3.99
359.5  12316.95  487.80  3.96
361.0  12966.93  482.31  3.72
362.5  13572.85  499.85  3.68
364.0  14332.33  505.40  3.53
365.4  15011.52  516.37  3.44
366.9  15638.52  527.30  3.37
368.4  16284.43  548.75  3.37
369.9  16995.33  579.47  3.41
371.3  17893.52  609.29  3.41
372.8  18667.37  623.40  3.34
374.3  19462.00  638.21  3.28
375.8  20320.02  647.99  3.19
377.2  21130.20  652.86  3.09
378.7  21912.80  667.22  3.04
380.2  22742.05  681.91  3.00
381.7  23632.00  703.33  2.98
383.1  24675.30  717.06  2.91
384.6  25586.50  736.05  2.88
386.1  26538.25  752.21  2.83
387.6  27444.15  764.09  2.78
389.0  28484.25  789.87  2.77
390.5  29515.52  804.65  2.73
392.0  30567.00  814.20  2.66
393.4  31681.25  842.55  2.66
394.9  32677.80  868.69  2.66
396.4  33834.53  917.55  2.71
397.9  34936.40  921.84  2.64
399.3  35875.72  940.46  2.62
400.8  37090.35  960.52  2.59
402.2  38280.00  988.90  2.58
403.7  39500.60  1026.64  2.60
405.2  40629.47  1063.37  2.62
406.6  41887.40  1093.24  2.61
408.1  42997.75  1115.30  2.59
409.6  44172.32  1140.67  2.58
411.0  45428.35  1162.70  2.56
412.5  46767.67  1200.28  2.57
414.0  48120.22  1250.01  2.60
415.4  49458.60  1284.84  2.60
416.9  50758.82  1335.89  2.63
418.4  52065.83  1365.82  2.62
419.8  53425.63  1399.86  2.62
421.3  54885.60  1441.44  2.63
422.7  56378.40  1496.21  2.65
424.2  57902.50  1542.61  2.66
425.7  59349.58  1589.68  2.68
427.1  60826.93  1641.43  2.70
428.6  62291.87  1681.40  2.70
430.0  63813.02  1726.27  2.71
431.5  65486.20  1785.64  2.73
432.9  67154.17  1846.27  2.75
434.4  68850.42  1903.78  2.77
435.9  70514.20  1962.04  2.78
437.3  72207.00  2012.85  2.79
438.8  73832.75  2066.97  2.80
440.2  75495.82  2131.20  2.82
441.7  77377.48  2198.44  2.84
443.1  79207.20  2253.78  2.85
444.6  81006.23  2313.02  2.86
446.0  82831.08  2373.77  2.87
447.5  84783.33  2450.00  2.89
448.9  86522.98  2512.44  2.90
450.4  88400.00  2576.67  2.91
451.8  90232.25  2639.80  2.93
453.3  92068.40  2709.48  2.94
454.7  93886.05  2776.41  2.96
456.2  95693.27  2837.75  2.97
457.6  97606.80  2903.58  2.97
459.1  99435.70  2963.52  2.98
460.5  101285.65  3026.69  2.99
462.0  103321.20  3090.24  2.99
463.4  105312.43  3160.43  3.00
464.8  107296.35  3223.71  3.00
466.3  109256.65  3295.93  3.02
467.7  111284.27  3358.29  3.02
469.2  113179.30  3413.66  3.02
470.6  115208.92  3486.47  3.03
472.0  117251.07  3554.49  3.03
473.5  119282.67  3633.03  3.05
474.9  121458.77  3717.41  3.06
476.4  123543.20  3777.09  3.06
477.8  125664.00  3849.07  3.06
479.2  127775.32  3919.76  3.07
480.7  129934.55  3998.56  3.08
482.1  132141.10  4080.77  3.09
483.6  134385.00  4155.24  3.09
485.0  136648.55  4241.01  3.10
486.4  138765.37  4323.55  3.12
487.9  141042.83  4418.30  3.13
489.3  143243.05  4513.89  3.15
490.7  145455.37  4605.11  3.17
492.2  147720.25  4706.47  3.19
493.6  149990.00  4818.55  3.21
495.0  152308.00  4938.70  3.24
496.5  154507.50  5068.98  3.28
497.9  156857.00  5213.43  3.32
499.3  159164.83  5357.20  3.37
500.7  161460.93  5512.84  3.41
502.2  163855.53  5693.92  3.47
503.6  166154.40  5895.68  3.55
505.0  168458.22  6118.20  3.63
506.5  170957.40  6395.20  3.74
507.9  173426.40  6690.83  3.86
509.3  175755.30  7018.02  3.99
510.7  178415.25  7396.74  4.15
512.2  181072.85  7821.81  4.32
513.6  183946.13  8321.20  4.52
515.0  186701.78  8879.92  4.76
516.4  189553.20  9498.67  5.01
517.8  192366.83  10184.23  5.29
519.3  195277.87  10941.65  5.60
520.7  197956.47  11743.33  5.93
522.1  200658.03  12591.93  6.28
523.5  203244.08  13469.73  6.63
524.9  206137.80  14381.54  6.98
526.3  208761.75  15287.67  7.32
527.8  211538.75  16197.93  7.66
529.2  214195.20  17126.40  8.00
530.6  217080.60  18042.00  8.31
532.0  220044.07  18904.08  8.59
533.4  222484.20  19692.69  8.85
534.8  224940.65  20425.90  9.08
536.3  227997.28  21182.93  9.29
537.7  231134.83  21912.30  9.48
539.1  234102.48  22589.36  9.65
540.5  237010.50  23231.40  9.80
541.9  239961.97  23872.24  9.95
543.3  242549.67  24464.59  10.09
544.7  245520.00  25094.67  10.22
546.1  248334.80  25707.27  10.35
547.5  251380.80  26317.44  10.47
549.0  254626.13  26926.83  10.58
550.4  257479.95  27463.80  10.67
551.8  260385.07  27955.17  10.74
553.2  263270.30  28379.50  10.78
554.6  266143.70  28724.97  10.79
556.0  269072.30  28994.00  10.78
557.4  272192.20  29199.93  10.73
558.8  275044.70  29305.69  10.65
560.2  278213.33  29381.33  10.56
561.6  281157.07  29355.00  10.44
563.0  283940.37  29230.93  10.29
564.4  287123.20  29107.49  10.14
565.8  290117.33  28902.67  9.96
567.2  293267.98  28647.28  9.77
568.6  296298.00  28332.45  9.56
570.0  299186.33  27946.97  9.34
571.4  302615.60  27563.89  9.11
572.8  305748.93  27149.47  8.88
574.2  308625.45  26731.18  8.66
575.6  311659.50  26356.55  8.46
577.0  314693.87  26017.86  8.27
578.4  318106.25  25745.42  8.09
579.8  321161.82  25492.21  7.94
581.2  324212.17  25276.00  7.80
582.5  327120.00  25080.00  7.67
583.9  330179.07  24924.60  7.55
585.3  333057.60  24786.96  7.44
586.7  336043.40  24686.20  7.35
588.1  339030.53  24623.44  7.26
589.5  342369.90  24617.60  7.19
590.9  345335.43  24612.81  7.13
592.3  348285.00  24633.54  7.07
593.7  351236.78  24685.01  7.03
595.0  354190.80  24750.88  6.99
596.4  357503.50  24868.37  6.96
597.8  360168.27  24922.63  6.92
599.2  363316.20  24988.34  6.88
600.6  366489.75  25025.99  6.83
602.0  369473.20  25026.00  6.77
603.3  372354.67  24960.00  6.70
604.7  375367.17  24864.80  6.62
606.1  378398.35  24717.06  6.53
607.5  381722.08  24551.37  6.43
608.9  384810.07  24330.46  6.32
610.2  387992.55  24092.31  6.21
611.6  390921.67  23826.00  6.09
613.0  393731.97  23551.46  5.98
614.4  396516.38  23293.17  5.87
615.8  399788.07  23075.72  5.77
617.1  402507.32  22862.25  5.68
618.5  405776.35  22713.47  5.60
619.9  408491.70  22568.56  5.52
621.3  411448.48  22480.51  5.46
622.6  414375.00  22444.50  5.42
624.0  417100.25  22443.90  5.38
625.4  420207.90  22500.11  5.35
626.8  423198.97  22566.27  5.33
628.1  426048.93  22664.74  5.32
629.5  428816.15  22763.77  5.31
630.9  431731.63  22890.80  5.30
632.2  434832.82  23006.64  5.29
633.6  437338.42  23047.53  5.27
635.0  440304.18  23064.91  5.24
636.3  443372.82  23001.33  5.19
637.7  446132.88  22852.06  5.12
639.1  449122.67  22652.96  5.04
640.4  451847.33  22380.08  4.95
641.8  454677.60  22070.40  4.85
643.2  457280.77  21734.25  4.75
644.5  460203.33  21406.00  4.65
645.9  462802.20  21073.31  4.55
647.2  465648.52  20789.23  4.46
648.6  468419.47  20538.13  4.38
650.0  471132.00  20324.64  4.31
651.3  473726.17  20135.92  4.25
652.7  477133.00  19977.40  4.19
654.0  480157.50  19802.66  4.12
655.4  482491.45  19626.18  4.07
656.8  484031.10  19387.97  4.01
658.1  486616.55  19155.57  3.94
659.5  489974.40  18938.88  3.87
660.8  493295.60  18729.62  3.80
662.2  496041.30  18486.37  3.73
663.5  498833.15  18293.66  3.67
664.9  500874.05  18103.81  3.61
666.2  502981.05  17960.97  3.57
667.6  505533.00  17886.60  3.54
668.9  508464.00  17873.28  3.52
670.3  511241.50  17904.60  3.50
671.6  513661.87  17971.95  3.50
673.0  516008.00  18107.63  3.51
674.3  518476.93  18244.38  3.52
675.7  521023.20  18437.16  3.54
677.0  523421.10  18657.82  3.56
678.4  525643.20  18933.73  3.60
679.7  528094.00  19243.34  3.64
681.1  530727.28  19633.16  3.70
682.4  532992.75  20080.10  3.77
683.8  535365.75  20616.85  3.85
685.1  537586.80  21287.26  3.96
686.4  539794.23  22133.32  4.10
687.8  542370.80  23249.34  4.29
689.1  544766.60  24703.37  4.53
690.5  546766.00  26606.99  4.87
691.8  549531.40  29186.30  5.31
693.1  551986.00  32526.40  5.89
694.5  554378.20  36713.83  6.62
695.8  556796.27  41777.20  7.50
697.1  559126.93  47749.53  8.54
698.5  561511.92  54618.50  9.73
699.8  563980.53  62336.37  11.05
701.1  565894.00  70742.56  12.50
702.5  568039.00  79769.52  14.04
703.8  570532.48  89284.16  15.65
705.1  572370.37  98997.61  17.30
706.5  574706.65  108968.26  18.96
707.8  576592.37  118944.05  20.63
709.1  578944.40  129017.63  22.28
710.5  581210.38  139028.12  23.92
711.8  583194.67  148911.87  25.53
713.1  585144.00  158715.87  27.12
714.4  587262.57  168388.38  28.67
715.8  589581.88  177957.18  30.18
717.1  591874.17  187317.03  31.65
718.4  594165.75  196433.88  33.06
719.7  596485.80  205301.82  34.42
721.0  598265.63  213742.57  35.73
722.4  600129.30  221928.24  36.98
723.7  602148.20  229850.01  38.17
725.0  603894.02  237330.14  39.30
726.3  606276.67  244691.20  40.36
727.6  608054.00  251487.50  41.36
729.0  609942.90  257970.02  42.29
730.3  611987.93  264166.25  43.17
731.6  613513.60  269801.11  43.98
732.9  615554.55  275320.54  44.73
734.2  617251.25  280357.00  45.42
735.5  619074.87  285148.16  46.06
736.8  621122.72  289754.99  46.65
738.1  622992.55  293994.05  47.19
739.5  624810.60  297944.70  47.69
740.8  626848.20  301733.34  48.13
742.1  628491.05  305140.45  48.55
743.4  630276.97  308434.51  48.94
744.7  632230.67  311620.40  49.29
746.0  633760.48  314410.70  49.61
747.3  635364.80  317039.61  49.90
748.6  637005.30  319495.62  50.16
749.9  638876.62  321894.36  50.38
751.2  640279.98  323908.74  50.59
752.5  641911.18  325947.74  50.78
753.8  643354.20  327779.10  50.95
755.1  645019.10  329584.00  51.10
756.4  646207.60  331063.15  51.23
757.7  648351.00  332871.73  51.34
759.0  652071.85  335441.89  51.44
760.3  654856.83  337453.17  51.53
761.6  657751.28  339492.57  51.61
762.9  659186.00  340746.63  51.69
764.2  660063.03  341603.03  51.75
765.5  661016.83  342460.95  51.81
766.8  661682.07  343122.23  51.86
768.1  662841.90  344033.76  51.90
769.3  664166.40  344990.34  51.94
770.6  665637.00  345992.79  51.98
771.9  666884.82  346862.35  52.01
773.2  668419.05  347817.99  52.04
774.5  669423.10  348546.12  52.07
775.8  670554.70  349308.37  52.09
777.1  671868.55  350118.29  52.11
778.4  673213.67  350990.03  52.14
779.6  674615.60  351830.64  52.15
780.9  675376.65  352350.00  52.17
782.2  676428.47  353044.17  52.19
783.5  677445.50  353712.03  52.21
784.8  678333.25  354288.55  52.23
786.0  679248.93  354880.72  52.25
787.3  680151.90  355437.14  52.26
788.6  681093.42  356053.13  52.28
789.9  681900.67  356565.48  52.29
791.2  683322.70  357432.30  52.31
792.4  684551.08  358168.98  52.32
793.7  686177.80  359120.68  52.34
795.0  687297.53  359793.93  52.35
796.2  688690.40  360622.36  52.36
797.5  689970.00  361398.58  52.38
798.8  691480.42  362279.52  52.39
800.0  692673.33  363001.33  52.41
801.3  694008.00  363758.85  52.41
802.6  695184.00  364425.60  52.42
803.8  696376.10  365118.25  52.43
805.1  697429.25  365799.45  52.45
806.4  698516.32  366403.06  52.45
807.7  699723.73  367133.27  52.47
808.9  700969.00  367840.37  52.48
810.2  701941.80  368411.96  52.48
811.4  703106.13  369067.68  52.49
812.7  704543.17  369886.49  52.50
814.0  705874.40  370670.30  52.51
815.2  707271.00  371500.52  52.53
816.5  708502.08  372178.33  52.53
817.7  709385.00  372699.53  52.54
819.0  710186.40  373163.84  52.54
820.2  711094.80  373722.90  52.56
821.5  712233.60  374390.91  52.57
822.7  713253.22  375017.63  52.58
824.0  714246.87  375590.97  52.59
825.2  715053.30  376021.62  52.59
826.5  715802.63  376480.30  52.60
827.7  716940.62  377104.34  52.60
829.0  717966.65  377663.12  52.60
830.2  718876.93  378249.65  52.62
831.5  719806.35  378782.37  52.62
832.7  720646.80  379296.24  52.63
834.0  721357.20  379691.01  52.64
835.2  722364.80  380290.83  52.65
836.4  723144.80  380795.95  52.66
837.7  724042.50  381273.00  52.66
838.9  725202.53  381998.91  52.67
840.1  726092.40  382503.00  52.68
841.4  726955.33  383077.76  52.70
842.6  727805.87  383588.99  52.70
843.8  728678.60  384077.72  52.71
845.1  729532.10  384611.26  52.72
846.3  730409.40  385153.72  52.73
847.5  731360.50  385697.87  52.74
848.8  732218.63  386215.02  52.75
850.0  733308.67  386883.25  52.76
851.2  734216.73  387364.93  52.76
852.5  735400.60  388078.67  52.77
853.7  736075.80  388476.81  52.78
854.9  737127.30  389145.38  52.79
856.1  738071.83  389726.63  52.80
857.4  738946.45  390216.68  52.81
858.6  739838.40  390723.76  52.81
859.8  740962.33  391341.61  52.82
861.0  741900.37  391894.58  52.82
862.2  742802.20  392459.20  52.83
863.5  743836.75  392958.19  52.83
864.7  744816.67  393510.83  52.83
865.9  745773.75  393985.63  52.83
867.1  746418.75  394369.17  52.83
868.3  747558.00  394959.81  52.83
869.5  748650.37  395628.08  52.85
870.8  749858.70  396231.12  52.84
872.0  750740.95  396716.57  52.84
873.2  751696.10  397165.73  52.84
874.4  752379.30  397553.51  52.84
875.6  753467.45  398178.49  52.85
876.8  754795.80  398908.62  52.85
878.0  755801.20  399507.27  52.86
879.2  756926.70  400063.27  52.85
880.4  757956.00  400569.07  52.85
881.6  758908.00  401057.13  52.85
882.8  760123.50  401658.10  52.84
884.0  761054.67  402144.04  52.84
885.2  762285.67  402842.77  52.85
886.5  763745.73  403532.73  52.84
887.7  764725.45  403988.79  52.83
888.8  766202.87  404730.27  52.82
890.0  767095.00  405156.50  52.82
891.2  768240.20  405697.37  52.81
892.4  769554.50  406415.46  52.81
893.6  771373.58  407300.59  52.80
894.8  772843.65  408086.34  52.80
896.0  774432.47  408854.01  52.79
897.2  776239.20  409797.63  52.79
898.4  778134.00  410767.84  52.79
899.6  779599.20  411372.37  52.77
900.8  780174.20  411641.97  52.76
902.0  780757.23  411925.07  52.76
903.2  780985.40  412001.85  52.75
904.3  782145.00  412571.25  52.75
905.5  783337.50  413156.70  52.74
906.7  784699.12  413810.77  52.73
907.9  785893.60  414277.32  52.71
909.1  786975.93  414761.78  52.70
910.2  787342.50  414949.50  52.70
911.4  787523.55  414984.57  52.69
912.6  788125.00  415257.00  52.69
913.8  789164.37  415726.08  52.68
915.0  789766.67  415866.19  52.66
916.2  789956.60  415924.63  52.65
917.3  790559.00  416258.40  52.65
918.5  791114.50  416509.22  52.65
919.7  791227.83  416511.30  52.64
920.8  791655.13  416522.58  52.61
922.0  791880.47  416437.23  52.59
923.2  792502.30  416581.98  52.57
924.4  793176.08  416929.20  52.56
925.5  794098.00  417270.91  52.55
926.7  794812.60  417599.25  52.54
927.9  796305.27  418156.62  52.51
929.0  799515.00  419711.04  52.50
930.2  804135.73  421841.04  52.46
931.4  809562.38  424340.68  52.42
932.5  814087.27  426529.99  52.39
933.7  816698.10  427842.78  52.39
934.9  818224.17  428386.00  52.36
936.0  817623.60  427720.44  52.31
937.2  814544.57  425967.47  52.30
938.3  810764.50  423704.23  52.26
939.5  808665.00  422315.40  52.22
940.7  808602.67  422081.40  52.20
941.8  811842.63  423527.26  52.17
943.0  813790.00  424271.81  52.14
944.2  815936.00  424950.40  52.08
945.3  815594.40  424386.40  52.03
946.5  814205.00  423155.83  51.97
947.6  815257.50  423321.50  51.92
948.8  813944.90  422431.70  51.90
949.9  814491.42  422162.65  51.83
951.1  814679.57  421785.98  51.77
952.2  814632.70  420975.52  51.68
953.4  814494.10  420326.72  51.61
954.5  813130.50  419018.60  51.53
955.7  812989.63  418215.39  51.44
956.8  813186.97  417976.93  51.40
958.0  812067.90  416922.84  51.34
959.1  811944.00  416283.84  51.27
960.3  812150.00  415880.00  51.21
961.4  812670.87  415875.89  51.17
962.6  812361.60  415314.24  51.12
963.7  813123.73  415193.89  51.06
964.9  813093.83  415116.45  51.05
966.0  813524.37  415240.00  51.04
967.2  813968.40  415340.80  51.03
968.3  815601.63  416041.07  51.01
969.5  815796.00  415980.42  50.99
970.6  816368.13  415988.73  50.96
971.8  816247.37  415889.76  50.95
972.9  816792.67  416082.80  50.94
974.0  817644.90  416672.55  50.96
975.2  816412.50  415955.25  50.95
976.3  817553.93  416447.60  50.94
977.5  816912.60  416236.42  50.95
978.6  817109.80  416574.28  50.98
979.7  817555.20  416366.72  50.93
980.9  817062.98  416537.12  50.98
982.0  816544.83  416535.46  51.01
983.2  816210.27  417050.85  51.10
984.3  815011.17  416282.63  51.08
985.4  815060.87  416081.12  51.05
986.6  815668.30  416507.92  51.06
987.7  815085.92  416108.87  51.05
988.9  816967.95  416999.91  51.04
990.0  815780.37  416866.73  51.10
993.1  843664.20  426764.27  50.58
996.9  844366.10  428593.49  50.76
1000.7  844367.68  429862.19  50.91
1004.5  843589.53  430627.31  51.05
1008.4  844309.64  432211.21  51.19
1012.2  845514.67  433979.72  51.33
1016.0  845372.33  435082.25  51.47
1019.8  844437.35  435695.99  51.60
1023.7  843669.67  436218.58  51.70
1027.5  842145.47  436212.77  51.80
1031.3  841402.20  436368.62  51.86
1035.1  840967.28  436518.58  51.91
1038.9  840759.04  436778.05  51.95
1042.7  840476.55  436974.25  51.99
1046.5  839690.25  436895.86  52.03
1050.3  838253.38  436338.32  52.05
1054.2  836291.50  435585.88  52.09
1058.0  835369.20  435252.00  52.10
1061.8  834146.42  434747.61  52.12
1065.6  832705.67  433996.93  52.12
1069.4  830861.58  433065.84  52.12
1073.2  829547.88  432337.03  52.12
1077.0  828220.80  431606.76  52.11
1080.8  827159.67  430907.48  52.09
1084.6  825938.67  430093.48  52.07
1088.4  824640.08  429159.84  52.04
1092.2  823123.93  428077.48  52.01
1096.0  821889.00  426999.44  51.95
1099.8  820508.00  425863.33  51.90
1103.6  818940.88  424501.07  51.84
1107.4  817609.95  423281.28  51.77
1111.2  816213.00  421951.61  51.70
1114.9  815059.50  420687.33  51.61
1118.7  814301.92  419398.17  51.50
1122.5  814009.08  418154.34  51.37
1126.3  811506.15  415372.30  51.19
1130.1  810941.28  413015.03  50.93
1133.9  807642.14  408647.75  50.60
1137.7  805154.00  404073.38  50.19
1141.4  801630.28  398494.78  49.71
1145.2  800825.87  393972.88  49.20
1149.0  798966.00  389088.73  48.70
1152.8  795818.40  384145.28  48.27
1156.6  792457.83  379953.59  47.95
1160.3  789361.95  376688.80  47.72
1164.1  784757.93  373349.38  47.58
1167.9  781691.42  371198.16  47.49
1171.7  779180.73  369610.00  47.44
1175.4  777023.87  368240.00  47.39
1179.2  775213.50  367022.67  47.34
1183.0  775422.88  366673.25  47.29
1186.7  775215.00  366102.07  47.23
1190.5  773456.46  364929.99  47.18
1194.3  770506.45  363295.88  47.15
1198.0  767659.20  361859.55  47.14
1201.8  765277.33  360827.71  47.15
1205.6  763610.63  360309.39  47.18
1209.3  762242.25  360113.83  47.24
1213.1  760768.08  359946.76  47.31
1216.8  758686.67  359723.32  47.41
1220.6  756545.67  359575.93  47.53
1224.3  754370.83  359333.34  47.63
1228.1  752389.40  359344.87  47.76
1231.9  750279.40  359113.30  47.86
1235.6  747963.70  358669.12  47.95
1239.4  745756.28  358210.59  48.03
1243.1  743718.60  357717.00  48.10
1246.9  741817.63  357149.73  48.15
1250.6  739816.23  356489.38  48.19
1254.3  737949.60  355803.20  48.22
1258.1  736026.00  355029.04  48.24
1261.8  733623.80  353952.87  48.25
1265.6  731087.70  352738.20  48.25
1269.3  728388.73  351278.19  48.23
1273.1  728712.23  351189.90  48.19
1276.8  729192.47  351110.93  48.15
1280.6  729087.07  350631.59  48.09
1284.3  726770.48  348987.73  48.02
1288.0  724672.33  347324.16  47.93
1291.8  722547.00  345458.40  47.81
1295.5  720519.07  343391.67  47.66
1299.2  718214.25  341032.90  47.48
1302.9  715496.56  338264.59  47.28
1306.7  712581.98  335153.70  47.03
1310.4  709708.42  331753.52  46.75
1314.1  707370.00  328359.58  46.42
1317.9  704992.17  324624.30  46.05
1321.6  702283.40  320426.50  45.63
1325.3  699437.03  315853.50  45.16
1329.0  696747.33  311118.78  44.65
1332.8  692918.75  305603.61  44.10
1336.5  689285.29  300084.28  43.54
1340.2  687332.00  295261.22  42.96
1343.9  686277.25  290872.95  42.38
1347.6  685198.48  286572.50  41.82
1351.4  684291.25  282435.84  41.27
1355.1  684550.44  278865.05  40.74
1358.8  683090.20  274444.99  40.18
1362.5  682689.18  270151.69  39.57
1366.2  680405.17  264468.53  38.87
1369.9  676545.00  257396.67  38.05
1373.6  672486.10  249101.76  37.04
1377.3  669827.67  239633.73  35.78
1381.0  667086.00  228101.73  34.19
1384.8  663477.85  214103.12  32.27
1388.4  659265.35  198631.15  30.13
1392.2  655129.00  182383.74  27.84
1395.9  653273.83  166683.27  25.52
1399.6  649471.23  151452.65  23.32
1403.3  647205.60  138210.40  21.35
1407.0  645084.00  126959.25  19.68
1410.7  643936.52  117996.76  18.32
1414.3  642108.00  110919.44  17.27
1418.1  640171.88  105631.94  16.50
1421.7  638409.10  101759.26  15.94
1425.4  637102.08  99121.83  15.56
1429.1  633680.25  97077.17  15.32
1432.8  632383.43  96052.83  15.19
1436.5  629058.63  95256.42  15.14
1440.2  625626.50  94857.60  15.16
1443.9  623434.70  94886.06  15.22
1447.6  619859.20  94886.76  15.31
1451.2  616968.55  95091.60  15.41
1454.9  615329.05  95610.61  15.54
1458.6  611681.57  96019.88  15.70
1462.3  610825.07  97179.63  15.91
1466.0  610860.17  98901.40  16.19
1469.7  609105.93  100733.11  16.54
1473.3  606878.07  102881.13  16.95
1477.0  602761.68  104958.20  17.41
1480.7  599653.58  107351.14  17.90
1484.4  596001.36  109710.56  18.41
1488.0  592896.67  112245.58  18.93
1491.7  589379.38  114655.87  19.45
1495.4  585918.45  117094.50  19.98
1499.0  582989.23  119563.31  20.51
1502.7  580218.80  122037.98  21.03
1506.4  577518.15  124448.36  21.55
1510.0  574811.25  126789.12  22.06
1513.7  572139.00  129059.89  22.56
1517.4  569652.53  131240.25  23.04
1521.0  567280.45  133380.46  23.51
1524.7  564780.33  135343.76  23.96
1528.3  562344.50  137237.46  24.40
1532.0  559830.40  138981.80  24.83
1535.7  557128.13  140585.00  25.23
1539.3  554577.67  142126.34  25.63
1543.0  552938.46  143815.91  26.01
1546.6  551543.67  145509.39  26.38
1550.3  550032.23  147041.24  26.73
1553.9  547650.73  148268.56  27.07
1557.6  545437.75  149449.25  27.40
1561.2  542959.93  150441.79  27.71
1564.9  540277.00  151332.86  28.01
1568.5  537576.00  152140.45  28.30
1572.2  535213.12  152983.81  28.58
1575.8  533425.95  153962.97  28.86
1579.5  531546.88  154844.05  29.13
1583.1  529284.82  155579.67  29.39
1586.8  527116.70  156300.00  29.65
1590.4  524946.93  157002.20  29.91
1594.0  522615.58  157597.75  30.16
1597.7  520324.85  158202.45  30.40
1601.3  517950.45  158697.90  30.64
1604.9  515289.87  159030.42  30.86
1608.6  512495.10  159237.25  31.07
1612.2  509926.29  159436.42  31.27
1615.8  507636.00  159701.20  31.46
1619.5  505474.10  159907.52  31.64
1623.1  502787.18  159866.12  31.80
1626.7  499968.12  159714.50  31.94
1630.3  497405.40  159575.33  32.08
1634.0  494991.47  159437.06  32.21
1637.6  492815.83  159267.22  32.32
1641.2  490580.88  158946.41  32.40
1644.8  488056.95  158372.65  32.45
1648.5  485410.68  157586.49  32.46
1652.1  483235.62  156752.54  32.44
1655.7  481339.58  155827.30  32.37
1659.3  479582.78  154841.75  32.29
1662.9  476327.03  153362.64  32.20
1666.6  472756.08  151849.38  32.12
1670.2  469441.78  150448.40  32.05
1673.8  466160.97  149117.91  31.99
1677.4  463635.90  148011.72  31.92
1681.0  461990.93  147071.47  31.83
1684.6  461113.13  146193.16  31.70
1688.2  459659.20  144969.07  31.54
1691.8  457993.40  143665.66  31.37
1695.4  457125.40  142545.01  31.18
1699.0  456255.85  141387.55  30.99
1702.6  455720.40  140223.55  30.77
1706.2  454214.93  138697.12  30.54
1709.8  452076.59  136991.40  30.30
1713.4  450515.00  135493.80  30.08
1717.0  448861.87  134035.14  29.86
1720.6  447173.22  132594.85  29.65
1724.2  445731.63  131244.27  29.44
1727.8  444382.93  130001.77  29.25
1731.4  443666.28  129113.81  29.10
1735.0  443614.10  128534.54  28.97
1738.6  443060.25  127740.17  28.83
1742.2  442123.30  126674.27  28.65
1745.8  440354.13  125275.02  28.45
1749.4  437989.05  123624.55  28.23
1753.0  434259.60  121577.07  28.00
1756.6  430473.75  119524.61  27.77
1760.1  427230.00  117725.60  27.56
1763.7  423448.20  115864.13  27.36
1767.3  420378.33  114339.38  27.20
1770.9  417757.71  112992.51  27.05
1774.5  414704.29  111594.60  26.91
1778.0  412532.44  110492.87  26.78
1781.6  410261.83  109486.41  26.69
1785.2  407615.80  108500.59  26.62
1788.8  404840.42  107578.98  26.57
1792.3  402577.63  106846.10  26.54
1795.9  402086.38  106652.45  26.52
1799.5  402227.76  106711.51  26.53
1803.1  403017.50  106903.57  26.53
1806.6  404136.95  107142.86  26.51
1810.2  405850.20  107467.97  26.48
1813.8  405637.20  107328.22  26.46
1817.3  405304.63  107196.47  26.45
1820.9  404456.25  106890.97  26.43
1824.5  403449.03  106525.60  26.40
1828.0  403898.24  106428.58  26.35
1831.6  404448.87  106294.33  26.28
1835.2  403737.44  105633.72  26.16
1838.7  403965.33  105021.26  26.00
1842.3  402298.75  103666.11  25.77
1845.8  400923.33  102045.23  25.45
1849.4  400458.80  100240.00  25.03
1852.9  398895.83  97640.74  24.48
1856.5  397421.81  94466.93  23.77
1860.0  397231.93  90867.76  22.88
1863.6  396357.30  86438.23  21.81
1867.1  395796.21  81276.58  20.53
1870.7  396161.46  75293.70  19.01
1874.2  395259.38  68160.28  17.24
1877.8  392370.74  60410.47  15.40
1881.3  389454.10  52659.45  13.52
1884.9  387173.19  45465.07  11.74
1888.4  385087.35  38889.81  10.10
1891.9  383376.65  33402.78  8.71
1895.5  381751.30  29114.58  7.63
1899.0  380689.73  26061.28  6.85
1901.3  399589.07  18625.51  4.66
1904.1  399460.08  16959.25  4.25
1906.8  397862.90  15714.70  3.95
1909.6  394484.07  14709.51  3.73
1912.4  390991.38  13971.89  3.57
1915.1  387196.57  13414.86  3.46
1917.9  383474.05  13045.68  3.40
1920.6  380558.53  12803.89  3.36
1923.3  378116.20  12650.82  3.35
1926.1  374955.15  12511.65  3.34
1928.8  371428.20  12449.67  3.35
1931.6  370304.77  12539.86  3.39
1934.3  366473.48  12556.97  3.43
1937.0  362623.80  12624.20  3.48
1939.8  359424.50  12727.95  3.54
1942.5  355053.85  12827.08  3.61
1945.2  351568.50  12996.97  3.70
1947.9  348862.80  13183.59  3.78
1950.7  344804.40  13355.10  3.87
1953.4  341384.47  13572.53  3.98
1956.1  338798.17  13843.60  4.09
1958.8  336678.42  14151.47  4.20
1961.5  333849.95  14453.95  4.33
1964.2  330525.33  14758.11  4.47
1966.9  327628.80  15083.73  4.60
1969.6  324962.37  15452.43  4.76
1972.3  322432.63  15836.90  4.91
1975.0  319982.00  16237.11  5.07
1977.7  317785.30  16672.01  5.25
1980.4  315556.27  17145.33  5.43
1983.1  313202.13  17593.10  5.62
1985.8  311120.40  18074.40  5.81
1988.4  309096.15  18552.42  6.00
1991.1  307321.70  19048.17  6.20
1993.8  305839.80  19562.43  6.40
1996.5  304337.60  20097.00  6.60
1999.1  302941.82  20634.96  6.81
2001.8  301714.10  21171.49  7.02
2004.5  300492.30  21704.27  7.22
2007.1  299018.00  22185.87  7.42
2009.8  297103.33  22628.47  7.62
2012.4  295802.93  23101.11  7.81
2015.1  294648.67  23586.88  8.01
2017.8  293485.20  24040.60  8.19
2020.4  292353.20  24478.65  8.37
2023.1  291890.62  24934.59  8.54
2025.7  291622.75  25385.99  8.71
2028.3  290818.70  25777.71  8.86
2031.0  290269.90  26157.52  9.01
2033.6  289960.50  26525.42  9.15
2036.2  289591.17  26844.38  9.27
2038.9  288558.40  27109.33  9.39
2041.5  287645.83  27361.11  9.51
2044.1  286875.00  27597.22  9.62
2046.8  285729.57  27769.43  9.72
2049.4  284871.73  27975.24  9.82
2052.0  284701.87  28208.60  9.91
2054.6  284294.67  28432.98  10.00
2057.2  283227.75  28606.95  10.10
2059.8  281736.00  28756.00  10.21
2062.4  280362.33  28925.94  10.32
2065.0  278996.70  29070.05  10.42
2067.6  277135.20  29166.22  10.52
2070.2  275725.97  29299.43  10.63
2072.8  274821.25  29481.53  10.73
2075.4  273790.83  29640.39  10.83
2078.0  273130.45  29836.23  10.92
2080.6  271869.47  29963.19  11.02
2083.2  270593.77  30070.71  11.11
2085.8  269308.90  30174.67  11.20
2088.4  268205.25  30309.81  11.30
2090.9  266535.50  30372.33  11.40
2093.5  264675.20  30409.40  11.49
2096.1  262891.20  30430.40  11.58
2098.7  261430.68  30477.69  11.66
2101.2  259539.20  30495.00  11.75
2103.8  258092.25  30554.44  11.84
2106.4  256642.73  30628.23  11.93
2108.9  255630.18  30728.33  12.02
2111.5  254704.92  30835.39  12.11
2114.0  254106.67  30990.55  12.20
2116.6  251963.43  30935.66  12.28
2119.1  250873.70  30994.83  12.35
2121.7  250306.30  31098.27  12.42
2124.2  250144.50  31272.61  12.50
2126.8  249000.80  31315.33  12.58
2129.3  247906.05  31333.58  12.64
2131.9  248114.67  31517.87  12.70
2134.4  247255.87  31560.63  12.76
2136.9  246991.00  31683.34  12.83
2139.4  245910.83  31697.17  12.89
2142.0  245473.03  31791.43  12.95
2144.5  244938.83  31865.08  13.01
2147.0  244480.97  31991.06  13.09
2149.5  244104.20  32123.77  13.16
2152.1  244411.27  32344.72  13.23
2154.6  244458.40  32503.20  13.30
2157.1  244368.60  32674.39  13.37
2159.6  243293.73  32713.33  13.45
2162.1  243073.97  32869.15  13.52
2164.6  242409.80  32939.01  13.59
2167.1  241485.40  32968.50  13.65
2169.6  241620.08  33152.80  13.72
2172.1  240792.50  33205.07  13.79
2174.6  240429.47  33318.21  13.86
2177.1  239340.17  33339.36  13.93
2179.5  238892.20  33442.00  14.00
2182.0  238550.83  33564.78  14.07
2184.5  237570.35  33592.58  14.14
2187.0  236769.33  33641.39  14.21
2189.5  235792.70  33660.88  14.28
2191.9  234589.67  33673.08  14.35
2194.4  232931.25  33616.17  14.43
2196.9  231872.85  33612.52  14.50
2199.3  230451.90  33538.50  14.55
2201.8  229310.90  33518.14  14.62
2204.3  228573.30  33532.50  14.67
2206.7  227390.65  33468.07  14.72
2209.2  226206.00  33382.20  14.76
2211.6  224302.37  33172.91  14.79
2214.1  223618.50  33146.48  14.82
2216.5  223275.57  33145.40  14.85
2219.0  221922.43  32985.45  14.86
2221.4  221968.95  32980.75  14.86
2223.9  220817.13  32768.38  14.84
2226.3  219583.07  32519.87  14.81
2228.7  218640.93  32275.82  14.76
2231.1  217996.80  32034.50  14.69
2233.6  216920.00  31706.13  14.62
2236.0  215909.82  31335.45  14.51
2238.4  215101.80  30930.21  14.38
2240.9  214377.60  30569.27  14.26
2243.3  213545.50  30121.73  14.11
2245.7  212721.40  29668.99  13.95
2248.1  211771.73  29166.22  13.77
2250.5  211006.40  28665.51  13.59
2252.9  210337.30  28171.76  13.39
2255.3  209605.23  27687.59  13.21
2257.7  208700.80  27169.88  13.02
2260.1  207831.20  26639.20  12.82
2262.5  206752.00  26146.93  12.65
2264.9  205828.90  25665.82  12.47
2267.3  204919.00  25215.67  12.31
2269.7  203984.43  24787.28  12.15
2272.1  203159.67  24383.39  12.00
2274.5  202441.93  24017.07  11.86
2276.8  201751.73  23660.27  11.73
2279.2  200998.00  23342.33  11.61
2281.6  200466.15  23039.72  11.49
2284.0  200088.90  22770.00  11.38
2286.3  199565.53  22469.95  11.26
2288.7  199028.90  22214.93  11.16
2291.1  198463.50  21888.83  11.03
2293.4  197769.40  21571.87  10.91
2295.8  197054.00  21254.56  10.79
2298.2  196282.30  20939.70  10.67
2300.5  195178.70  20557.82  10.53
2302.9  193811.65  20192.00  10.42
2305.2  192437.25  19844.86  10.31
2307.6  190971.20  19516.00  10.22
2309.9  189954.88  19263.36  10.14
2312.2  189043.50  19074.83  10.09
2314.6  188017.97  18902.13  10.05
2316.9  186932.67  18725.83  10.02
2319.2  186201.77  18574.23  9.98
2321.6  185552.68  18390.79  9.91
2323.9  184702.00  18180.73  9.84
2326.2  183849.55  17962.51  9.77
2328.6  183128.50  17759.97  9.70
2330.9  182778.40  17578.80  9.62
2333.2  182368.00  17398.17  9.54
2335.5  181810.20  17187.44  9.45
2337.8  181362.80  16957.27  9.35
2340.1  180766.13  16746.96  9.26
2342.4  180318.15  16536.15  9.17
2344.8  179621.83  16327.02  9.09
2347.1  178890.80  16101.17  9.00
2349.4  178290.00  15910.89  8.92
2351.6  177574.00  15757.33  8.87
2353.9  176522.20  15547.40  8.81
2356.2  175696.23  15383.42  8.76
2358.5  174928.68  15202.65  8.69
2360.8  174127.08  15028.47  8.63
2363.1  173717.33  14862.31  8.56
2365.4  173259.00  14674.50  8.47
2367.7  172760.00  14533.78  8.41
2369.9  172043.30  14371.62  8.35
2372.2  170904.30  14165.12  8.29
2374.5  169660.00  13911.67  8.20
2376.7  168736.50  13648.33  8.09
2379.0  167586.65  13411.57  8.00
2381.3  166196.62  13188.81  7.94
2383.5  165230.33  12960.11  7.84
2385.8  164574.67  12726.39  7.73
2388.0  163682.93  12536.32  7.66
2390.3  162918.95  12354.19  7.58
2392.5  162519.33  12151.41  7.48
2394.8  161640.58  11959.28  7.40
2397.0  161102.27  11792.67  7.32
2399.3  160423.98  11578.33  7.22
2401.5  159682.70  11339.00  7.10
2403.8  158955.90  11157.44  7.02
2406.0  158506.33  10957.83  6.91
2408.2  157642.80  10787.35  6.84
2410.4  156849.05  10622.42  6.77
2412.7  156379.80  10414.80  6.66
2414.9  155805.00  10209.45  6.55
2417.1  155766.07  10056.40  6.46
2419.3  155335.80  9912.32  6.38
2421.6  154417.90  9684.81  6.27
2423.8  153824.63  9507.18  6.18
2426.0  153516.20  9312.63  6.07
2428.2  153153.00  9124.50  5.96
2430.4  153148.25  9049.22  5.91
2432.6  152984.60  8925.10  5.83
2434.8  152383.75  8730.63  5.73
2437.0  151894.60  8574.37  5.64
2439.2  151446.53  8427.47  5.56
2441.4  150594.40  8184.93  5.44
2443.6  150364.47  7986.98  5.31
2445.7  150527.77  7882.62  5.24
2447.9  150469.80  7746.70  5.15
2450.1  149745.92  7679.28  5.13
2452.3  148763.45  7490.88  5.04
2454.5  148258.13  7358.40  4.96
2456.6  147562.00  7207.69  4.88
2458.8  146367.67  7022.87  4.80
2461.0  145999.10  6898.52  4.73
2463.1  145534.33  6776.28  4.66
2465.3  144897.33  6661.11  4.60
2467.5  144607.67  6507.22  4.50
2469.6  144139.67  6417.86  4.45
2471.8  143779.03  6361.45  4.42
2473.9  143141.92  6230.25  4.35
2476.1  142197.92  6103.47  4.29
2478.2  141416.08  6066.32  4.29
2480.4  140716.78  5959.65  4.24
2482.5  139834.77  5860.21  4.19
2484.6  138744.00  5767.33  4.16
2486.8  138084.43  5646.27  4.09
2488.9  137582.80  5585.27  4.06
2491.1  136201.57  5494.51  4.03
2493.2  134900.27  5362.74  3.98
2495.3  133350.40  5209.00  3.91
2497.4  131975.13  5134.31  3.89
2499.5  131088.70  5140.73  3.92
2501.7  131134.50  5158.50  3.93
2503.8  131539.33  5094.83  3.87
2505.9  132155.10  5117.12  3.87
2508.0  132862.50  5216.08  3.93
2510.1  133755.30  5223.50  3.91
2512.2  134572.08  5126.56  3.81
2514.3  135681.00  5097.01  3.76
2516.4  137515.53  5337.87  3.88
