/*** Spectra Vista SIG Data ***/
name= 23_20220926_CECA_04_avg.sig
comm= Averaged Ref/Tar of files: HR.092622.0065_moc.sig,HR.092622.0066_moc.sig,HR.092622.0067_moc.sig
data=
337.3  3126.38  261.83  8.37
338.8  3222.70  236.38  7.33
340.3  3373.20  230.23  6.83
341.8  3520.83  227.32  6.46
343.2  3685.20  244.41  6.63
344.7  3838.50  240.46  6.26
346.2  4085.00  224.87  5.50
347.7  4247.10  221.72  5.22
349.2  4422.60  213.12  4.82
350.6  4664.08  214.05  4.59
352.1  4930.05  216.39  4.39
353.6  5170.30  227.37  4.40
355.1  5455.35  228.35  4.19
356.6  5735.63  219.12  3.82
358.0  6029.10  217.53  3.61
359.5  6303.60  220.71  3.50
361.0  6583.50  234.27  3.56
362.5  6967.45  235.87  3.39
364.0  7312.13  240.32  3.29
365.4  7671.30  249.42  3.25
366.9  8038.88  246.26  3.06
368.4  8373.43  259.24  3.10
369.9  8729.08  269.22  3.08
371.3  9158.10  286.83  3.13
372.8  9611.10  298.37  3.10
374.3  10051.25  292.30  2.91
375.8  10456.60  302.87  2.90
377.2  10867.60  308.45  2.84
378.7  11271.10  312.04  2.77
380.2  11674.60  312.04  2.67
381.7  12215.30  318.64  2.61
383.1  12666.50  323.91  2.56
384.6  13190.78  335.00  2.54
386.1  13674.65  339.23  2.48
387.6  14121.80  344.45  2.44
389.0  14606.00  352.23  2.41
390.5  15106.95  357.54  2.37
392.0  15684.85  352.67  2.25
393.4  16237.95  368.35  2.27
394.9  16808.40  382.30  2.27
396.4  17362.13  388.37  2.24
397.9  17911.88  393.89  2.20
399.3  18461.93  395.07  2.14
400.8  19017.78  406.87  2.14
402.2  19689.10  417.58  2.12
403.7  20295.23  423.72  2.09
405.2  20928.70  439.23  2.10
406.6  21506.40  441.02  2.05
408.1  22080.20  451.14  2.04
409.6  22674.35  459.07  2.02
411.0  23378.25  468.89  2.01
412.5  24052.88  479.97  2.00
414.0  24714.88  489.00  1.98
415.4  25420.13  503.12  1.98
416.9  26098.35  510.70  1.96
418.4  26798.63  530.37  1.98
419.8  27536.60  544.96  1.98
421.3  28270.45  562.25  1.99
422.7  29040.60  585.97  2.02
424.2  29818.13  608.14  2.04
425.7  30595.10  633.99  2.07
427.1  31380.98  662.24  2.11
428.6  32178.00  695.88  2.16
430.0  32944.93  724.06  2.20
431.5  33805.13  759.04  2.25
432.9  34676.55  793.05  2.29
434.4  35583.30  829.49  2.33
435.9  36428.00  871.20  2.39
437.3  37303.75  906.45  2.43
438.8  38172.90  946.89  2.48
440.2  39050.55  988.42  2.53
441.7  40012.40  1029.89  2.57
443.1  40929.25  1072.11  2.62
444.6  41893.80  1117.12  2.67
446.0  42843.45  1165.03  2.72
447.5  43815.75  1211.75  2.77
448.9  44788.80  1258.79  2.81
450.4  45804.15  1310.79  2.86
451.8  46696.00  1358.44  2.91
453.3  47619.15  1405.62  2.95
454.7  48642.10  1452.26  2.99
456.2  49514.40  1489.01  3.01
457.6  50484.83  1531.56  3.03
459.1  51501.13  1575.65  3.06
460.5  52443.38  1613.92  3.08
462.0  53531.95  1654.17  3.09
463.4  54580.80  1695.41  3.11
464.8  55569.38  1736.62  3.13
466.3  56548.80  1772.76  3.13
467.7  57538.60  1812.32  3.15
469.2  58608.30  1849.59  3.16
470.6  59614.15  1888.59  3.17
472.0  60677.33  1929.75  3.18
473.5  61698.00  1969.97  3.19
474.9  62757.00  2014.54  3.21
476.4  63907.20  2058.79  3.22
477.8  64989.00  2105.40  3.24
479.2  66004.00  2147.66  3.25
480.7  67106.10  2192.76  3.27
482.1  68276.25  2241.54  3.28
483.6  69490.05  2296.04  3.30
485.0  70580.10  2349.36  3.33
486.4  71789.70  2416.41  3.37
487.9  72891.00  2480.12  3.40
489.3  74052.03  2559.35  3.46
490.7  75126.95  2635.63  3.51
492.2  76351.80  2722.16  3.57
493.6  77469.20  2818.10  3.64
495.0  78594.75  2925.00  3.72
496.5  79773.30  3050.44  3.82
497.9  80917.95  3186.57  3.94
499.3  82091.95  3332.76  4.06
500.7  83358.50  3506.23  4.21
502.2  84534.00  3698.67  4.38
503.6  85804.20  3921.70  4.57
505.0  86903.80  4167.58  4.80
506.5  88221.53  4456.98  5.05
507.9  89409.58  4780.71  5.35
509.3  90768.40  5149.55  5.67
510.7  92005.88  5554.16  6.04
512.2  93407.18  6005.88  6.43
513.6  94910.90  6511.89  6.86
515.0  96374.38  7065.63  7.33
516.4  97764.98  7669.08  7.84
517.8  99397.63  8332.40  8.38
519.3  100734.78  9012.02  8.95
520.7  102326.15  9741.60  9.52
522.1  103638.60  10477.52  10.11
523.5  105014.50  11232.26  10.70
524.9  106480.35  12004.17  11.27
526.3  107955.05  12761.66  11.82
527.8  109459.35  13514.63  12.35
529.2  110453.70  14208.36  12.86
530.6  111987.50  14952.86  13.35
532.0  113722.00  15688.27  13.80
533.4  115061.70  16329.82  14.19
534.8  115970.03  16869.81  14.55
536.3  117648.00  17493.63  14.87
537.7  119662.20  18143.04  15.16
539.1  121142.43  18682.35  15.42
540.5  122355.70  19160.42  15.66
541.9  124108.50  19714.94  15.89
543.3  125391.98  20184.37  16.10
544.7  126722.40  20655.93  16.30
546.1  128523.73  21198.07  16.49
547.5  129763.20  21630.51  16.67
549.0  131450.00  22110.21  16.82
550.4  132961.25  22537.14  16.95
551.8  134541.08  22929.87  17.04
553.2  136070.25  23269.46  17.10
554.6  137425.60  23519.25  17.11
556.0  138979.80  23740.53  17.08
557.4  140595.53  23912.90  17.01
558.8  142250.40  24043.35  16.90
560.2  143724.88  24092.92  16.76
561.6  145407.90  24128.02  16.59
563.0  147006.15  24103.67  16.40
564.4  148617.85  24047.97  16.18
565.8  150131.25  23934.38  15.94
567.2  151897.50  23808.28  15.67
568.6  153402.75  23589.84  15.38
570.0  154846.28  23300.24  15.05
571.4  156578.50  23017.68  14.70
572.8  158353.25  22728.90  14.35
574.2  160003.20  22419.84  14.01
575.6  161561.25  22122.64  13.69
577.0  163104.20  21843.44  13.39
578.4  164835.13  21618.13  13.12
579.8  166376.03  21392.68  12.86
581.2  168115.30  21223.70  12.62
582.5  169533.00  21036.60  12.41
583.9  171064.60  20888.92  12.21
585.3  172876.73  20797.65  12.03
586.7  174374.53  20688.73  11.86
588.1  175885.25  20602.11  11.71
589.5  177551.50  20557.60  11.58
590.9  179192.40  20537.47  11.46
592.3  181008.65  20562.16  11.36
593.7  182481.98  20578.41  11.28
595.0  184115.70  20619.67  11.20
596.4  185573.50  20652.91  11.13
597.8  187064.03  20689.38  11.06
599.2  188628.00  20720.98  10.99
600.6  190387.60  20751.72  10.90
602.0  191709.00  20704.67  10.80
603.3  193494.00  20677.82  10.69
604.7  195196.95  20588.30  10.55
606.1  196691.40  20441.35  10.39
607.5  198347.70  20265.52  10.22
608.9  200072.00  20061.26  10.03
610.2  201455.10  19803.15  9.83
611.6  203056.88  19542.03  9.62
613.0  204626.45  19274.65  9.42
614.4  206028.00  18994.26  9.22
615.8  207514.13  18734.76  9.03
617.1  209063.40  18507.16  8.85
618.5  210707.60  18320.71  8.69
619.9  212233.50  18155.05  8.55
621.3  213884.10  18044.34  8.44
622.6  215497.75  17972.34  8.34
624.0  216979.80  17925.83  8.26
625.4  218478.15  17927.42  8.21
626.8  220067.58  17965.83  8.16
628.1  221373.90  18002.64  8.13
629.5  223186.65  18093.14  8.11
630.9  224734.68  18163.01  8.08
632.2  226056.08  18190.41  8.05
633.6  227591.25  18198.49  8.00
635.0  229086.80  18136.66  7.92
636.3  230609.00  17997.27  7.80
637.7  232008.38  17759.90  7.65
639.1  233695.00  17461.67  7.47
640.4  235201.23  17080.45  7.26
641.8  236412.98  16632.93  7.04
643.2  238002.10  16172.37  6.80
644.5  239367.00  15678.31  6.55
645.9  241012.35  15202.80  6.31
647.2  242462.33  14762.96  6.09
648.6  244174.50  14387.53  5.89
650.0  245592.00  14057.69  5.72
651.3  246190.45  13736.74  5.58
652.7  247925.80  13497.20  5.44
654.0  250022.20  13287.23  5.31
655.4  251481.55  13026.00  5.18
656.8  251606.80  12673.95  5.04
658.1  252968.80  12333.67  4.88
659.5  255436.13  12004.31  4.70
660.8  257085.00  11617.29  4.52
662.2  258137.60  11179.52  4.33
663.5  259730.90  10786.84  4.15
664.9  260846.30  10411.84  3.99
666.2  261627.00  10070.77  3.85
667.6  263368.03  9823.43  3.73
668.9  264420.98  9630.40  3.64
670.3  265971.63  9495.95  3.57
671.6  267270.00  9414.29  3.52
673.0  268442.63  9387.32  3.50
674.3  269730.50  9401.13  3.49
675.7  271081.00  9460.29  3.49
677.0  272184.95  9552.56  3.51
678.4  273528.48  9703.59  3.55
679.7  274629.73  9903.70  3.61
681.1  275959.58  10187.30  3.69
682.4  277067.70  10552.86  3.81
683.8  278327.40  11065.15  3.98
685.1  279350.25  11740.16  4.20
686.4  280608.00  12673.45  4.52
687.8  281885.25  13928.50  4.94
689.1  282975.50  15572.46  5.50
690.5  284292.00  17717.38  6.23
691.8  285185.28  20398.74  7.15
693.1  286499.85  23734.61  8.28
694.5  287673.75  27641.47  9.61
695.8  288902.25  32060.60  11.10
697.1  290085.25  36884.90  12.72
698.5  291150.20  42034.35  14.44
699.8  292280.75  47428.33  16.23
701.1  293414.50  52968.80  18.05
702.5  294254.95  58477.09  19.87
703.8  295200.00  63962.57  21.67
705.1  296368.80  69350.91  23.40
706.5  297430.88  74559.04  25.07
707.8  298417.20  79561.32  26.66
709.1  299288.95  84337.05  28.18
710.5  300427.53  88996.81  29.62
711.8  301273.00  93372.86  30.99
713.1  302298.80  97613.26  32.29
714.4  303213.10  101645.10  33.52
715.8  304082.80  105472.63  34.69
717.1  305412.75  109298.74  35.79
718.4  306364.80  112808.53  36.82
719.7  307480.48  116209.45  37.79
721.0  308025.00  119217.86  38.70
722.4  308822.25  122153.14  39.55
723.7  309806.70  124994.78  40.35
725.0  310878.00  127721.43  41.08
726.3  311835.15  130245.54  41.77
727.6  312405.78  132450.21  42.40
729.0  313315.98  134656.21  42.98
730.3  314153.10  136673.33  43.51
731.6  315094.65  138602.80  43.99
732.9  315911.58  140352.68  44.43
734.2  316707.88  142010.47  44.84
735.5  317775.70  143650.82  45.21
736.8  318575.40  145078.31  45.54
738.1  319471.30  146448.27  45.84
739.5  320487.98  147781.08  46.11
740.8  321185.43  148903.57  46.36
742.1  321901.58  149962.37  46.59
743.4  322575.00  150936.67  46.79
744.7  323498.75  151976.44  46.98
746.0  324429.30  152925.20  47.14
747.3  325035.35  153689.19  47.28
748.6  325789.00  154466.65  47.41
749.9  326508.00  155181.37  47.53
751.2  327136.50  155821.13  47.63
752.5  327947.15  156516.96  47.73
753.8  328466.78  157063.38  47.82
755.1  329186.00  157647.66  47.89
756.4  329804.58  158151.14  47.95
757.7  330839.60  158827.05  48.01
759.0  332690.35  159876.09  48.06
760.3  333907.20  160590.95  48.09
761.6  335479.20  161474.67  48.13
762.9  336033.50  161837.50  48.16
764.2  336411.40  162101.45  48.19
765.5  336704.48  162318.84  48.21
766.8  337144.00  162599.01  48.23
768.1  337677.60  162913.62  48.25
769.3  338270.10  163248.23  48.26
770.6  338921.70  163601.20  48.27
771.9  339649.63  163984.40  48.28
773.2  340061.60  164203.93  48.29
774.5  340683.20  164517.55  48.29
775.8  341353.20  164882.42  48.30
777.1  341929.50  165183.89  48.31
778.4  342242.18  165356.17  48.32
779.6  343026.50  165748.30  48.32
780.9  343470.00  165977.71  48.32
782.2  343972.75  166217.70  48.32
783.5  344253.50  166387.09  48.33
784.8  344808.45  166650.52  48.33
786.0  345173.15  166848.30  48.34
787.3  345532.55  167037.53  48.34
788.6  345969.58  167250.98  48.34
789.9  346439.80  167484.77  48.34
791.2  347086.63  167802.82  48.35
792.4  347754.35  168144.86  48.35
793.7  348228.40  168381.81  48.35
795.0  348871.05  168683.02  48.35
796.2  349505.70  169003.05  48.35
797.5  350201.63  169336.96  48.35
798.8  350876.23  169657.69  48.35
800.0  351541.45  169975.41  48.35
801.3  352011.10  170205.66  48.35
802.6  352593.45  170491.95  48.35
803.8  353199.68  170798.24  48.36
805.1  353675.00  171028.20  48.36
806.4  354139.50  171243.17  48.35
807.7  354662.55  171497.37  48.36
808.9  355224.00  171768.76  48.36
810.2  355712.70  172024.42  48.36
811.4  356248.40  172252.03  48.35
812.7  356850.00  172545.60  48.35
814.0  357675.80  172935.81  48.35
815.2  358298.50  173245.80  48.35
816.5  358703.38  173449.90  48.35
817.7  359168.70  173682.88  48.36
819.0  359679.10  173910.07  48.35
820.2  359832.00  173978.51  48.35
821.5  360548.75  174309.35  48.35
822.7  360887.03  174474.33  48.35
824.0  361233.00  174626.33  48.34
825.2  361701.45  174860.29  48.34
826.5  362031.95  174996.74  48.34
827.7  362540.73  175255.57  48.34
829.0  362952.53  175419.28  48.33
830.2  363259.70  175560.69  48.33
831.5  363737.95  175772.41  48.32
832.7  364062.83  175913.38  48.32
834.0  364402.63  176057.12  48.31
835.2  364733.60  176214.87  48.31
836.4  365074.05  176355.79  48.31
837.7  365470.60  176552.63  48.31
838.9  365863.23  176763.47  48.31
840.1  366235.43  176936.55  48.31
841.4  366663.60  177133.49  48.31
842.6  367087.80  177322.69  48.31
843.8  367363.40  177485.45  48.31
845.1  367851.30  177743.64  48.32
846.3  368292.80  177940.65  48.31
847.5  368688.60  178121.48  48.31
848.8  369069.60  178331.26  48.32
850.0  369447.05  178494.03  48.31
851.2  369976.95  178753.76  48.31
852.5  370303.70  178949.96  48.33
853.7  370815.75  179193.90  48.32
854.9  371283.70  179402.95  48.32
856.1  371706.40  179596.88  48.32
857.4  371884.48  179689.74  48.32
858.6  372426.25  179912.69  48.31
859.8  372751.88  180109.39  48.32
861.0  373253.40  180339.12  48.32
862.2  373712.35  180544.04  48.31
863.5  374064.60  180685.71  48.30
864.7  374543.40  180931.65  48.31
865.9  374927.20  181123.24  48.31
867.1  375273.15  181248.02  48.30
868.3  375672.15  181464.91  48.30
869.5  376131.80  181670.95  48.30
870.8  376686.00  181934.49  48.30
872.0  377191.35  182152.66  48.29
873.2  377620.80  182358.93  48.29
874.4  378132.30  182552.59  48.28
875.6  378532.38  182715.14  48.27
876.8  379055.00  182955.68  48.27
878.0  379427.55  183152.61  48.27
879.2  379942.05  183366.50  48.26
880.4  380410.13  183594.31  48.26
881.6  380925.80  183772.61  48.24
882.8  381348.00  183951.95  48.24
884.0  381968.90  184228.30  48.23
885.2  382459.70  184440.62  48.22
886.5  383032.35  184682.76  48.22
887.7  383416.48  184882.20  48.22
888.8  384085.20  185157.86  48.21
890.0  384684.45  185384.26  48.19
891.2  385294.40  185620.59  48.18
892.4  385896.53  185881.57  48.17
893.6  386459.85  186129.85  48.16
894.8  387285.50  186514.45  48.16
896.0  388166.75  186890.59  48.15
897.2  388895.00  187245.31  48.15
898.4  389660.70  187553.90  48.13
899.6  390258.38  187786.21  48.12
900.8  390705.05  187923.58  48.10
902.0  390902.25  187981.43  48.09
903.2  391232.63  188099.66  48.08
904.3  391515.60  188172.43  48.06
905.5  391994.93  188412.20  48.06
906.7  392596.50  188656.46  48.05
907.9  393122.10  188854.77  48.04
909.1  393531.75  188981.99  48.02
910.2  393644.70  189008.56  48.02
911.4  393833.70  189095.46  48.01
912.6  394065.10  189115.59  47.99
913.8  394196.78  189132.77  47.98
915.0  394592.10  189264.74  47.96
916.2  394699.50  189311.39  47.96
917.3  394803.68  189247.35  47.93
918.5  394983.60  189291.78  47.92
919.7  395176.20  189331.77  47.91
920.8  395217.28  189283.17  47.89
922.0  395356.50  189268.57  47.87
923.2  395577.00  189269.60  47.85
924.4  395752.50  189315.45  47.84
925.5  395926.60  189378.28  47.83
926.7  396656.75  189524.18  47.78
927.9  397360.80  189836.39  47.77
929.0  398776.50  190426.11  47.75
930.2  400917.10  191344.62  47.73
931.4  403441.43  192395.15  47.69
932.5  406090.70  193558.42  47.66
933.7  407553.35  194079.09  47.62
934.9  408086.88  194277.75  47.61
936.0  407522.38  193895.71  47.58
937.2  405517.95  192788.64  47.54
938.3  403834.40  191821.34  47.50
939.5  402188.40  190918.83  47.47
940.7  402417.90  190848.29  47.43
941.8  404003.78  191380.32  47.37
943.0  405284.25  191893.10  47.35
944.2  406213.60  192113.01  47.29
945.3  405697.50  191679.06  47.25
946.5  404948.70  191142.08  47.20
947.6  405046.80  190936.10  47.14
948.8  404930.18  190639.73  47.08
949.9  404867.40  190410.16  47.03
951.1  404659.45  189960.20  46.94
952.2  404532.00  189533.49  46.85
953.4  404137.50  189027.79  46.77
954.5  404141.40  188645.45  46.68
955.7  403981.20  188247.12  46.60
956.8  403550.80  187863.00  46.55
958.0  403130.00  187380.56  46.48
959.1  403144.85  187024.99  46.39
960.3  402686.23  186590.76  46.34
961.4  402487.80  186281.84  46.28
962.6  402540.25  186096.23  46.23
963.7  402333.00  185839.53  46.19
964.9  402142.05  185624.62  46.16
966.0  401964.53  185376.64  46.12
967.2  402036.30  185337.70  46.10
968.3  401869.35  185169.24  46.08
969.5  401749.28  184924.22  46.03
970.6  401616.48  184899.49  46.04
971.8  401828.35  184902.07  46.02
972.9  401833.58  184855.04  46.00
974.0  402160.60  184875.31  45.97
975.2  402186.38  184668.83  45.92
976.3  401906.53  184520.87  45.91
977.5  401621.85  184607.03  45.97
978.6  402100.50  184594.71  45.91
979.7  401789.85  184638.07  45.95
980.9  401323.25  184484.15  45.97
982.0  401238.20  184337.37  45.94
983.2  401587.05  184127.64  45.85
984.3  401324.40  183939.06  45.83
985.4  400952.48  183887.67  45.86
986.6  400409.50  184038.64  45.96
987.7  401118.38  184337.42  45.96
988.9  400541.40  183971.31  45.93
990.0  401690.40  184267.50  45.87
993.1  375201.87  170648.50  45.48
996.9  374701.63  170955.45  45.62
1000.7  375260.14  171644.78  45.74
1004.5  375500.92  172215.30  45.86
1008.4  375139.17  172509.09  45.99
1012.2  375110.67  172877.15  46.09
1016.0  374884.20  173160.17  46.19
1019.8  374658.90  173377.05  46.28
1023.7  374104.83  173404.26  46.35
1027.5  373114.90  173229.36  46.43
1031.3  372735.18  173267.70  46.49
1035.1  372160.19  173200.98  46.54
1038.9  371911.28  173262.62  46.59
1042.7  371689.50  173318.02  46.63
1046.5  371557.17  173369.14  46.66
1050.3  371577.78  173453.37  46.68
1054.2  371247.33  173393.92  46.71
1058.0  370808.73  173206.45  46.71
1061.8  370726.99  173227.58  46.73
1065.6  370311.00  173009.16  46.72
1069.4  369934.53  172820.63  46.72
1073.2  369097.96  172365.76  46.70
1077.0  368436.78  171983.20  46.68
1080.8  368239.58  171743.00  46.64
1084.6  367706.62  171367.35  46.60
1088.4  367518.04  171172.49  46.58
1092.2  366912.00  170715.54  46.53
1096.0  366288.55  170250.34  46.48
1099.8  365719.25  169768.83  46.42
1103.6  364945.10  169176.64  46.36
1107.4  363967.27  168437.57  46.28
1111.2  363673.30  168036.11  46.21
1114.9  363051.50  167402.25  46.11
1118.7  362609.78  166753.12  45.99
1122.5  362082.07  165974.59  45.84
1126.3  361087.13  164870.37  45.66
1130.1  360668.52  163801.77  45.42
1133.9  359051.70  161893.50  45.09
1137.7  357589.80  159784.24  44.68
1141.4  355680.33  157215.92  44.20
1145.2  354876.12  154932.10  43.66
1149.0  353653.13  152564.38  43.14
1152.8  351973.35  150203.92  42.67
1156.6  350242.20  148219.32  42.32
1160.3  348526.33  146632.67  42.07
1164.1  346148.93  145119.59  41.92
1167.9  344448.96  144109.38  41.84
1171.7  343176.75  143400.38  41.79
1175.4  341892.33  142722.39  41.74
1179.2  340646.35  142059.24  41.70
1183.0  340279.33  141719.38  41.65
1186.7  339972.73  141410.10  41.59
1190.5  339274.53  140949.47  41.54
1194.3  338290.57  140384.88  41.50
1198.0  336988.30  139760.74  41.47
1201.8  335352.20  139098.31  41.48
1205.6  334173.67  138728.29  41.51
1209.3  333398.38  138638.95  41.58
1213.1  332711.25  138611.63  41.66
1216.8  331983.21  138643.96  41.76
1220.6  330915.20  138538.40  41.87
1224.3  329708.08  138359.82  41.96
1228.1  328364.40  138125.23  42.06
1231.9  326982.68  137806.23  42.14
1235.6  325371.30  137349.89  42.21
1239.4  323907.38  136976.23  42.29
1243.1  322608.23  136592.28  42.34
1246.9  321355.79  136190.61  42.38
1250.6  320343.13  135850.12  42.41
1254.3  319210.74  135432.24  42.43
1258.1  318121.77  134976.38  42.43
1261.8  316758.00  134396.02  42.43
1265.6  315434.45  133789.43  42.41
1269.3  314297.25  133219.09  42.39
1273.1  314478.79  133156.12  42.34
1276.8  314568.40  133011.03  42.28
1280.6  313929.03  132516.22  42.21
1284.3  312223.20  131523.32  42.12
1288.0  310816.78  130608.52  42.02
1291.8  309939.73  129824.28  41.89
1295.5  308904.93  128926.08  41.74
1299.2  307746.71  127898.45  41.56
1302.9  306219.89  126621.49  41.35
1306.7  304592.17  125199.55  41.10
1310.4  302989.47  123643.07  40.81
1314.1  301548.68  122048.54  40.47
1317.9  300258.13  120367.44  40.09
1321.6  298789.70  118484.15  39.65
1325.3  297131.10  116388.60  39.17
1329.0  295839.48  114345.53  38.65
1332.8  293847.40  111914.00  38.09
1336.5  292127.67  109564.50  37.51
1340.2  291867.33  107774.33  36.93
1343.9  291650.21  105995.57  36.34
1347.6  291433.35  104238.95  35.77
1351.4  292330.00  102944.36  35.22
1355.1  293543.80  101778.34  34.67
1358.8  294496.00  100466.29  34.11
1362.5  294385.00  98653.64  33.51
1366.2  292589.55  96027.90  32.82
1369.9  290115.63  92850.61  32.00
1373.6  287695.86  89206.43  31.01
1377.3  285993.30  85128.60  29.77
1381.0  285147.67  80475.36  28.22
1384.8  283237.50  74650.18  26.36
1388.4  280443.57  68139.23  24.30
1392.2  278402.50  61527.94  22.10
1395.9  276863.93  55073.35  19.89
1399.6  275153.17  49041.12  17.82
1403.3  273864.08  43787.91  15.99
1407.0  272489.20  39348.69  14.44
1410.7  271005.08  35768.11  13.20
1414.3  269476.38  32991.16  12.24
1418.1  268078.21  30945.96  11.54
1421.7  266929.66  29456.00  11.04
1425.4  265769.73  28398.41  10.69
1429.1  264696.00  27685.98  10.46
1432.8  263128.11  27178.10  10.33
1436.5  262329.26  26928.84  10.27
1440.2  261613.40  26828.04  10.25
1443.9  260430.41  26776.24  10.28
1447.6  258904.80  26763.00  10.34
1451.2  257770.33  26822.63  10.41
1454.9  256413.75  26902.07  10.49
1458.6  255245.36  27089.54  10.61
1462.3  254078.37  27375.70  10.77
1466.0  252740.98  27776.35  10.99
1469.7  251046.79  28290.34  11.27
1473.3  250015.83  29009.76  11.60
1477.0  248080.00  29731.63  11.98
1480.7  246480.67  30555.26  12.40
1484.4  244534.77  31353.42  12.82
1488.0  242997.33  32243.62  13.27
1491.7  241375.35  33118.91  13.72
1495.4  239688.40  33989.55  14.18
1499.0  238104.50  34851.79  14.64
1502.7  236837.00  35753.33  15.10
1506.4  235447.95  36603.50  15.55
1510.0  234047.37  37429.27  15.99
1513.7  232568.29  38209.80  16.43
1517.4  231225.33  38982.57  16.86
1521.0  229992.93  39746.94  17.28
1524.7  228755.58  40449.35  17.68
1528.3  227469.00  41113.84  18.07
1532.0  226261.93  41747.02  18.45
1535.7  224886.83  42302.83  18.81
1539.3  223645.03  42857.27  19.16
1543.0  222690.48  43429.83  19.50
1546.6  221995.58  44026.51  19.83
1550.3  220992.45  44522.44  20.15
1553.9  219916.37  44976.83  20.45
1557.6  218669.73  45360.96  20.74
1561.2  217410.75  45704.19  21.02
1564.9  216120.71  46019.56  21.29
1568.5  214816.82  46296.95  21.55
1572.2  213672.40  46587.79  21.80
1575.8  212590.00  46886.00  22.05
1579.5  211614.15  47173.10  22.29
1583.1  210586.08  47447.29  22.53
1586.8  209328.00  47640.00  22.76
1590.4  208198.53  47857.67  22.99
1594.0  206886.12  48016.49  23.21
1597.7  205884.14  48239.90  23.43
1601.3  204786.23  48429.90  23.65
1604.9  203666.86  48588.06  23.86
1608.6  202380.78  48673.99  24.05
1612.2  201230.70  48760.92  24.23
1615.8  199954.30  48806.69  24.41
1619.5  198813.50  48851.48  24.57
1623.1  197502.63  48831.46  24.72
1626.7  196278.88  48796.71  24.86
1630.3  195083.83  48740.14  24.98
1634.0  193984.00  48666.00  25.09
1637.6  193008.73  48574.21  25.17
1641.2  191993.25  48394.22  25.21
1644.8  190786.99  48093.29  25.21
1648.5  189702.02  47770.75  25.18
1652.1  188728.50  47438.44  25.14
1655.7  187809.20  47105.46  25.08
1659.3  186974.95  46847.90  25.06
1662.9  185569.17  46507.14  25.06
1666.6  184132.67  46219.05  25.10
1670.2  182716.16  45940.63  25.14
1673.8  181262.04  45628.82  25.17
1677.4  180106.95  45357.41  25.18
1681.0  179301.43  45096.30  25.15
1684.6  178886.50  44859.44  25.08
1688.2  178219.25  44457.28  24.95
1691.8  177562.77  44039.17  24.80
1695.4  177116.60  43640.66  24.64
1699.0  176749.53  43246.97  24.47
1702.6  176414.67  42832.09  24.28
1706.2  175781.67  42327.57  24.08
1709.8  174874.14  41761.17  23.88
1713.4  174131.33  41266.46  23.70
1717.0  173268.25  40783.75  23.54
1720.6  172468.58  40331.53  23.38
1724.2  171771.83  39905.19  23.23
1727.8  171058.30  39489.05  23.09
1731.4  170610.00  39126.22  22.93
1735.0  170426.67  38822.06  22.78
1738.6  170181.75  38468.29  22.60
1742.2  169614.64  37988.77  22.40
1745.8  168966.89  37471.23  22.18
1749.4  168004.65  36872.08  21.95
1753.0  166517.33  36163.82  21.72
1756.6  164863.13  35457.00  21.51
1760.1  163535.38  34851.66  21.31
1763.7  161828.00  34175.81  21.12
1767.3  160414.93  33590.95  20.94
1770.9  159181.40  33052.72  20.76
1774.5  157737.62  32505.96  20.61
1778.0  156610.89  32060.93  20.47
1781.6  155529.90  31678.65  20.37
1785.2  154396.90  31333.57  20.29
1788.8  153234.80  31034.81  20.25
1792.3  152013.43  30749.57  20.23
1795.9  151523.99  30629.24  20.21
1799.5  151120.67  30543.29  20.21
1803.1  151256.47  30585.57  20.22
1806.6  152630.16  30865.70  20.22
1810.2  154175.47  31171.00  20.22
1813.8  155120.40  31346.96  20.21
1817.3  154904.00  31281.34  20.19
1820.9  153858.50  31043.40  20.18
1824.5  152559.10  30733.72  20.15
1828.0  151538.29  30451.21  20.09
1831.6  150889.95  30217.84  20.03
1835.2  150393.33  29962.50  19.92
1838.7  150085.73  29672.91  19.77
1842.3  149805.00  29307.86  19.56
1845.8  148818.50  28702.46  19.29
1849.4  148250.50  28038.49  18.91
1852.9  147507.56  27185.82  18.43
1856.5  146548.85  26099.79  17.81
1860.0  145651.55  24813.74  17.04
1863.6  145481.45  23443.35  16.11
1867.1  145689.25  21893.20  15.03
1870.7  146100.80  20065.24  13.73
1874.2  145293.75  17817.43  12.26
1877.8  143412.13  15424.94  10.76
1881.3  141214.75  13061.44  9.25
1884.9  139762.88  10975.01  7.85
1888.4  138491.86  9130.23  6.59
1891.9  137155.33  7626.11  5.56
1895.5  135895.85  6493.92  4.78
1899.0  135195.63  5728.36  4.24
1901.3  172899.33  4435.22  2.57
1904.1  172795.50  3945.25  2.28
1906.8  171822.60  3572.00  2.08
1909.6  169824.90  3288.48  1.94
1912.4  167927.20  3097.38  1.84
1915.1  166585.10  2950.75  1.77
1917.9  165074.17  2856.39  1.73
1920.6  163813.67  2768.43  1.69
1923.3  162535.57  2733.50  1.68
1926.1  160943.77  2708.60  1.68
1928.8  159441.33  2684.00  1.68
1931.6  158242.28  2685.04  1.70
1934.3  157137.28  2700.53  1.72
1937.0  156072.87  2728.03  1.75
1939.8  154915.50  2760.70  1.78
1942.5  153439.00  2794.00  1.82
1945.2  151587.70  2824.98  1.86
1947.9  150058.53  2866.19  1.91
1950.7  148873.30  2923.49  1.96
1953.4  147079.55  2979.60  2.03
1956.1  145666.42  3044.72  2.09
1958.8  144436.28  3117.98  2.16
1961.5  142949.60  3198.53  2.24
1964.2  141432.20  3279.03  2.32
1966.9  139831.55  3354.53  2.40
1969.6  138582.00  3456.00  2.49
1972.3  137184.60  3562.97  2.60
1975.0  136130.70  3669.80  2.70
1977.7  135009.62  3785.29  2.80
1980.4  133858.23  3904.09  2.92
1983.1  132754.83  4030.01  3.04
1985.8  131822.40  4164.40  3.16
1988.4  130788.67  4295.78  3.28
1991.1  129862.60  4434.65  3.41
1993.8  128982.88  4584.07  3.55
1996.5  128336.63  4733.42  3.69
1999.1  127655.92  4885.65  3.83
2001.8  126961.80  5038.99  3.97
2004.5  126281.35  5190.00  4.11
2007.1  125554.75  5337.05  4.25
2009.8  124812.10  5473.53  4.39
2012.4  124226.48  5618.07  4.52
2015.1  123655.23  5764.19  4.66
2017.8  122852.33  5896.57  4.80
2020.4  122348.05  6034.54  4.93
2023.1  121980.37  6175.71  5.06
2025.7  121723.33  6303.56  5.18
2028.3  121402.67  6424.89  5.29
2031.0  120993.57  6541.44  5.41
2033.6  120721.20  6652.60  5.51
2036.2  120468.90  6748.30  5.60
2038.9  119868.60  6826.60  5.70
2041.5  119505.50  6915.22  5.79
2044.1  118946.40  6986.10  5.87
2046.8  118563.60  7055.70  5.95
2049.4  117919.80  7105.00  6.03
2052.0  117629.27  7178.80  6.10
2054.6  117232.50  7227.50  6.17
2057.2  116651.13  7274.87  6.24
2059.8  116301.80  7330.18  6.30
2062.4  115434.82  7351.06  6.37
2065.0  114921.93  7394.22  6.43
2067.6  114022.72  7406.26  6.50
2070.2  113412.55  7444.03  6.56
2072.8  112758.80  7464.37  6.62
2075.4  112323.75  7504.58  6.68
2078.0  111697.65  7524.39  6.74
2080.6  111126.40  7544.53  6.79
2083.2  110424.93  7559.79  6.85
2085.8  109932.20  7582.95  6.90
2088.4  109259.50  7593.72  6.95
2090.9  108462.63  7594.09  7.00
2093.5  107567.00  7594.85  7.06
2096.1  106787.77  7594.66  7.11
2098.7  106014.83  7591.73  7.16
2101.2  105053.27  7577.62  7.21
2103.8  104389.53  7586.36  7.27
2106.4  103717.07  7577.62  7.31
2108.9  103062.07  7574.71  7.35
2111.5  102206.20  7568.89  7.41
2114.0  101559.93  7568.89  7.45
2116.6  101045.00  7574.58  7.50
2119.1  100492.30  7580.24  7.54
2121.7  100012.50  7580.42  7.58
2124.2  99606.87  7591.93  7.62
2126.8  98803.72  7571.23  7.66
2129.3  98392.80  7585.60  7.71
2131.9  97820.80  7585.60  7.75
2134.4  97385.40  7602.15  7.81
2136.9  96979.35  7627.82  7.87
2139.4  96451.60  7637.15  7.92
2142.0  96017.13  7660.80  7.98
2144.5  95737.30  7701.47  8.04
2147.0  95470.53  7751.15  8.12
2149.5  94970.27  7780.94  8.19
2152.1  94801.12  7836.46  8.27
2154.6  94737.60  7903.11  8.34
2157.1  94194.17  7923.69  8.41
2159.6  93776.33  7960.03  8.49
2162.1  93602.60  8001.93  8.55
2164.6  93360.93  8052.56  8.63
2167.1  93027.17  8084.39  8.69
2169.6  92692.02  8113.74  8.75
2172.1  92231.77  8131.49  8.82
2174.6  91916.07  8160.84  8.88
2177.1  91468.68  8178.62  8.94
2179.5  91042.47  8198.67  9.01
2182.0  90554.75  8215.53  9.07
2184.5  90014.32  8222.93  9.14
2187.0  89380.83  8225.87  9.20
2189.5  88716.58  8212.57  9.26
2191.9  87951.00  8201.67  9.33
2194.4  87325.20  8197.08  9.39
2196.9  86572.80  8188.80  9.46
2199.3  85907.67  8178.00  9.52
2201.8  85030.40  8143.55  9.58
2204.3  84560.77  8144.56  9.63
2206.7  83922.00  8126.25  9.68
2209.2  83435.10  8124.10  9.74
2211.6  82803.60  8101.50  9.78
2214.1  82515.35  8095.98  9.81
2216.5  81930.13  8072.49  9.85
2219.0  81592.40  8065.87  9.89
2221.4  81217.50  8045.72  9.91
2223.9  80731.58  8002.75  9.91
2226.3  80235.75  7953.16  9.91
2228.7  79679.43  7883.61  9.89
2231.1  79081.20  7804.50  9.87
2233.6  78473.33  7714.89  9.83
2236.0  77925.17  7616.00  9.77
2238.4  77439.25  7503.61  9.69
2240.9  76983.33  7397.02  9.61
2243.3  76437.00  7277.82  9.52
2245.7  75858.80  7147.42  9.42
2248.1  75357.97  7016.53  9.31
2250.5  74845.05  6871.86  9.18
2252.9  74221.77  6720.86  9.06
2255.3  73659.85  6573.63  8.92
2257.7  73190.00  6433.33  8.79
2260.1  72701.53  6287.56  8.65
2262.5  72080.00  6140.00  8.52
2264.9  71540.57  6019.95  8.41
2267.3  70920.00  5880.00  8.29
2269.7  70423.97  5762.48  8.18
2272.1  69876.27  5639.38  8.07
2274.5  69304.30  5527.44  7.98
2276.8  68824.52  5425.69  7.88
2279.2  68239.50  5313.10  7.79
2281.6  67809.07  5238.02  7.72
2284.0  67336.70  5137.53  7.63
2286.3  66869.87  5039.64  7.54
2288.7  66446.25  4952.49  7.45
2291.1  65882.20  4854.01  7.37
2293.4  65439.73  4760.31  7.27
2295.8  64828.20  4665.90  7.20
2298.2  64232.10  4564.35  7.11
2300.5  63569.70  4453.95  7.01
2302.9  62826.67  4343.44  6.91
2305.2  62098.70  4236.73  6.82
2307.6  61425.43  4136.98  6.73
2309.9  60646.33  4047.22  6.67
2312.2  60047.00  3968.00  6.61
2314.6  59440.05  3898.50  6.56
2316.9  58746.60  3826.05  6.51
2319.2  58167.37  3749.28  6.45
2321.6  57544.43  3668.78  6.38
2323.9  56989.58  3593.75  6.31
2326.2  56444.33  3522.99  6.24
2328.6  55917.95  3462.43  6.19
2330.9  55408.50  3398.50  6.13
2333.2  54948.67  3333.75  6.07
2335.5  54495.10  3281.33  6.02
2337.8  54024.50  3220.62  5.96
2340.1  53442.20  3148.73  5.89
2342.4  52996.67  3091.11  5.83
2344.8  52574.67  3042.11  5.79
2347.1  52025.87  2975.62  5.72
2349.4  51491.90  2923.09  5.68
2351.6  50908.02  2856.99  5.61
2353.9  50400.27  2806.14  5.57
2356.2  49891.60  2753.23  5.52
2358.5  49302.40  2691.73  5.46
2360.8  48708.80  2632.00  5.40
2363.1  48265.32  2583.57  5.35
2365.4  47799.00  2538.73  5.31
2367.7  47344.20  2477.60  5.23
2369.9  46796.15  2427.40  5.19
2372.2  46164.80  2362.13  5.12
2374.5  45587.85  2306.15  5.06
2376.7  44968.12  2253.63  5.01
2379.0  44346.27  2194.82  4.95
2381.3  43738.33  2138.89  4.89
2383.5  43225.60  2080.71  4.81
2385.8  42595.33  2019.95  4.74
2388.0  42055.20  1962.73  4.67
2390.3  41545.20  1914.49  4.61
2392.5  41064.00  1856.00  4.52
2394.8  40595.50  1810.97  4.46
2397.0  40137.07  1767.42  4.40
2399.3  39668.93  1713.79  4.32
2401.5  39200.00  1661.92  4.24
2403.8  38662.02  1617.59  4.18
2406.0  38168.83  1568.64  4.11
2408.2  37749.07  1520.93  4.03
2410.4  37325.17  1477.19  3.96
2412.7  36908.30  1440.98  3.90
2414.9  36545.85  1395.72  3.82
2417.1  36144.20  1363.13  3.77
2419.3  35724.80  1322.67  3.70
2421.6  35352.92  1274.44  3.60
2423.8  34958.13  1240.48  3.55
2426.0  34574.62  1203.12  3.48
2428.2  34208.53  1171.64  3.43
2430.4  33890.57  1138.07  3.36
2432.6  33626.67  1111.11  3.30
2434.8  33336.47  1069.33  3.21
2437.0  32965.40  1029.89  3.12
2439.2  32629.23  1009.24  3.09
2441.4  32283.73  977.06  3.03
2443.6  32040.85  948.75  2.96
2445.7  31778.95  925.56  2.91
2447.9  31507.33  899.94  2.86
2450.1  31191.00  871.10  2.79
2452.3  30816.68  847.00  2.75
2454.5  30465.80  832.09  2.73
2456.6  30088.40  794.18  2.64
2458.8  29701.10  767.43  2.58
2461.0  29410.00  749.67  2.55
2463.1  29129.10  727.50  2.50
2465.3  28842.30  707.28  2.45
2467.5  28585.50  703.08  2.46
2469.6  28341.67  691.14  2.44
2471.8  28051.13  660.73  2.36
2473.9  27738.25  643.56  2.32
2476.1  27375.83  626.89  2.29
2478.2  27023.93  604.26  2.24
2480.4  26693.65  603.77  2.26
2482.5  26368.12  598.69  2.27
2484.6  26039.75  576.58  2.21
2486.8  25763.70  565.20  2.19
2488.9  25442.73  557.68  2.19
2491.1  25085.20  550.04  2.19
2493.2  24700.43  537.55  2.18
2495.3  24306.53  518.41  2.13
2497.4  23972.90  504.47  2.10
2499.5  23660.03  501.68  2.12
2501.7  23516.10  493.00  2.10
2503.8  23436.77  479.21  2.04
2505.9  23352.92  472.64  2.02
2508.0  23349.72  472.95  2.03
2510.1  23355.63  476.89  2.04
2512.2  23469.65  483.22  2.06
2514.3  23615.27  474.58  2.01
2516.4  23856.70  505.63  2.12
