/*** Spectra Vista SIG Data ***/
name= 21_20220720_QUPA_36_avg.sig
comm= Averaged Ref/Tar of files: 20_20220720_QUPA_36_1_avg.sig,21_20220720_QUPA_36_2_avg.sig
data=
337.3  3225.63  285.94  8.86
338.8  3391.05  272.57  8.04
340.3  3537.18  258.79  7.32
341.8  3749.46  259.11  6.91
343.2  3951.60  262.17  6.63
344.7  4094.40  251.84  6.15
346.2  4268.83  245.10  5.74
347.7  4424.07  245.31  5.54
349.2  4649.40  237.60  5.11
350.6  4902.79  243.09  4.96
352.1  5180.13  246.68  4.76
353.6  5430.55  244.55  4.50
355.1  5707.92  245.35  4.30
356.6  5981.44  248.15  4.15
358.0  6252.40  249.13  3.98
359.5  6535.35  253.09  3.87
361.0  6837.87  260.78  3.81
362.5  7187.02  262.08  3.65
364.0  7512.85  269.00  3.58
365.4  7853.95  278.33  3.54
366.9  8190.82  281.51  3.44
368.4  8509.81  285.74  3.36
369.9  8850.69  301.14  3.40
371.3  9251.55  316.59  3.42
372.8  9637.65  328.72  3.41
374.3  10051.25  332.74  3.31
375.8  10429.65  334.95  3.21
377.2  10800.35  336.89  3.12
378.7  11176.95  343.30  3.07
380.2  11526.65  348.42  3.02
381.7  11999.10  353.90  2.95
383.1  12450.90  364.47  2.93
384.6  12907.54  377.65  2.93
386.1  13336.84  384.79  2.89
387.6  13757.98  391.42  2.85
389.0  14190.60  396.90  2.80
390.5  14629.05  410.89  2.81
392.0  15155.85  424.46  2.80
393.4  15659.90  432.91  2.76
394.9  16116.75  446.19  2.77
396.4  16637.63  455.90  2.74
397.9  17143.13  471.02  2.75
399.3  17676.86  483.59  2.74
400.8  18182.79  498.50  2.74
402.2  18793.03  516.73  2.75
403.7  19332.23  531.95  2.75
405.2  19898.84  551.29  2.77
406.6  20416.00  567.85  2.78
408.1  20972.80  581.15  2.77
409.6  21554.90  597.88  2.77
411.0  22171.98  619.15  2.79
412.5  22782.56  633.68  2.78
414.0  23390.51  655.88  2.80
415.4  24048.75  681.43  2.83
416.9  24662.37  701.25  2.84
418.4  25313.97  721.22  2.85
419.8  25962.30  744.47  2.87
421.3  26648.38  766.47  2.88
422.7  27387.60  790.46  2.89
424.2  28113.76  815.63  2.90
425.7  28826.55  839.07  2.91
427.1  29521.54  862.09  2.92
428.6  30256.00  884.24  2.92
430.0  30941.83  905.45  2.93
431.5  31752.94  933.88  2.94
432.9  32574.28  957.83  2.94
434.4  33413.07  985.02  2.95
435.9  34167.00  1009.33  2.95
437.3  34945.63  1033.87  2.96
438.8  35715.83  1060.79  2.97
440.2  36517.26  1090.84  2.99
441.7  37419.50  1124.96  3.01
443.1  38266.00  1155.28  3.02
444.6  39162.45  1188.36  3.03
446.0  40034.37  1221.50  3.05
447.5  40901.17  1258.65  3.08
448.9  41763.75  1292.46  3.09
450.4  42689.68  1333.23  3.12
451.8  43491.50  1368.72  3.15
453.3  44350.40  1407.12  3.17
454.7  45289.07  1444.86  3.19
456.2  46108.97  1477.42  3.20
457.6  47000.14  1512.09  3.22
459.1  47896.72  1545.07  3.23
460.5  48758.57  1575.71  3.23
462.0  49724.67  1612.06  3.24
463.4  50676.30  1645.96  3.25
464.8  51594.19  1679.54  3.26
466.3  52516.62  1712.39  3.26
467.7  53449.82  1745.98  3.27
469.2  54435.07  1779.49  3.27
470.6  55328.90  1810.45  3.27
472.0  56278.89  1848.52  3.28
473.5  57199.19  1883.34  3.29
474.9  58140.00  1919.00  3.30
476.4  59212.80  1959.09  3.31
477.8  60218.50  1999.62  3.32
479.2  61168.25  2038.29  3.33
480.7  62191.84  2081.65  3.35
482.1  63240.43  2126.90  3.36
483.6  64338.63  2170.94  3.37
485.0  65332.92  2217.43  3.39
486.4  66435.30  2267.72  3.41
487.9  67450.51  2320.50  3.44
489.3  68544.88  2381.25  3.47
490.7  69538.82  2442.95  3.51
492.2  70677.60  2510.90  3.55
493.6  71704.43  2580.49  3.60
495.0  72737.44  2654.09  3.65
496.5  73829.93  2739.34  3.71
497.9  74842.50  2826.69  3.78
499.3  75921.12  2927.32  3.86
500.7  77080.98  3043.02  3.95
502.2  78131.90  3164.73  4.05
503.6  79278.00  3301.69  4.16
505.0  80245.38  3448.34  4.30
506.5  81454.58  3624.80  4.45
507.9  82582.67  3821.32  4.63
509.3  83879.00  4047.45  4.83
510.7  85059.01  4296.97  5.05
512.2  86350.62  4578.93  5.30
513.6  87700.03  4898.14  5.59
515.0  88998.72  5246.32  5.89
516.4  90266.40  5628.83  6.24
517.8  91756.00  6060.30  6.60
519.3  92951.31  6504.66  7.00
520.7  94380.88  6988.20  7.40
522.1  95575.03  7469.98  7.82
523.5  96848.25  7964.70  8.22
524.9  98124.30  8453.70  8.62
526.3  99373.75  8929.12  8.99
527.8  100846.35  9406.42  9.33
529.2  101990.50  9842.51  9.65
530.6  103274.15  10269.13  9.94
532.0  104860.00  10690.67  10.20
533.4  106136.14  11044.23  10.41
534.8  106963.81  11318.71  10.58
536.3  108501.90  11639.48  10.73
537.7  110338.20  11965.80  10.84
539.1  111689.15  12228.16  10.95
540.5  112830.18  12457.40  11.04
541.9  114505.99  12744.48  11.13
543.3  115709.49  12968.41  11.21
544.7  117015.30  13209.89  11.29
546.1  118652.47  13490.27  11.37
547.5  119739.20  13694.94  11.44
549.0  121313.50  13941.72  11.49
550.4  122649.69  14150.98  11.54
551.8  124037.13  14334.55  11.56
553.2  125474.79  14489.42  11.55
554.6  126724.00  14584.27  11.51
556.0  128122.65  14649.20  11.43
557.4  129583.92  14678.22  11.33
558.8  131072.40  14674.83  11.20
560.2  132400.57  14615.91  11.04
561.6  133914.34  14546.35  10.86
563.0  135368.43  14435.05  10.66
564.4  136817.68  14290.73  10.45
565.8  138210.01  14110.51  10.21
567.2  139819.88  13922.28  9.96
568.6  141201.00  13688.00  9.69
570.0  142499.40  13427.66  9.42
571.4  144075.43  13187.39  9.15
572.8  145676.32  12954.80  8.89
574.2  147190.40  12728.54  8.65
575.6  148618.13  12516.97  8.42
577.0  149990.55  12325.61  8.22
578.4  151577.57  12175.59  8.03
579.8  152961.75  12030.18  7.86
581.2  154549.41  11925.01  7.72
582.5  155832.30  11809.76  7.58
583.9  157223.20  11722.46  7.46
585.3  158870.82  11667.76  7.34
586.7  160215.09  11604.70  7.24
588.1  161589.88  11559.75  7.15
589.5  163090.38  11541.25  7.08
590.9  164579.00  11539.68  7.01
592.3  166243.58  11562.73  6.96
593.7  167550.83  11575.89  6.91
595.0  169052.74  11610.90  6.87
596.4  170376.68  11635.27  6.83
597.8  171720.52  11658.54  6.79
599.2  173137.80  11676.98  6.74
600.6  174737.39  11694.91  6.69
602.0  175921.21  11668.25  6.63
603.3  177572.75  11651.06  6.56
604.7  179087.81  11604.22  6.48
606.1  180462.60  11529.57  6.39
607.5  181951.02  11447.68  6.29
608.9  183500.03  11355.08  6.19
610.2  184756.96  11236.05  6.08
611.6  186210.68  11129.16  5.98
613.0  187611.58  11021.22  5.87
614.4  188888.10  10909.73  5.78
615.8  190212.76  10813.45  5.68
617.1  191621.85  10734.50  5.60
618.5  193110.40  10680.67  5.53
619.9  194487.68  10636.55  5.47
621.3  195959.93  10617.11  5.42
622.6  197418.88  10615.46  5.38
624.0  198756.53  10621.51  5.34
625.4  200075.70  10646.32  5.32
626.8  201514.95  10688.71  5.30
628.1  202739.49  10730.13  5.29
629.5  204472.09  10804.20  5.28
630.9  205971.84  10866.21  5.28
632.2  207273.24  10910.08  5.26
633.6  208796.57  10951.03  5.24
635.0  210218.40  10965.41  5.22
636.3  211622.25  10948.43  5.17
637.7  212861.13  10890.82  5.12
639.1  214357.50  10812.50  5.04
640.4  215714.54  10702.64  4.96
641.8  216805.48  10563.44  4.87
643.2  218255.72  10432.19  4.78
644.5  219483.63  10290.40  4.69
645.9  221114.03  10171.23  4.60
647.2  222796.00  10069.79  4.52
648.6  224653.50  9992.90  4.45
650.0  226087.20  9919.55  4.39
651.3  226355.53  9806.06  4.33
652.7  227123.18  9726.01  4.28
654.0  228851.15  9686.70  4.23
655.4  230403.29  9630.57  4.18
656.8  230722.80  9514.55  4.12
658.1  231676.20  9411.86  4.06
659.5  233741.56  9341.75  4.00
660.8  235395.00  9246.43  3.93
662.2  236163.20  9132.80  3.87
663.5  237802.40  9061.46  3.81
664.9  239177.25  8991.55  3.76
666.2  239959.80  8921.23  3.72
667.6  241735.10  8918.31  3.69
668.9  242785.72  8915.61  3.67
670.3  243641.38  8930.83  3.67
671.6  245178.19  8993.29  3.67
673.0  246251.25  9070.20  3.68
674.3  247354.25  9166.24  3.71
675.7  248575.54  9288.32  3.74
677.0  249620.34  9432.99  3.78
678.4  250930.83  9610.25  3.83
679.7  251966.00  9813.71  3.89
681.1  253167.14  10050.43  3.97
682.4  254227.35  10325.96  4.06
683.8  255420.75  10651.15  4.17
685.1  256340.26  11024.57  4.30
686.4  257508.90  11492.20  4.46
687.8  258734.13  12062.68  4.66
689.1  259713.13  12763.03  4.91
690.5  260936.25  13669.69  5.24
691.8  261777.57  14807.81  5.66
693.1  262977.83  16284.28  6.19
694.5  264036.50  18096.00  6.85
695.8  265151.25  20288.67  7.65
697.1  266254.63  22873.50  8.59
698.5  267224.40  25850.98  9.67
699.8  268267.93  29204.32  10.89
701.1  269310.98  32902.51  12.22
702.5  270058.80  36816.64  13.63
703.8  270978.75  40945.72  15.11
705.1  272026.47  45222.69  16.62
706.5  273008.57  49556.37  18.15
707.8  273921.60  53924.16  19.69
709.1  274720.29  58262.94  21.21
710.5  275814.22  62620.56  22.70
711.8  276631.50  66876.64  24.18
713.1  277579.25  71108.33  25.62
714.4  278448.95  75234.89  27.02
715.8  279207.15  79255.26  28.39
717.1  280436.63  83311.22  29.71
718.4  281332.80  87158.40  30.98
719.7  282364.67  90940.28  32.21
721.0  282870.00  94427.15  33.38
722.4  283588.80  97849.82  34.50
723.7  284506.65  101192.65  35.57
725.0  285505.54  104427.87  36.58
726.3  286430.93  107468.80  37.52
727.6  286933.08  110224.10  38.41
729.0  287777.53  112944.93  39.25
730.3  288549.31  115493.40  40.03
731.6  289409.73  117937.13  40.75
732.9  290181.07  120197.64  41.42
734.2  290948.63  122333.62  42.05
735.5  291921.73  124425.97  42.62
736.8  292671.30  126308.59  43.16
738.1  293456.15  128073.28  43.64
739.5  294354.81  129781.76  44.09
740.8  295021.66  131287.40  44.50
742.1  295751.57  132737.38  44.88
743.4  296487.50  134105.96  45.23
744.7  297467.80  135485.86  45.55
746.0  298306.13  136706.52  45.83
747.3  298821.18  137703.73  46.08
748.6  299536.88  138720.16  46.31
749.9  300313.00  139685.62  46.51
751.2  301051.88  140591.12  46.70
752.5  301967.13  141512.60  46.86
753.8  302600.38  142258.99  47.01
755.1  303277.00  142957.91  47.14
756.4  303842.57  143558.88  47.25
757.7  304777.64  144295.33  47.34
759.0  306478.47  145350.19  47.43
760.3  307612.80  146118.98  47.50
761.6  309105.30  147032.13  47.57
762.9  309644.63  147462.56  47.62
764.2  310035.95  147793.73  47.67
765.5  310355.11  148064.83  47.71
766.8  310800.80  148387.66  47.74
768.1  311346.20  148728.51  47.77
769.3  311947.30  149096.70  47.80
770.6  312606.78  149479.26  47.82
771.9  313320.09  149895.03  47.84
773.2  313734.80  150146.74  47.86
774.5  314385.50  150494.56  47.87
775.8  315056.43  150844.29  47.88
777.1  315665.35  151169.12  47.89
778.4  316039.22  151377.62  47.90
779.6  316794.19  151780.10  47.91
780.9  317295.00  152045.72  47.92
782.2  317761.13  152302.99  47.93
783.5  318130.25  152497.10  47.94
784.8  318699.68  152784.85  47.94
786.0  319131.75  153008.80  47.95
787.3  319565.68  153226.30  47.95
788.6  320016.29  153458.64  47.95
789.9  320502.70  153716.67  47.96
791.2  321173.22  154048.73  47.96
792.4  321852.49  154388.95  47.97
793.7  322376.80  154640.41  47.97
795.0  323011.84  154957.16  47.97
796.2  323700.05  155282.08  47.97
797.5  324435.68  155647.38  47.97
798.8  325126.75  155998.11  47.98
800.0  325801.94  156326.15  47.98
801.3  326325.95  156576.02  47.98
802.6  326920.96  156876.44  47.99
803.8  327604.69  157186.53  47.98
805.1  328127.63  157430.17  47.98
806.4  328612.50  157690.46  47.99
807.7  329134.39  157956.37  47.99
808.9  329692.28  158233.45  47.99
810.2  330262.28  158501.34  47.99
811.4  330804.95  158752.08  47.99
812.7  331439.07  159075.90  48.00
814.0  332265.68  159469.97  47.99
815.2  332872.75  159781.23  48.00
816.5  333317.24  159986.72  48.00
817.7  333758.65  160222.27  48.01
819.0  334304.30  160481.54  48.00
820.2  334488.00  160576.95  48.01
821.5  335187.55  160927.11  48.01
822.7  335510.39  161114.32  48.02
824.0  335850.30  161288.23  48.02
825.2  336341.37  161530.97  48.03
826.5  336668.92  161689.50  48.03
827.7  337207.54  161951.74  48.03
829.0  337591.17  162154.49  48.03
830.2  337916.58  162318.45  48.04
831.5  338362.05  162538.54  48.04
832.7  338625.79  162700.53  48.05
834.0  338953.93  162864.79  48.05
835.2  339285.24  163040.10  48.05
836.4  339572.75  163197.65  48.06
837.7  339969.50  163402.68  48.06
838.9  340391.04  163619.96  48.07
840.1  340744.05  163814.44  48.08
841.4  341172.40  164045.41  48.08
842.6  341511.30  164242.83  48.09
843.8  341755.20  164417.65  48.11
845.1  342271.45  164653.86  48.11
846.3  342660.15  164857.16  48.11
847.5  343019.25  165062.20  48.12
848.8  343391.70  165273.80  48.13
850.0  343697.90  165437.77  48.13
851.2  344184.53  165695.15  48.14
852.5  344551.55  165875.63  48.14
853.7  344976.75  166117.18  48.15
854.9  345438.60  166329.64  48.15
856.1  345863.70  166546.10  48.15
857.4  346043.16  166665.41  48.16
858.6  346476.55  166888.15  48.17
859.8  346770.94  167074.83  48.18
861.0  347209.20  167289.94  48.18
862.2  347698.90  167506.86  48.18
863.5  348028.04  167670.33  48.18
864.7  348480.00  167906.52  48.18
865.9  348870.20  168089.50  48.18
867.1  349172.35  168235.76  48.18
868.3  349549.50  168430.33  48.18
869.5  349994.73  168649.07  48.19
870.8  350523.00  168897.43  48.18
872.0  351055.50  169135.55  48.18
873.2  351401.48  169321.28  48.18
874.4  351833.63  169540.52  48.19
875.6  352166.74  169708.02  48.19
876.8  352601.80  169918.03  48.19
878.0  353054.60  170127.50  48.19
879.2  353535.38  170353.46  48.19
880.4  354026.44  170583.06  48.18
881.6  354538.40  170805.26  48.18
882.8  355026.00  171004.35  48.17
884.0  355563.53  171253.60  48.16
885.2  356062.00  171495.26  48.16
886.5  356599.48  171763.98  48.17
887.7  357039.16  171990.62  48.17
888.8  357706.73  172283.74  48.16
890.0  358289.98  172529.31  48.15
891.2  358917.85  172796.19  48.14
892.4  359479.58  173067.68  48.14
893.6  360011.78  173329.07  48.15
894.8  360844.13  173743.65  48.15
896.0  361716.63  174103.41  48.13
897.2  362448.13  174484.61  48.14
898.4  363267.30  174806.34  48.12
899.6  363874.13  175064.00  48.11
900.8  364243.38  175266.56  48.12
902.0  364592.55  175382.72  48.10
903.2  364861.06  175546.94  48.11
904.3  365256.75  175714.36  48.11
905.5  365895.47  175992.40  48.10
906.7  366491.50  176270.91  48.10
907.9  367040.63  176513.99  48.09
909.1  367432.54  176652.77  48.08
910.2  367768.84  176757.77  48.06
911.4  368049.83  176895.09  48.06
912.6  368235.73  176988.38  48.06
913.8  368565.98  177127.14  48.06
915.0  369039.83  177327.85  48.05
916.2  369222.75  177425.86  48.05
917.3  369301.39  177436.22  48.05
918.5  369679.15  177549.33  48.03
919.7  370050.15  177698.99  48.02
920.8  370075.55  177734.07  48.03
922.0  370360.38  177780.17  48.00
923.2  370665.75  177885.50  47.99
924.4  370914.19  177976.61  47.98
925.5  371163.65  178087.47  47.98
926.7  371883.50  178348.42  47.96
927.9  372778.80  178718.72  47.94
929.0  374128.88  179319.79  47.93
930.2  376300.70  180262.95  47.90
931.4  378618.98  181316.26  47.89
932.5  381120.98  182507.48  47.89
933.7  382618.99  183102.36  47.86
934.9  383239.07  183373.54  47.85
936.0  383149.82  183171.32  47.81
937.2  381362.25  182247.12  47.79
938.3  379931.95  181477.15  47.77
939.5  378500.40  180802.29  47.77
940.7  378781.65  180822.43  47.74
941.8  380321.41  181481.34  47.72
943.0  381802.50  182032.64  47.68
944.2  382651.75  182362.98  47.66
945.3  382448.63  182127.22  47.62
946.5  381867.75  181770.30  47.60
947.6  382162.80  181755.27  47.56
948.8  382132.24  181625.88  47.53
949.9  382265.10  181579.80  47.50
951.1  382200.66  181312.80  47.44
952.2  382092.00  181113.14  47.40
953.4  381858.13  180840.43  47.36
954.5  382028.40  180704.83  47.30
955.7  382132.80  180540.00  47.25
956.8  381978.70  180327.82  47.21
958.0  381866.00  180058.41  47.15
959.1  381926.70  179913.58  47.11
960.3  381643.52  179654.28  47.07
961.4  381612.85  179531.28  47.05
962.6  381921.75  179549.92  47.01
963.7  381725.70  179402.67  47.00
964.9  381683.52  179351.39  46.99
966.0  381647.71  179287.72  46.98
967.2  381960.90  179282.38  46.94
968.3  381925.13  179207.30  46.92
969.5  381759.67  179127.70  46.92
970.6  381838.82  179174.49  46.92
971.8  381916.59  179270.03  46.94
972.9  382163.41  179246.89  46.90
974.0  382443.65  179369.16  46.90
975.2  382230.57  179318.05  46.91
976.3  382366.92  179279.58  46.89
977.5  382334.93  179290.97  46.89
978.6  382495.60  179359.12  46.89
979.7  382677.23  179496.88  46.91
980.9  382835.33  179532.57  46.90
982.0  382760.13  179524.16  46.90
983.2  383193.76  179553.65  46.86
984.3  382835.20  179557.58  46.90
985.4  382727.37  179688.87  46.95
986.6  382906.94  179675.43  46.92
987.7  384160.53  180200.45  46.91
988.9  384340.50  180228.86  46.89
990.0  385317.15  180850.78  46.94
993.1  315947.04  147271.46  46.61
996.9  316572.62  147909.84  46.72
1000.7  317561.77  148687.05  46.82
1004.5  318147.92  149223.10  46.90
1008.4  318036.96  149465.57  47.00
1012.2  318160.67  149788.67  47.08
1016.0  318360.30  150155.79  47.17
1019.8  318710.71  150562.92  47.24
1023.7  318861.77  150820.84  47.30
1027.5  318715.77  150922.74  47.35
1031.3  318982.23  151174.66  47.39
1035.1  318879.05  151238.92  47.43
1038.9  318879.55  151322.34  47.45
1042.7  318720.67  151332.58  47.48
1046.5  318594.75  151334.98  47.50
1050.3  318628.02  151397.54  47.52
1054.2  318364.38  151323.83  47.53
1058.0  317896.84  151116.05  47.54
1061.8  317776.71  151100.16  47.55
1065.6  317587.48  151003.31  47.55
1069.4  317631.00  151010.27  47.54
1073.2  317373.83  150867.70  47.54
1077.0  316973.93  150646.15  47.53
1080.8  316538.02  150374.93  47.51
1084.6  315673.52  149883.30  47.48
1088.4  315088.06  149573.63  47.47
1092.2  314393.63  149145.75  47.44
1096.0  313936.86  148823.04  47.41
1099.8  313536.49  148503.63  47.36
1103.6  312932.16  148086.10  47.32
1107.4  312128.58  147569.25  47.28
1111.2  311888.15  147306.62  47.23
1114.9  311261.42  146843.67  47.18
1118.7  310664.48  146332.43  47.10
1122.5  309974.17  145740.16  47.02
1126.3  308956.76  144933.74  46.91
1130.1  308531.78  144253.08  46.75
1133.9  307238.75  142973.55  46.53
1137.7  306074.15  141603.33  46.26
1141.4  304603.82  139952.42  45.95
1145.2  304020.23  138583.33  45.58
1149.0  303102.92  137129.80  45.24
1152.8  301780.88  135617.71  44.94
1156.6  300414.86  134319.08  44.71
1160.3  298947.17  133195.46  44.55
1164.1  296894.68  131988.58  44.46
1167.9  295406.25  131153.05  44.40
1171.7  294332.07  130572.01  44.36
1175.4  293338.47  130073.41  44.34
1179.2  292472.84  129588.78  44.31
1183.0  292165.00  129331.57  44.27
1186.7  291637.50  128990.47  44.23
1190.5  290693.73  128486.84  44.20
1194.3  289690.23  127984.72  44.18
1198.0  288724.84  127549.37  44.18
1201.8  287486.58  127010.44  44.18
1205.6  286402.67  126586.93  44.20
1209.3  285556.17  126325.34  44.24
1213.1  284722.81  126077.28  44.28
1216.8  283891.30  125893.02  44.35
1220.6  282969.87  125664.00  44.41
1224.3  281939.88  125377.39  44.47
1228.1  280892.60  125117.53  44.54
1231.9  279791.17  124797.21  44.60
1235.6  278506.47  124368.71  44.66
1239.4  277307.63  123990.62  44.71
1243.1  276261.23  123615.65  44.75
1246.9  275249.01  123236.85  44.77
1250.6  274451.74  122927.88  44.79
1254.3  273575.09  122569.14  44.80
1258.1  272802.90  122239.54  44.81
1261.8  271755.13  121776.35  44.81
1265.6  270525.81  121207.55  44.80
1269.3  269276.76  120597.88  44.79
1273.1  269204.48  120487.53  44.76
1276.8  269501.20  120511.89  44.72
1280.6  269452.62  120370.99  44.67
1284.3  268271.20  119708.29  44.62
1288.0  266996.76  118963.25  44.56
1291.8  265794.88  118195.25  44.47
1295.5  264578.60  117390.75  44.37
1299.2  263481.78  116591.04  44.25
1302.9  262212.20  115661.10  44.11
1306.7  260866.20  114640.46  43.95
1310.4  259599.60  113558.32  43.74
1314.1  258417.04  112466.39  43.52
1317.9  257378.23  111334.78  43.26
1321.6  256215.06  110075.56  42.96
1325.3  254820.83  108627.12  42.63
1329.0  253642.20  107221.32  42.27
1332.8  251836.20  105454.80  41.87
1336.5  250251.20  103771.90  41.47
1340.2  249855.67  102572.17  41.05
1343.9  249295.00  101291.85  40.63
1347.6  248358.75  99863.29  40.21
1351.4  248046.50  98727.25  39.80
1355.1  247741.64  97632.83  39.41
1358.8  247432.00  96485.72  38.99
1362.5  246862.85  95152.91  38.54
1366.2  245520.38  93353.92  38.02
1369.9  244300.38  91383.30  37.41
1373.6  242784.39  88976.08  36.65
1377.3  241044.00  86045.13  35.70
1381.0  239832.50  82671.72  34.47
1384.8  238119.38  78432.95  32.94
1388.4  236377.52  73751.67  31.20
1392.2  234913.17  68798.76  29.29
1395.9  233532.33  63723.41  27.29
1399.6  232206.32  58848.67  25.34
1403.3  231285.06  54490.07  23.56
1407.0  230460.30  50713.25  22.01
1410.7  229591.73  47582.59  20.72
1414.3  228751.92  45111.08  19.72
1418.1  227899.36  43239.38  18.97
1421.7  227225.43  41875.08  18.43
1425.4  226512.98  40909.73  18.06
1429.1  225812.63  40269.32  17.83
1432.8  224584.17  39795.33  17.72
1436.5  223932.76  39589.43  17.68
1440.2  223194.87  39523.77  17.71
1443.9  222088.54  39481.62  17.78
1447.6  220751.30  39465.80  17.88
1451.2  219903.66  39563.34  17.99
1454.9  218864.48  39654.05  18.12
1458.6  217931.22  39852.78  18.29
1462.3  216938.52  40133.63  18.50
1466.0  215745.95  40505.95  18.77
1469.7  214306.25  40979.96  19.12
1473.3  213392.33  41664.72  19.52
1477.0  211761.39  42304.39  19.98
1480.7  210393.07  43034.09  20.45
1484.4  208793.60  43716.42  20.94
1488.0  207482.00  44479.81  21.44
1491.7  206092.70  45204.98  21.93
1495.4  204624.66  45907.63  22.44
1499.0  203246.50  46586.43  22.92
1502.7  202143.29  47318.59  23.41
1506.4  200923.34  47983.50  23.88
1510.0  199689.49  48615.78  24.35
1513.7  198425.50  49193.96  24.79
1517.4  197276.84  49767.38  25.23
1521.0  196245.14  50333.82  25.65
1524.7  195223.17  50846.87  26.05
1528.3  194148.13  51314.11  26.43
1532.0  193137.18  51753.72  26.80
1535.7  191929.77  52096.03  27.14
1539.3  190847.26  52442.47  27.48
1543.0  190009.04  52835.43  27.81
1546.6  189406.75  53256.13  28.12
1550.3  188579.10  53580.68  28.41
1553.9  187667.77  53853.92  28.70
1557.6  186595.20  54057.36  28.97
1561.2  185507.10  54215.68  29.23
1564.9  184392.06  54351.40  29.48
1568.5  183246.12  54450.44  29.71
1572.2  182256.60  54577.23  29.95
1575.8  181363.00  54729.00  30.18
1579.5  180520.90  54867.77  30.39
1583.1  179674.81  55004.48  30.61
1586.8  178619.00  55057.00  30.82
1590.4  177732.17  55146.99  31.03
1594.0  176629.49  55162.00  31.23
1597.7  175652.68  55209.84  31.43
1601.3  174515.52  55200.49  31.63
1604.9  173383.87  55166.87  31.82
1608.6  172218.74  55097.33  31.99
1612.2  171329.41  55088.20  32.15
1615.8  170376.22  55042.54  32.31
1619.5  169400.63  54969.85  32.45
1623.1  168298.34  54836.13  32.58
1626.7  167245.82  54701.15  32.71
1630.3  166227.63  54555.32  32.82
1634.0  165277.00  54419.00  32.93
1637.6  164418.24  54283.27  33.02
1641.2  163570.10  54116.59  33.08
1644.8  162549.17  53842.44  33.12
1648.5  161624.37  53580.55  33.15
1652.1  160796.40  53301.03  33.15
1655.7  160012.70  52998.46  33.12
1659.3  159281.25  52702.38  33.09
1662.9  158071.67  52237.56  33.05
1666.6  156836.30  51779.40  33.01
1670.2  155625.75  51315.93  32.97
1673.8  154391.05  50835.73  32.93
1677.4  153404.93  50424.45  32.87
1681.0  152720.79  50071.82  32.79
1684.6  152388.71  49794.65  32.68
1688.2  151836.58  49394.62  32.53
1691.8  151273.41  48998.86  32.39
1695.4  150910.50  48660.36  32.24
1699.0  150617.14  48330.30  32.09
1702.6  150342.34  47998.24  31.93
1706.2  149832.26  47578.38  31.75
1709.8  149059.67  47078.81  31.58
1713.4  148442.58  46625.63  31.41
1717.0  147699.13  46140.11  31.24
1720.6  147026.03  45671.64  31.06
1724.2  146414.26  45223.82  30.89
1727.8  145811.93  44795.25  30.72
1731.4  145396.63  44443.74  30.57
1735.0  145205.04  44190.29  30.43
1738.6  144951.90  43901.18  30.29
1742.2  144421.36  43504.20  30.12
1745.8  143825.33  43068.64  29.95
1749.4  142971.68  42536.36  29.75
1753.0  141671.77  41865.66  29.55
1756.6  140253.46  41163.34  29.35
1760.1  139125.26  40558.73  29.15
1763.7  137647.33  39879.81  28.97
1767.3  136423.26  39304.34  28.81
1770.9  135370.67  38801.44  28.66
1774.5  134151.26  38267.22  28.53
1778.0  133154.96  37818.57  28.40
1781.6  132198.90  37411.85  28.30
1785.2  131213.33  37015.16  28.21
1788.8  130214.85  36654.17  28.15
1792.3  129148.20  36290.16  28.10
1795.9  128681.53  36116.61  28.07
1799.5  128176.84  35952.77  28.05
1803.1  127430.63  35731.56  28.04
1806.6  127661.54  35778.69  28.03
1810.2  128505.65  36002.20  28.02
1813.8  129206.03  36179.47  28.00
1817.3  129149.20  36145.55  27.99
1820.9  128412.17  35911.56  27.97
1824.5  127285.13  35558.40  27.94
1828.0  126463.57  35268.49  27.89
1831.6  125598.04  34946.46  27.82
1835.2  124857.92  34617.27  27.73
1838.7  124499.80  34320.47  27.57
1842.3  124215.00  33995.36  27.37
1845.8  123694.29  33512.78  27.09
1849.4  123343.49  32963.96  26.73
1852.9  122862.37  32244.48  26.24
1856.5  122172.39  31293.97  25.61
1860.0  121593.76  30176.66  24.82
1863.6  121242.87  28926.79  23.86
1867.1  120856.05  27449.80  22.71
1870.7  120612.25  25676.00  21.29
1874.2  120137.18  23526.39  19.58
1877.8  119470.10  21208.97  17.75
1881.3  118557.44  18781.98  15.84
1884.9  117877.79  16465.28  13.97
1888.4  117074.15  14227.77  12.15
1891.9  116212.20  12263.37  10.55
1895.5  115185.97  10635.25  9.23
1899.0  114611.57  9420.52  8.22
1901.3  143235.69  8353.21  5.83
1904.1  143093.26  7590.85  5.30
1906.8  142476.98  6983.03  4.90
1909.6  141123.16  6501.39  4.61
1912.4  139808.42  6144.63  4.40
1915.1  138797.18  5891.33  4.24
1917.9  137676.38  5706.50  4.14
1920.6  136806.02  5596.38  4.09
1923.3  135985.42  5524.99  4.06
1926.1  134968.84  5479.47  4.06
1928.8  134046.00  5476.17  4.09
1931.6  133334.29  5516.31  4.14
1934.3  132649.10  5573.10  4.20
1937.0  131959.44  5653.33  4.28
1939.8  131189.94  5751.13  4.38
1942.5  130209.75  5838.25  4.48
1945.2  128899.45  5942.14  4.61
1947.9  127812.13  6062.65  4.74
1950.7  126942.26  6206.72  4.89
1953.4  125522.82  6330.46  5.04
1956.1  124402.41  6481.02  5.21
1958.8  123409.73  6645.12  5.38
1961.5  122216.25  6803.40  5.57
1964.2  120969.72  6962.64  5.76
1966.9  119653.45  7126.88  5.96
1969.6  118614.38  7317.00  6.17
1972.3  117436.62  7493.81  6.38
1975.0  116557.82  7698.39  6.60
1977.7  115629.48  7903.04  6.83
1980.4  114664.72  8115.75  7.08
1983.1  113736.16  8329.86  7.32
1985.8  112944.49  8546.67  7.57
1988.4  112079.50  8759.83  7.82
1991.1  111279.35  8979.75  8.07
1993.8  110524.91  9195.06  8.32
1996.5  109982.06  9426.64  8.57
1999.1  109400.44  9652.82  8.82
2001.8  108809.14  9866.83  9.07
2004.5  108221.24  10083.74  9.32
2007.1  107608.17  10291.34  9.56
2009.8  106979.96  10480.87  9.80
2012.4  106495.54  10671.75  10.02
2015.1  106024.89  10859.66  10.24
2017.8  105348.26  11012.90  10.45
2020.4  104909.00  11185.51  10.66
2023.1  104603.63  11350.68  10.85
2025.7  104390.00  11512.59  11.03
2028.3  104104.00  11662.09  11.20
2031.0  103776.69  11794.14  11.36
2033.6  103535.44  11915.74  11.51
2036.2  103300.54  12027.75  11.64
2038.9  102801.38  12106.06  11.78
2041.5  102524.35  12194.62  11.89
2044.1  102047.74  12252.87  12.01
2046.8  101731.28  12320.29  12.11
2049.4  101189.71  12351.83  12.21
2052.0  100938.78  12420.99  12.31
2054.6  100590.00  12481.88  12.41
2057.2  100120.03  12524.70  12.51
2059.8  99858.03  12593.47  12.61
2062.4  99111.77  12602.12  12.72
2065.0  98665.93  12652.42  12.82
2067.6  97918.68  12663.14  12.93
2070.2  97402.22  12695.83  13.03
2072.8  96856.34  12725.25  13.14
2075.4  96478.60  12776.10  13.24
2078.0  95930.47  12790.74  13.33
2080.6  95439.30  12827.10  13.44
2083.2  94857.53  12845.36  13.54
2085.8  94444.99  12880.76  13.64
2088.4  93879.57  12894.46  13.74
2090.9  93193.27  12888.87  13.83
2093.5  92447.79  12873.86  13.93
2096.1  91777.06  12868.68  14.02
2098.7  91105.13  12857.71  14.11
2101.2  90281.93  12831.45  14.21
2103.8  89705.53  12838.00  14.31
2106.4  89129.13  12842.37  14.41
2108.9  88572.38  12846.74  14.50
2111.5  87851.88  12823.81  14.60
2114.0  87314.78  12831.45  14.70
2116.6  86871.10  12847.19  14.79
2119.1  86405.37  12856.32  14.88
2121.7  85998.29  12872.35  14.97
2124.2  85655.82  12895.77  15.06
2126.8  84978.76  12862.10  15.14
2129.3  84635.10  12874.40  15.21
2131.9  84130.20  12859.00  15.28
2134.4  83771.89  12861.26  15.35
2136.9  83437.82  12867.51  15.42
2139.4  82998.65  12854.45  15.49
2142.0  82619.60  12856.67  15.56
2144.5  82389.53  12874.97  15.63
2147.0  82192.25  12898.62  15.69
2149.5  81773.50  12895.27  15.77
2152.1  81631.55  12923.65  15.83
2154.6  81552.40  12956.27  15.89
2157.1  81092.60  12930.13  15.94
2159.6  80745.16  12925.59  16.01
2162.1  80606.67  12940.20  16.05
2164.6  80395.03  12947.64  16.11
2167.1  80132.62  12941.61  16.15
2169.6  79842.83  12932.14  16.20
2172.1  79443.60  12911.67  16.25
2174.6  79170.93  12916.58  16.31
2177.1  78805.06  12901.52  16.37
2179.5  78445.17  12888.45  16.43
2182.0  78014.07  12863.27  16.49
2184.5  77563.81  12829.36  16.54
2187.0  77036.14  12789.25  16.60
2189.5  76445.15  12744.41  16.67
2191.9  75785.07  12686.07  16.74
2194.4  75263.55  12639.43  16.79
2196.9  74620.80  12577.20  16.85
2199.3  74066.00  12523.17  16.91
2201.8  73299.30  12430.69  16.96
2204.3  72903.48  12394.77  17.00
2206.7  72360.57  12335.90  17.05
2209.2  71964.26  12301.05  17.09
2211.6  71421.08  12233.93  17.13
2214.1  71173.60  12207.41  17.15
2216.5  70689.33  12131.08  17.16
2219.0  70395.05  12090.11  17.17
2221.4  70064.97  12028.92  17.17
2223.9  69655.91  11943.39  17.15
2226.3  69231.97  11849.18  17.12
2228.7  68750.94  11736.46  17.07
2231.1  68239.47  11601.57  17.00
2233.6  67742.85  11451.89  16.90
2236.0  67279.63  11308.72  16.81
2238.4  66855.69  11162.45  16.70
2240.9  66468.90  11006.13  16.56
2243.3  66018.18  10836.03  16.41
2245.7  65543.14  10651.48  16.25
2248.1  65125.94  10478.71  16.09
2250.5  64684.52  10296.56  15.92
2252.9  64150.46  10088.76  15.73
2255.3  63666.32  9899.01  15.55
2257.7  63281.25  9731.25  15.38
2260.1  62867.62  9559.26  15.21
2262.5  62351.25  9368.75  15.03
2264.9  61899.17  9197.15  14.86
2267.3  61380.00  9016.25  14.69
2269.7  60956.27  8859.44  14.53
2272.1  60490.65  8700.73  14.38
2274.5  60008.57  8549.48  14.25
2276.8  59596.67  8407.74  14.11
2279.2  59101.54  8267.38  13.99
2281.6  58742.78  8147.71  13.87
2284.0  58342.65  8026.98  13.76
2286.3  57950.00  7915.40  13.66
2288.7  57617.31  7809.35  13.55
2291.1  57151.89  7681.40  13.44
2293.4  56760.55  7570.38  13.34
2295.8  56234.14  7431.46  13.22
2298.2  55719.23  7295.46  13.09
2300.5  55164.21  7154.44  12.97
2302.9  54521.25  7008.58  12.85
2305.2  53916.64  6868.82  12.74
2307.6  53342.33  6731.63  12.62
2309.9  52657.38  6596.55  12.53
2312.2  52126.50  6491.92  12.45
2314.6  51616.75  6401.48  12.40
2316.9  51007.39  6300.57  12.35
2319.2  50486.97  6212.23  12.30
2321.6  49925.67  6109.30  12.24
2323.9  49433.60  6015.63  12.17
2326.2  48968.85  5920.92  12.09
2328.6  48537.64  5828.49  12.01
2330.9  48100.50  5738.26  11.93
2333.2  47680.57  5647.54  11.84
2335.5  47311.39  5558.65  11.75
2337.8  46919.64  5468.50  11.66
2340.1  46430.34  5364.71  11.55
2342.4  46048.44  5274.48  11.45
2344.8  45690.35  5189.52  11.36
2347.1  45196.38  5089.91  11.26
2349.4  44712.52  4994.68  11.17
2351.6  44220.90  4906.55  11.10
2353.9  43807.86  4832.61  11.03
2356.2  43342.50  4755.16  10.97
2358.5  42840.00  4674.60  10.91
2360.8  42331.80  4582.20  10.82
2363.1  41948.93  4502.09  10.73
2365.4  41540.22  4423.96  10.65
2367.7  41138.33  4346.25  10.56
2369.9  40670.41  4257.97  10.47
2372.2  40123.30  4166.70  10.38
2374.5  39613.62  4071.38  10.28
2376.7  39071.21  3974.36  10.17
2379.0  38547.05  3886.99  10.08
2381.3  38010.00  3796.04  9.99
2383.5  37558.40  3710.67  9.88
2385.8  37034.12  3619.73  9.77
2388.0  36572.63  3537.05  9.67
2390.3  36129.55  3456.17  9.57
2392.5  35712.00  3375.00  9.45
2394.8  35301.75  3294.23  9.33
2397.0  34884.85  3215.34  9.22
2399.3  34494.07  3138.74  9.10
2401.5  34099.41  3060.97  8.98
2403.8  33624.50  2977.56  8.86
2406.0  33189.75  2907.06  8.76
2408.2  32837.20  2833.05  8.63
2410.4  32464.47  2757.26  8.49
2412.7  32096.84  2687.70  8.37
2414.9  31768.90  2620.13  8.25
2417.1  31418.22  2557.47  8.14
2419.3  31075.20  2486.40  8.00
2421.6  30733.60  2425.11  7.89
2423.8  30395.49  2364.80  7.78
2426.0  30069.40  2301.30  7.65
2428.2  29752.80  2236.04  7.52
2430.4  29482.22  2175.23  7.38
2432.6  29250.00  2126.67  7.27
2434.8  28982.28  2075.18  7.16
2437.0  28663.38  2016.69  7.04
2439.2  28354.59  1964.99  6.93
2441.4  28077.85  1906.97  6.79
2443.6  27864.77  1860.07  6.68
2445.7  27619.16  1808.31  6.55
2447.9  27372.35  1767.42  6.46
2450.1  27112.99  1717.62  6.34
2452.3  26786.38  1667.53  6.23
2454.5  26482.06  1620.45  6.12
2456.6  26161.50  1572.90  6.01
2458.8  25841.89  1524.74  5.90
2461.0  25587.78  1488.53  5.82
2463.1  25317.01  1449.55  5.73
2465.3  25066.90  1412.12  5.63
2467.5  24846.38  1377.29  5.54
2469.6  24629.28  1349.96  5.48
2471.8  24343.90  1313.96  5.40
2473.9  24056.04  1280.20  5.32
2476.1  23762.38  1245.57  5.24
2478.2  23466.96  1209.15  5.15
2480.4  23186.18  1176.20  5.07
2482.5  22870.82  1149.64  5.03
2484.6  22580.26  1122.00  4.97
2486.8  22354.84  1100.97  4.92
2488.9  22065.10  1065.38  4.83
2491.1  21753.20  1049.19  4.82
2493.2  21411.31  1025.86  4.79
2495.3  21055.78  994.07  4.72
2497.4  20769.01  974.05  4.69
2499.5  20475.97  956.85  4.67
2501.7  20360.90  934.65  4.59
2503.8  20260.61  925.69  4.57
2505.9  20205.32  926.78  4.59
2508.0  20185.77  915.25  4.53
2510.1  20165.70  905.34  4.49
2512.2  20244.64  901.45  4.45
2514.3  20345.39  911.20  4.48
2516.4  20485.54  943.14  4.60
