/*** Spectra Vista SIG Data ***/
name= 38_20220926_BENI_58_avg.sig
comm= Averaged Ref/Tar of files: HR.092722.0030_moc.sig,HR.092722.0031_moc.sig,HR.092722.0032_moc.sig
data=
337.3  3076.75  191.88  6.24
338.8  3174.60  205.23  6.46
340.3  3373.20  206.14  6.11
341.8  3566.55  201.19  5.64
343.2  3729.60  195.36  5.24
344.7  3923.80  187.66  4.78
346.2  4125.85  174.29  4.22
347.7  4325.75  188.76  4.36
349.2  4498.20  181.44  4.03
350.6  4737.53  195.87  4.13
352.1  5037.23  195.30  3.88
353.6  5309.10  194.32  3.66
355.1  5623.73  197.56  3.51
356.6  5899.50  205.39  3.48
358.0  6188.60  212.67  3.44
359.5  6427.20  206.00  3.21
361.0  6792.98  219.45  3.23
362.5  7113.83  226.39  3.18
364.0  7484.18  240.87  3.22
365.4  7868.00  247.28  3.14
366.9  8259.88  250.47  3.03
368.4  8618.90  258.20  3.00
369.9  8945.28  273.85  3.06
371.3  9371.70  291.92  3.11
372.8  9796.95  318.60  3.25
374.3  10266.25  315.33  3.07
375.8  10699.15  316.21  2.96
377.2  11082.80  322.80  2.91
378.7  11513.20  326.39  2.83
380.2  11916.70  329.97  2.77
381.7  12431.50  338.71  2.72
383.1  12909.05  362.93  2.81
384.6  13433.55  366.86  2.73
386.1  13917.88  374.75  2.69
387.6  14337.40  380.89  2.66
389.0  14820.40  389.49  2.63
390.5  15292.80  400.02  2.62
392.0  15896.45  416.15  2.62
393.4  16474.43  423.90  2.57
394.9  17017.20  441.96  2.60
396.4  17543.25  451.95  2.58
397.9  18091.25  461.25  2.55
399.3  18639.20  482.86  2.59
400.8  19242.10  495.18  2.57
402.2  19885.50  513.91  2.58
403.7  20463.75  529.65  2.59
405.2  21070.75  546.10  2.59
406.6  21645.60  556.80  2.57
408.1  22215.80  572.53  2.58
409.6  22828.00  594.11  2.60
411.0  23527.70  609.19  2.59
412.5  24198.65  627.53  2.59
414.0  24857.50  646.57  2.60
415.4  25539.38  665.15  2.60
416.9  26214.00  688.76  2.63
418.4  26910.68  714.63  2.66
419.8  27645.80  737.71  2.67
421.3  28395.23  762.91  2.69
422.7  29162.40  788.80  2.70
424.2  29919.38  812.25  2.71
425.7  30692.90  832.39  2.71
427.1  31460.10  856.66  2.72
428.6  32271.00  878.33  2.72
430.0  33020.80  904.43  2.74
431.5  33894.68  937.29  2.77
432.9  34779.10  961.04  2.76
434.4  35669.25  991.29  2.78
435.9  36512.00  1017.33  2.79
437.3  37372.50  1037.67  2.78
438.8  38240.78  1064.28  2.78
440.2  39117.93  1094.17  2.80
441.7  40092.80  1127.39  2.81
443.1  41008.75  1160.70  2.83
444.6  41985.50  1191.23  2.84
446.0  42934.28  1219.65  2.84
447.5  43919.15  1251.14  2.85
448.9  44866.20  1286.56  2.87
450.4  45881.85  1322.63  2.88
451.8  46774.00  1357.20  2.90
453.3  47710.68  1389.44  2.91
454.7  48721.15  1422.90  2.92
456.2  49593.75  1451.22  2.93
457.6  50577.75  1485.03  2.94
459.1  51567.75  1517.27  2.94
460.5  52523.63  1551.50  2.95
462.0  53613.10  1581.52  2.95
463.4  54663.00  1612.95  2.95
464.8  55666.50  1650.20  2.96
466.3  56632.95  1681.13  2.97
467.7  57608.98  1715.27  2.98
469.2  58678.68  1749.05  2.98
470.6  59684.40  1781.54  2.98
472.0  60761.78  1816.61  2.99
473.5  61796.88  1853.20  3.00
474.9  62856.75  1888.60  3.00
476.4  64022.40  1931.52  3.02
477.8  65090.50  1968.13  3.02
479.2  66076.50  2004.87  3.03
480.7  67192.95  2038.08  3.03
482.1  68348.50  2076.95  3.04
483.6  69562.30  2121.26  3.05
485.0  70652.48  2165.46  3.06
486.4  71862.45  2211.60  3.08
487.9  72934.88  2262.00  3.10
489.3  74096.20  2312.81  3.12
490.7  75156.40  2361.89  3.14
492.2  76395.90  2422.56  3.17
493.6  77513.15  2486.59  3.21
495.0  78638.63  2554.50  3.25
496.5  79832.00  2633.67  3.30
497.9  80947.30  2717.81  3.36
499.3  82121.30  2811.73  3.42
500.7  83387.80  2924.14  3.51
502.2  84563.20  3048.48  3.60
503.6  85862.60  3196.43  3.72
505.0  86947.75  3357.78  3.86
506.5  88280.63  3553.88  4.03
507.9  89439.23  3773.46  4.22
509.3  90783.20  4027.57  4.44
510.7  92005.88  4311.45  4.69
512.2  93407.18  4643.58  4.97
513.6  94925.25  5022.50  5.29
515.0  96388.60  5447.23  5.65
516.4  97779.15  5913.81  6.05
517.8  99425.88  6433.47  6.47
519.3  100777.00  6973.69  6.92
520.7  102354.25  7573.89  7.40
522.1  103666.55  8181.90  7.89
523.5  105014.50  8810.75  8.39
524.9  106522.20  9456.24  8.88
526.3  107983.75  10090.92  9.34
527.8  109489.05  10729.62  9.80
529.2  110513.30  11320.03  10.24
530.6  112030.85  11954.97  10.67
532.0  113722.00  12577.60  11.06
533.4  115088.85  13133.36  11.41
534.8  115996.48  13609.41  11.73
536.3  117596.40  14133.24  12.02
537.7  119523.60  14676.48  12.28
539.1  120969.88  15144.96  12.52
540.5  122187.00  15573.42  12.75
541.9  123931.88  16061.10  12.96
543.3  125253.08  16490.52  13.17
544.7  126585.60  16916.08  13.36
546.1  128399.70  17405.59  13.56
547.5  129640.00  17810.99  13.74
549.0  131285.00  18255.60  13.91
550.4  132791.25  18667.42  14.06
551.8  134383.20  19046.04  14.17
553.2  135881.70  19373.16  14.26
554.6  137217.60  19622.72  14.30
556.0  138741.75  19836.12  14.30
557.4  140358.05  20009.85  14.26
558.8  142022.70  20143.86  14.18
560.2  143486.25  20210.50  14.09
561.6  145168.13  20263.42  13.96
563.0  146765.23  20265.63  13.81
564.4  148364.65  20236.31  13.64
565.8  149897.50  20156.33  13.45
567.2  151661.00  20062.37  13.23
568.6  153130.88  19885.30  12.99
570.0  154560.93  19646.71  12.71
571.4  156291.20  19399.38  12.41
572.8  158064.00  19140.93  12.11
574.2  159700.80  18868.27  11.81
575.6  161257.50  18603.00  11.54
577.0  162787.80  18360.24  11.28
578.4  164493.88  18166.63  11.04
579.8  166043.25  17974.44  10.83
581.2  167744.90  17823.96  10.63
582.5  169182.00  17667.00  10.44
583.9  170710.60  17534.80  10.27
585.3  172507.05  17455.02  10.12
586.7  174001.75  17370.51  9.98
588.1  175485.13  17306.42  9.86
589.5  177147.25  17279.03  9.75
590.9  178770.80  17272.37  9.66
592.3  180581.95  17308.96  9.59
593.7  182051.03  17336.02  9.52
595.0  183679.65  17394.12  9.47
596.4  185146.15  17447.97  9.42
597.8  186632.55  17506.55  9.38
599.2  188166.00  17554.24  9.33
600.6  189934.55  17601.44  9.27
602.0  191239.13  17577.80  9.19
603.3  193046.85  17557.19  9.09
604.7  194718.33  17478.47  8.98
606.1  196208.40  17338.32  8.84
607.5  197846.40  17166.74  8.68
608.9  199538.10  16968.65  8.50
610.2  200944.80  16720.83  8.32
611.6  202555.50  16471.84  8.13
613.0  204120.70  16218.68  7.95
614.4  205504.20  15954.56  7.76
615.8  206973.00  15709.20  7.59
617.1  208519.50  15489.88  7.43
618.5  210145.20  15317.01  7.29
619.9  211651.43  15173.75  7.17
621.3  213281.10  15075.00  7.07
622.6  214887.75  15010.07  6.99
624.0  216377.25  14976.20  6.92
625.4  217835.48  14966.49  6.87
626.8  219414.65  15005.60  6.84
628.1  220676.23  15045.98  6.82
629.5  222459.55  15136.90  6.80
630.9  223929.48  15216.04  6.80
632.2  225207.33  15259.39  6.78
633.6  226735.00  15289.20  6.74
635.0  228192.40  15257.55  6.69
636.3  229674.80  15166.33  6.60
637.7  231035.38  14993.47  6.49
639.1  232662.50  14781.67  6.35
640.4  234176.08  14512.35  6.20
641.8  235396.95  14186.32  6.03
643.2  236974.68  13850.41  5.84
644.5  238345.00  13487.97  5.66
645.9  239905.35  13126.56  5.47
647.2  240955.40  12772.62  5.30
648.6  242473.50  12484.80  5.15
650.0  243864.00  12228.48  5.01
651.3  244889.43  11993.78  4.90
652.7  247003.80  11816.97  4.78
654.0  249060.40  11636.25  4.67
655.4  250479.45  11423.94  4.56
656.8  250744.20  11144.19  4.44
658.1  252174.30  10880.87  4.31
659.5  254420.25  10613.26  4.17
660.8  255780.00  10293.00  4.02
662.2  256793.60  9966.51  3.88
663.5  258313.30  9675.12  3.75
664.9  259387.70  9399.87  3.62
666.2  260228.40  9170.08  3.52
667.6  261939.23  9031.21  3.45
668.9  262866.75  8916.90  3.39
670.3  264718.63  8866.47  3.35
671.6  265765.50  8841.15  3.33
673.0  266960.25  8861.80  3.32
674.3  268249.80  8916.61  3.32
675.7  269557.83  9000.71  3.34
677.0  270621.18  9106.60  3.37
678.4  271898.63  9262.25  3.41
679.7  272933.80  9453.13  3.46
681.1  274193.58  9686.51  3.53
682.4  275277.60  9989.20  3.63
683.8  276448.90  10384.05  3.76
685.1  277447.50  10906.15  3.93
686.4  278743.20  11638.72  4.18
687.8  279949.50  12638.00  4.51
689.1  280995.25  13993.77  4.98
690.5  282325.20  15823.80  5.60
691.8  283140.05  18186.77  6.42
693.1  284461.35  21218.52  7.46
694.5  285626.25  24864.23  8.71
695.8  286854.75  29062.37  10.13
697.1  288015.00  33718.53  11.71
698.5  289061.80  38753.44  13.41
699.8  290126.63  44071.13  15.19
701.1  291260.38  49585.69  17.02
702.5  291999.95  55106.19  18.87
703.8  292950.00  60612.00  20.69
705.1  294081.45  66067.04  22.47
706.5  295103.88  71355.37  24.18
707.8  296070.45  76475.74  25.83
709.1  296900.18  81388.02  27.41
710.5  298016.43  86216.17  28.93
711.8  298820.00  90799.65  30.39
713.1  299801.20  95271.55  31.78
714.4  300715.50  99562.07  33.11
715.8  301518.30  103674.19  34.38
717.1  302820.15  107789.58  35.60
718.4  303766.40  111626.67  36.75
719.7  304828.43  115353.69  37.84
721.0  305325.00  118692.00  38.87
722.4  306093.70  121962.43  39.84
723.7  307020.75  125133.70  40.76
725.0  308037.38  128165.97  41.61
726.3  309004.85  130997.24  42.39
727.6  309529.83  133495.82  43.13
729.0  310404.50  135984.99  43.81
730.3  311205.90  138266.66  44.43
731.6  312085.15  140446.42  45.00
732.9  312862.55  142427.48  45.52
734.2  313645.75  144286.08  46.00
735.5  314646.88  146112.21  46.44
736.8  315423.30  147714.20  46.83
738.1  316292.60  149237.97  47.18
739.5  317248.53  150703.73  47.50
740.8  317905.78  151944.06  47.80
742.1  318581.73  153089.68  48.05
743.4  319200.00  154156.67  48.29
744.7  320074.95  155265.97  48.51
746.0  320931.00  156308.10  48.70
747.3  321512.90  157142.11  48.88
748.6  322235.50  157977.97  49.03
749.9  322894.00  158714.40  49.15
751.2  323475.50  159382.51  49.27
752.5  324207.70  160090.30  49.38
753.8  324685.90  160646.34  49.48
755.1  325312.00  161238.13  49.56
756.4  325856.38  161751.52  49.64
757.7  326850.13  162443.77  49.70
759.0  328625.48  163511.13  49.76
760.3  329788.80  164239.68  49.80
761.6  331303.00  165146.99  49.85
762.9  331807.00  165507.60  49.88
764.2  332161.20  165779.32  49.91
765.5  332380.48  165969.53  49.93
766.8  332737.60  166239.15  49.96
768.1  333211.40  166548.16  49.98
769.3  333763.15  166891.71  50.00
770.6  334337.90  167256.53  50.03
771.9  335028.93  167629.98  50.03
773.2  335347.20  167825.07  50.05
774.5  335878.40  168137.49  50.06
775.8  336506.40  168476.31  50.07
777.1  337032.30  168782.39  50.08
778.4  337298.78  168942.66  50.09
779.6  338002.98  169329.45  50.10
780.9  338400.00  169560.00  50.11
782.2  338800.00  169795.27  50.12
783.5  339068.50  169950.07  50.12
784.8  339475.73  170203.32  50.14
786.0  339815.35  170390.50  50.14
787.3  340118.85  170586.11  50.15
788.6  340432.03  170777.19  50.16
789.9  340869.20  170994.88  50.16
791.2  341451.15  171309.75  50.17
792.4  342049.68  171637.07  50.18
793.7  342483.60  171867.49  50.18
795.0  343019.33  172178.27  50.19
796.2  343550.55  172480.31  50.21
797.5  344159.48  172805.49  50.21
798.8  344817.53  173114.44  50.20
800.0  345405.35  173432.82  50.21
801.3  345765.80  173645.81  50.22
802.6  346285.35  173932.41  50.23
803.8  346842.75  174246.66  50.24
805.1  347241.13  174464.62  50.24
806.4  347662.50  174665.64  50.24
807.7  348160.28  174927.87  50.24
808.9  348602.50  175181.52  50.25
810.2  349028.75  175417.43  50.26
811.4  349431.40  175659.39  50.27
812.7  350025.00  175965.83  50.27
814.0  350803.75  176363.41  50.27
815.2  351409.75  176669.30  50.27
816.5  351770.28  176884.24  50.28
817.7  352184.15  177101.91  50.29
819.0  352596.75  177345.52  50.30
820.2  352704.00  177419.73  50.30
821.5  353404.75  177760.58  50.30
822.7  353688.30  177924.71  50.31
824.0  353980.80  178092.00  50.31
825.2  354435.75  178326.36  50.31
826.5  354704.33  178472.58  50.32
827.7  355240.93  178749.05  50.32
829.0  355595.05  178950.68  50.32
830.2  355842.20  179114.49  50.34
831.5  356315.75  179349.77  50.33
832.7  356678.70  179514.02  50.33
834.0  357005.95  179678.86  50.33
835.2  357275.05  179866.61  50.34
836.4  357551.70  180038.47  50.35
837.7  357936.80  180254.75  50.36
838.9  358373.03  180484.45  50.36
840.1  358728.08  180661.95  50.36
841.4  359152.80  180888.89  50.37
842.6  359573.80  181075.84  50.36
843.8  359862.60  181253.71  50.37
845.1  360313.85  181531.87  50.38
846.3  360720.20  181734.39  50.38
847.5  361076.10  181977.32  50.40
848.8  361530.00  182169.92  50.39
850.0  361929.05  182353.27  50.38
851.2  362426.40  182609.10  50.39
852.5  362780.60  182826.33  50.40
853.7  363181.50  183091.50  50.41
854.9  363682.20  183334.96  50.41
856.1  364074.10  183541.19  50.41
857.4  364355.90  183642.97  50.40
858.6  364806.10  183890.47  50.41
859.8  365190.00  184093.50  50.41
861.0  365601.60  184307.76  50.41
862.2  365965.18  184539.13  50.43
863.5  366379.33  184714.75  50.42
864.7  366920.40  184946.08  50.40
865.9  367293.60  185153.95  50.41
867.1  367635.70  185305.79  50.40
868.3  368037.45  185508.24  50.40
869.5  368415.50  185766.14  50.42
870.8  368959.50  185997.00  50.41
872.0  369381.53  186239.84  50.42
873.2  369805.80  186445.06  50.42
874.4  370313.78  186644.25  50.40
875.6  370714.43  186822.41  50.40
876.8  371151.30  187086.49  50.41
878.0  371589.15  187283.33  50.40
879.2  372007.65  187483.26  50.40
880.4  372549.38  187687.95  50.38
881.6  373060.33  187925.65  50.37
882.8  373472.80  188125.97  50.37
884.0  374004.00  188398.74  50.37
885.2  374479.00  188636.85  50.37
886.5  375035.85  188895.10  50.37
887.7  375404.25  189040.50  50.36
888.8  376053.00  189316.52  50.34
890.0  376548.85  189584.13  50.35
891.2  377048.80  189823.71  50.34
892.4  377629.35  190075.34  50.33
893.6  378173.75  190310.52  50.32
894.8  378976.75  190703.73  50.32
896.0  379730.50  191089.33  50.32
897.2  380532.75  191478.73  50.32
898.4  381169.80  191778.40  50.31
899.6  381636.75  192016.40  50.31
900.8  381954.78  192126.52  50.30
902.0  382132.35  192167.76  50.29
903.2  382442.10  192233.95  50.26
904.3  382707.60  192381.40  50.27
905.5  383276.48  192625.58  50.26
906.7  383743.50  192904.60  50.27
907.9  384140.40  193083.52  50.26
909.1  384306.53  193161.42  50.26
910.2  384407.55  193190.65  50.26
911.4  384599.48  193207.17  50.24
912.6  384584.20  193215.88  50.24
913.8  384831.68  193298.95  50.23
915.0  385220.85  193405.94  50.21
916.2  385193.25  193386.70  50.21
917.3  385168.05  193363.44  50.20
918.5  385226.10  193363.29  50.19
919.7  385309.95  193396.04  50.19
920.8  385373.43  193329.67  50.17
922.0  385385.00  193357.27  50.17
923.2  385612.50  193356.80  50.14
924.4  385651.13  193392.90  50.15
925.5  385684.70  193426.93  50.15
926.7  386121.00  193592.03  50.14
927.9  386949.60  193956.80  50.12
929.0  388328.85  194571.54  50.10
930.2  390560.20  195550.28  50.07
931.4  392715.68  196720.47  50.09
932.5  395288.75  197879.20  50.06
933.7  396559.93  198455.22  50.04
934.9  397079.38  198631.42  50.02
936.0  396690.13  198263.00  49.98
937.2  394432.80  197106.10  49.97
938.3  392468.20  196167.24  49.98
939.5  390852.00  195234.24  49.95
940.7  390900.60  195186.72  49.93
941.8  392425.73  195750.91  49.88
943.0  393812.25  196362.40  49.86
944.2  394524.00  196628.81  49.84
945.3  393841.50  196216.80  49.82
946.5  392751.45  195656.40  49.82
947.6  392842.00  195556.49  49.78
948.8  392706.60  195240.89  49.72
949.9  392826.00  195136.48  49.68
951.1  392427.43  194803.35  49.64
952.2  392088.00  194561.60  49.62
953.4  391702.50  194207.07  49.58
954.5  391294.80  193948.56  49.57
955.7  391129.20  193636.80  49.51
956.8  390694.70  193291.83  49.47
958.0  390283.00  192941.27  49.44
959.1  390278.53  192648.76  49.36
960.3  389577.65  192289.76  49.36
961.4  389118.45  191986.99  49.34
962.6  389114.25  191895.90  49.32
963.7  388840.13  191680.60  49.30
964.9  388837.73  191481.87  49.24
966.0  388334.25  191338.20  49.27
967.2  388564.65  191244.60  49.22
968.3  388301.85  190994.22  49.19
969.5  387770.53  190781.98  49.20
970.6  387757.68  190673.99  49.17
971.8  387755.38  190793.61  49.20
972.9  387783.45  190623.77  49.16
974.0  387821.00  190760.13  49.19
975.2  387859.13  190575.17  49.14
976.3  387565.53  190448.48  49.14
977.5  387629.38  190549.78  49.16
978.6  387696.90  190447.60  49.12
979.7  387773.93  190503.32  49.13
980.9  387344.58  190290.35  49.13
982.0  387319.65  190188.19  49.10
983.2  386770.23  190064.10  49.14
984.3  386098.00  189749.95  49.15
985.4  385909.53  189618.31  49.14
986.6  385670.50  189314.27  49.09
987.7  386117.20  189667.03  49.12
988.9  386064.00  189447.12  49.07
990.0  385681.00  189590.11  49.16
993.1  390310.67  190210.25  48.73
996.9  389051.90  189954.90  48.83
1000.7  389006.86  190247.99  48.91
1004.5  389090.58  190562.45  48.98
1008.4  388700.29  190645.02  49.05
1012.2  388541.38  190795.31  49.11
1016.0  388199.40  190891.52  49.17
1019.8  387554.48  190809.85  49.23
1023.7  386359.99  190432.24  49.29
1027.5  384741.10  189797.20  49.33
1031.3  383753.50  189408.07  49.36
1035.1  382728.91  188971.24  49.37
1038.9  382182.90  188770.84  49.39
1042.7  381835.92  188659.86  49.41
1046.5  381689.67  188617.67  49.42
1050.3  381691.95  188629.39  49.42
1054.2  381295.25  188458.68  49.43
1058.0  380868.37  188252.74  49.43
1061.8  380804.19  188198.18  49.42
1065.6  380252.03  187884.24  49.41
1069.4  379444.27  187447.60  49.40
1073.2  378173.41  186756.17  49.38
1077.0  377414.25  186316.08  49.37
1080.8  377483.33  186260.27  49.34
1084.6  377496.82  186137.06  49.31
1088.4  377740.99  186141.10  49.28
1092.2  377237.25  185765.36  49.24
1096.0  376573.98  185278.59  49.20
1099.8  375880.48  184761.08  49.15
1103.6  374919.03  184131.76  49.11
1107.4  373765.96  183393.14  49.07
1111.2  373423.70  183054.35  49.02
1114.9  372839.25  182564.54  48.97
1118.7  372519.68  182165.07  48.90
1122.5  372103.33  181655.34  48.82
1126.3  371163.98  180808.66  48.71
1130.1  370776.53  180058.61  48.56
1133.9  369100.90  178511.02  48.36
1137.7  367510.00  176869.44  48.13
1141.4  365423.61  174853.43  47.85
1145.2  364473.46  173275.59  47.54
1149.0  363148.33  171605.95  47.26
1152.8  361302.35  169818.20  47.00
1156.6  359459.10  168206.68  46.79
1160.3  357602.67  166782.60  46.64
1164.1  355236.43  165242.10  46.52
1167.9  353553.13  164152.61  46.43
1171.7  352272.38  163297.13  46.36
1175.4  350820.43  162402.67  46.29
1179.2  349430.73  161533.96  46.23
1183.0  349059.67  161139.19  46.16
1186.7  348975.20  160912.08  46.11
1190.5  348581.20  160541.11  46.06
1194.3  347619.07  159971.25  46.02
1198.0  346141.13  159209.08  46.00
1201.8  344452.30  158392.58  45.98
1205.6  343330.33  157926.09  46.00
1209.3  342711.43  157752.91  46.03
1213.1  342183.23  157649.84  46.07
1216.8  341534.42  157538.13  46.13
1220.6  340401.60  157200.59  46.18
1224.3  339147.25  156796.96  46.23
1228.1  337618.20  156311.34  46.30
1231.9  336019.55  155728.38  46.35
1235.6  334275.53  155043.60  46.38
1239.4  332698.38  154448.85  46.42
1243.1  331270.70  153876.36  46.45
1246.9  329960.45  153328.32  46.47
1250.6  328879.40  152864.02  46.48
1254.3  327702.74  152329.46  46.48
1258.1  326472.07  151758.64  46.48
1261.8  325002.27  151078.90  46.49
1265.6  323785.55  150473.36  46.47
1269.3  322962.85  150014.87  46.45
1273.1  323314.43  150066.04  46.41
1276.8  323096.40  149831.96  46.37
1280.6  321965.07  149175.41  46.33
1284.3  319996.80  148088.10  46.28
1288.0  318677.74  147271.70  46.21
1291.8  318190.49  146760.73  46.12
1295.5  317439.47  146104.24  46.03
1299.2  316273.58  145217.07  45.92
1302.9  314617.18  144046.09  45.78
1306.7  312831.52  142758.50  45.63
1310.4  311109.66  141409.12  45.45
1314.1  309522.22  140057.83  45.25
1317.9  308090.42  138690.10  45.02
1321.6  306522.26  137194.01  44.76
1325.3  304819.73  135547.45  44.47
1329.0  303511.72  134027.56  44.16
1332.8  301562.80  132149.60  43.82
1336.5  299883.13  130370.79  43.47
1340.2  299723.67  129264.78  43.13
1343.9  299665.00  128193.94  42.78
1347.6  299838.15  127223.15  42.43
1351.4  301289.00  126833.79  42.10
1355.1  303319.13  126686.92  41.77
1358.8  304992.00  126324.82  41.42
1362.5  305238.43  125259.20  41.04
1366.2  303297.00  123072.49  40.58
1369.9  300101.00  120140.24  40.03
1373.6  297259.90  116932.74  39.34
1377.3  295692.30  113664.30  38.44
1381.0  295138.67  110049.33  37.29
1384.8  293182.50  105079.98  35.84
1388.4  289953.65  99078.40  34.17
1392.2  287682.58  92973.92  32.32
1395.9  286174.45  86946.56  30.38
1399.6  284335.57  81016.82  28.49
1403.3  282877.84  75661.26  26.75
1407.0  281187.00  70871.54  25.20
1410.7  279375.53  66786.45  23.91
1414.3  277469.38  63404.19  22.85
1418.1  275754.63  60746.51  22.03
1421.7  274385.71  58687.24  21.39
1425.4  273040.63  57083.16  20.91
1429.1  271783.88  55868.36  20.56
1432.8  270108.08  54868.83  20.31
1436.5  269274.97  54282.56  20.16
1440.2  268649.53  53914.78  20.07
1443.9  267556.58  53598.71  20.03
1447.6  266004.20  53305.51  20.04
1451.2  264754.78  53157.85  20.08
1454.9  263307.00  53051.69  20.15
1458.6  262051.70  53119.31  20.27
1462.3  260828.33  53348.77  20.45
1466.0  259464.63  53724.90  20.71
1469.7  257710.70  54202.71  21.03
1473.3  256646.33  54959.62  21.41
1477.0  254606.87  55616.19  21.84
1480.7  252952.26  56412.38  22.30
1484.4  250917.91  57147.36  22.78
1488.0  249318.67  58010.62  23.27
1491.7  247708.13  58861.16  23.76
1495.4  246006.72  59687.78  24.26
1499.0  244455.50  60519.55  24.76
1502.7  243180.33  61401.04  25.25
1506.4  241765.62  62219.45  25.74
1510.0  240311.23  62990.54  26.21
1513.7  238770.88  63694.10  26.68
1517.4  237374.33  64400.12  27.13
1521.0  236113.33  65101.97  27.57
1524.7  234853.67  65739.44  27.99
1528.3  233542.75  66325.62  28.40
1532.0  232303.87  66886.78  28.79
1535.7  230896.98  67342.88  29.17
1539.3  229634.01  67801.11  29.53
1543.0  228630.01  68301.74  29.87
1546.6  227924.67  68865.27  30.21
1550.3  226907.50  69283.23  30.53
1553.9  225838.43  69638.52  30.84
1557.6  224563.53  69898.89  31.13
1561.2  223283.70  70104.06  31.40
1564.9  221968.93  70278.25  31.66
1568.5  220620.05  70407.01  31.91
1572.2  219475.05  70573.37  32.16
1575.8  218344.00  70731.11  32.39
1579.5  217306.50  70890.67  32.62
1583.1  216232.86  71015.07  32.84
1586.8  214886.00  71035.33  33.06
1590.4  213671.53  71069.92  33.26
1594.0  212335.72  71040.78  33.46
1597.7  211483.89  71169.93  33.65
1601.3  210541.28  71240.40  33.84
1604.9  209543.08  71268.27  34.01
1608.6  208183.87  71142.98  34.17
1612.2  206812.65  70988.54  34.33
1615.8  205376.60  70785.59  34.47
1619.5  204129.67  70628.63  34.60
1623.1  202782.03  70416.16  34.73
1626.7  201575.40  70223.93  34.84
1630.3  200358.25  70026.46  34.95
1634.0  199206.00  69828.89  35.05
1637.6  198185.27  69648.54  35.14
1641.2  197149.60  69423.95  35.21
1644.8  195936.53  69100.82  35.27
1648.5  194817.29  68785.90  35.31
1652.1  193860.90  68479.67  35.32
1655.7  192907.00  68130.47  35.32
1659.3  192071.95  67791.45  35.29
1662.9  190626.67  67217.23  35.26
1666.6  189168.53  66617.05  35.22
1670.2  187720.93  65990.93  35.15
1673.8  186229.08  65315.32  35.07
1677.4  185052.55  64707.16  34.97
1681.0  184213.60  64173.06  34.84
1684.6  183801.58  63739.60  34.68
1688.2  183086.85  63144.04  34.49
1691.8  182399.22  62574.18  34.31
1695.4  181958.80  62089.61  34.12
1699.0  181574.63  61638.01  33.95
1702.6  181230.67  61175.81  33.76
1706.2  180608.46  60583.15  33.54
1709.8  179639.89  59887.76  33.34
1713.4  178879.04  59310.53  33.16
1717.0  177958.75  58746.91  33.01
1720.6  177122.70  58235.78  32.88
1724.2  176413.50  57763.54  32.74
1727.8  175678.65  57312.55  32.62
1731.4  175192.88  56986.44  32.53
1735.0  175037.32  56778.46  32.44
1738.6  174832.20  56535.47  32.34
1742.2  174313.67  56131.55  32.20
1745.8  173675.58  55646.91  32.04
1749.4  172722.83  55039.15  31.87
1753.0  171208.40  54246.10  31.68
1756.6  169531.54  53413.94  31.51
1760.1  168203.38  52721.93  31.34
1763.7  166443.33  51935.46  31.20
1767.3  164952.25  51269.34  31.08
1770.9  163683.68  50674.79  30.96
1774.5  162179.01  50044.88  30.86
1778.0  161031.67  49544.61  30.77
1781.6  159953.70  49126.16  30.71
1785.2  158769.18  48726.79  30.69
1788.8  157583.60  48365.78  30.69
1792.3  156324.47  48002.65  30.71
1795.9  155799.69  47865.56  30.72
1799.5  155570.00  47841.27  30.75
1803.1  156516.62  48172.60  30.78
1806.6  158596.84  48841.42  30.80
1810.2  160381.20  49408.65  30.81
1813.8  161217.90  49672.58  30.81
1817.3  160733.00  49529.80  30.81
1820.9  159472.43  49143.99  30.82
1824.5  158050.60  48686.53  30.80
1828.0  156908.13  48269.64  30.76
1831.6  156387.30  48020.30  30.71
1835.2  156088.33  47779.89  30.61
1838.7  155855.47  47480.63  30.46
1842.3  155625.00  47107.14  30.27
1845.8  154445.83  46314.09  29.99
1849.4  153806.03  45547.59  29.61
1852.9  152945.63  44547.88  29.13
1856.5  151899.58  43269.93  28.49
1860.0  150870.65  41747.94  27.67
1863.6  150823.43  40219.21  26.67
1867.1  151417.35  38531.70  25.45
1870.7  152248.25  36455.58  23.94
1874.2  151271.55  33527.16  22.16
1877.8  148693.60  30066.37  20.22
1881.3  145777.88  26448.68  18.14
1884.9  143921.34  23100.70  16.05
1888.4  142389.64  19949.75  14.01
1891.9  140748.00  17149.86  12.18
1895.5  139321.03  14846.78  10.66
1899.0  138628.38  13119.00  9.46
1901.3  177285.00  12426.06  7.01
1904.1  177149.25  11223.00  6.34
1906.8  176024.40  10208.40  5.80
1909.6  173825.75  9385.02  5.40
1912.4  171737.65  8720.21  5.08
1915.1  170227.75  8241.75  4.84
1917.9  168671.33  7859.78  4.66
1920.6  167357.97  7588.21  4.53
1923.3  165998.00  7377.69  4.44
1926.1  164275.03  7217.74  4.39
1928.8  162682.67  7098.67  4.36
1931.6  161433.93  7051.10  4.37
1934.3  160318.20  7058.60  4.40
1937.0  159241.30  7087.18  4.45
1939.8  158019.83  7154.64  4.53
1942.5  156464.00  7234.33  4.62
1945.2  154492.80  7308.03  4.73
1947.9  152847.80  7414.63  4.85
1950.7  151549.37  7569.17  4.99
1953.4  149648.50  7700.48  5.15
1956.1  148190.08  7872.33  5.31
1958.8  146895.88  8062.02  5.49
1961.5  145360.00  8258.53  5.68
1964.2  143770.90  8453.90  5.88
1966.9  142130.25  8660.85  6.09
1969.6  140850.00  8886.00  6.31
1972.3  139418.50  9110.63  6.53
1975.0  138343.20  9372.15  6.77
1977.7  137204.97  9636.62  7.02
1980.4  136023.60  9900.49  7.28
1983.1  134899.13  10163.63  7.53
1985.8  133953.90  10448.70  7.80
1988.4  132894.67  10717.78  8.06
1991.1  131943.23  11001.74  8.34
1993.8  131059.50  11284.96  8.61
1996.5  130413.25  11586.54  8.88
1999.1  129715.30  11879.51  9.16
2001.8  129016.53  12164.37  9.43
2004.5  128331.40  12447.35  9.70
2007.1  127596.15  12718.38  9.97
2009.8  126815.03  12984.53  10.24
2012.4  126208.32  13252.43  10.50
2015.1  125640.90  13514.04  10.76
2017.8  124838.00  13741.39  11.01
2020.4  124312.65  13984.85  11.25
2023.1  123940.13  14233.49  11.48
2025.7  123682.00  14493.56  11.72
2028.3  123335.33  14724.67  11.94
2031.0  122938.63  14932.44  12.15
2033.6  122652.60  15143.80  12.35
2036.2  122382.90  15341.00  12.54
2038.9  121773.90  15486.00  12.72
2041.5  121423.17  15649.32  12.89
2044.1  120860.40  15776.00  13.05
2046.8  120468.90  15915.20  13.21
2049.4  119816.40  16010.90  13.36
2052.0  119515.67  16153.75  13.52
2054.6  119113.75  16275.00  13.66
2057.2  118537.53  16386.65  13.82
2059.8  118205.67  16546.76  14.00
2062.4  117300.18  16625.59  14.17
2065.0  116755.93  16759.27  14.35
2067.6  115844.50  16823.17  14.52
2070.2  115243.05  16927.77  14.69
2072.8  114580.58  17023.65  14.86
2075.4  114126.25  17152.92  15.03
2078.0  113480.67  17247.54  15.20
2080.6  112921.60  17347.73  15.36
2083.2  112213.33  17413.52  15.52
2085.8  111697.65  17516.89  15.68
2088.4  111017.33  17590.11  15.84
2090.9  110190.70  17624.51  15.99
2093.5  109294.03  17635.61  16.14
2096.1  108509.30  17672.06  16.29
2098.7  107727.58  17710.13  16.44
2101.2  106756.27  17699.56  16.58
2103.8  106075.07  17737.40  16.72
2106.4  105385.13  17783.98  16.88
2108.9  104721.40  17816.00  17.01
2111.5  103848.07  17821.82  17.16
2114.0  103219.27  17856.76  17.30
2116.6  102672.50  17899.58  17.43
2119.1  102105.37  17927.83  17.56
2121.7  101605.00  17969.58  17.69
2124.2  101202.40  18021.34  17.81
2126.8  100384.72  17991.19  17.92
2129.3  99968.00  18022.40  18.03
2131.9  99360.80  18016.53  18.13
2134.4  98925.30  18027.45  18.22
2136.9  98533.93  18036.13  18.30
2139.4  98003.27  18020.02  18.39
2142.0  97524.47  18002.29  18.46
2144.5  97223.60  18025.47  18.54
2147.0  96980.27  18051.29  18.61
2149.5  96471.07  18015.56  18.67
2152.1  96310.32  18041.53  18.73
2154.6  96224.53  18081.95  18.79
2157.1  95683.83  18027.39  18.84
2159.6  95266.00  17991.05  18.89
2162.1  95104.10  17999.80  18.93
2164.6  94858.80  17998.76  18.97
2167.1  94524.05  17980.97  19.02
2169.6  94194.33  17966.36  19.07
2172.1  93718.33  17921.90  19.12
2174.6  93389.47  17909.38  19.18
2177.1  92935.45  17879.70  19.24
2179.5  92505.18  17847.63  19.29
2182.0  92022.70  17814.87  19.36
2184.5  91468.73  17787.67  19.45
2187.0  90843.00  17718.94  19.51
2189.5  90158.05  17632.68  19.56
2191.9  89366.50  17537.00  19.62
2194.4  88719.50  17470.13  19.69
2196.9  87955.20  17376.00  19.76
2199.3  87280.33  17293.66  19.81
2201.8  86363.87  17156.62  19.87
2204.3  85886.02  17100.63  19.91
2206.7  85222.20  17004.38  19.95
2209.2  84739.70  16946.62  20.00
2211.6  84110.40  16846.50  20.03
2214.1  83818.80  16802.23  20.05
2216.5  83231.40  16697.93  20.06
2219.0  82873.80  16635.02  20.07
2221.4  82476.92  16560.83  20.08
2223.9  82010.83  16448.45  20.06
2226.3  81495.17  16319.53  20.03
2228.7  80924.73  16162.55  19.97
2231.1  80308.80  15972.00  19.89
2233.6  79695.13  15780.76  19.80
2236.0  79144.92  15585.70  19.69
2238.4  78629.25  15393.97  19.58
2240.9  78165.40  15191.38  19.43
2243.3  77619.07  14952.98  19.26
2245.7  77022.95  14699.47  19.08
2248.1  76524.07  14458.31  18.89
2250.5  76003.12  14202.96  18.69
2252.9  75357.97  13910.15  18.46
2255.3  74774.25  13648.08  18.25
2257.7  74300.00  13383.33  18.01
2260.1  73795.17  13123.60  17.78
2262.5  73170.00  12850.00  17.56
2264.9  72638.73  12608.95  17.36
2267.3  72010.00  12353.33  17.16
2269.7  71487.50  12130.30  16.97
2272.1  70918.00  11903.14  16.78
2274.5  70342.57  11690.49  16.62
2276.8  69866.25  11505.81  16.47
2279.2  69264.60  11302.90  16.32
2281.6  68825.80  11127.02  16.17
2284.0  68356.80  10948.40  16.02
2286.3  67883.20  10764.98  15.86
2288.7  67454.40  10604.24  15.72
2291.1  66905.53  10420.94  15.58
2293.4  66456.13  10246.13  15.42
2295.8  65817.00  10045.93  15.26
2298.2  65194.65  9856.65  15.12
2300.5  64511.55  9663.45  14.98
2302.9  63746.33  9451.55  14.83
2305.2  63005.10  9252.83  14.69
2307.6  62322.98  9071.79  14.56
2309.9  61535.00  8900.44  14.46
2312.2  60935.67  8769.55  14.39
2314.6  60319.80  8666.40  14.37
2316.9  59605.65  8545.65  14.34
2319.2  59017.43  8438.47  14.30
2321.6  58375.10  8306.67  14.23
2323.9  57833.33  8177.09  14.14
2326.2  57268.57  8058.01  14.07
2328.6  56743.50  7931.55  13.98
2330.9  56217.00  7812.00  13.90
2333.2  55742.42  7690.56  13.80
2335.5  55297.60  7575.60  13.70
2337.8  54822.47  7444.09  13.58
2340.1  54229.38  7307.51  13.48
2342.4  53765.83  7193.33  13.38
2344.8  53338.83  7066.72  13.25
2347.1  52760.63  6927.28  13.13
2349.4  52230.02  6804.63  13.03
2351.6  51635.12  6690.79  12.96
2353.9  51128.47  6590.58  12.89
2356.2  50591.95  6477.31  12.80
2358.5  49996.80  6357.87  12.72
2360.8  49414.40  6242.13  12.63
2363.1  48938.32  6146.74  12.56
2365.4  48465.70  6037.97  12.46
2367.7  47994.00  5928.00  12.35
2369.9  47437.35  5831.87  12.29
2372.2  46795.47  5718.05  12.22
2374.5  46211.55  5594.05  12.11
2376.7  45583.80  5463.71  11.99
2379.0  44962.83  5339.70  11.88
2381.3  44321.67  5207.22  11.75
2383.5  43788.80  5092.27  11.63
2385.8  43183.67  4969.45  11.51
2388.0  42645.20  4865.53  11.41
2390.3  42114.80  4750.62  11.28
2392.5  41604.00  4636.00  11.14
2394.8  41140.00  4533.47  11.02
2397.0  40646.67  4424.62  10.89
2399.3  40180.63  4325.08  10.76
2401.5  39714.50  4222.17  10.63
2403.8  39179.32  4121.98  10.52
2406.0  38677.92  4014.72  10.38
2408.2  38285.13  3922.84  10.25
2410.4  37849.47  3832.38  10.13
2412.7  37410.97  3732.30  9.98
2414.9  37051.85  3647.42  9.84
2417.1  36652.20  3560.23  9.71
2419.3  36224.00  3468.80  9.58
2421.6  35817.92  3379.86  9.44
2423.8  35424.93  3297.86  9.31
2426.0  35055.00  3202.55  9.14
2428.2  34678.93  3131.64  9.03
2430.4  34366.97  3052.49  8.88
2432.6  34106.67  2982.22  8.74
2434.8  33817.67  2909.48  8.60
2437.0  33435.57  2821.00  8.44
2439.2  33075.28  2752.89  8.32
2441.4  32733.63  2681.22  8.19
2443.6  32510.62  2615.95  8.05
2445.7  32223.22  2549.90  7.91
2447.9  31924.83  2491.08  7.80
2450.1  31626.55  2430.65  7.69
2452.3  31254.30  2343.37  7.50
2454.5  30891.30  2278.79  7.38
2456.6  30502.13  2211.33  7.25
2458.8  30130.10  2154.53  7.15
2461.0  29813.67  2090.42  7.01
2463.1  29507.40  2037.00  6.90
2465.3  29222.77  1990.13  6.81
2467.5  28998.50  1942.08  6.70
2469.6  28759.33  1899.39  6.60
2471.8  28441.57  1852.05  6.51
2473.9  28115.33  1804.97  6.42
2476.1  27755.00  1759.34  6.34
2478.2  27404.77  1716.29  6.26
2480.4  27108.10  1668.03  6.15
2482.5  26770.68  1620.59  6.05
2484.6  26429.33  1579.11  5.97
2486.8  26140.50  1549.07  5.93
2488.9  25837.32  1536.24  5.95
2491.1  25497.73  1475.60  5.79
2493.2  25099.60  1431.68  5.70
2495.3  24675.30  1405.59  5.70
2497.4  24359.30  1389.97  5.71
2499.5  24016.07  1354.01  5.64
2501.7  23877.63  1331.10  5.57
2503.8  23787.82  1315.04  5.53
2505.9  23745.83  1292.64  5.44
2508.0  23735.08  1284.55  5.41
2510.1  23766.95  1293.56  5.44
2512.2  23873.35  1290.62  5.41
2514.3  24032.90  1290.87  5.37
2516.4  24290.10  1293.63  5.33
