/*** Spectra Vista SIG Data ***/
name= 16_20220926_ACSA_01_avg.sig
comm= Averaged Ref/Tar of files: HR.092622.0044_moc.sig,HR.092622.0045_moc.sig,HR.092622.0046_moc.sig
data=
337.3  6317.33  494.69  7.83
338.8  6445.40  492.91  7.65
340.3  6900.33  502.33  7.28
341.8  7076.55  482.14  6.81
343.2  7372.48  492.34  6.68
344.7  7814.63  475.99  6.09
346.2  8142.75  490.37  6.02
347.7  8548.20  479.42  5.61
349.2  8920.80  457.92  5.13
350.6  9350.40  459.17  4.91
352.1  9834.25  467.62  4.76
353.6  10320.00  467.84  4.53
355.1  10777.05  492.92  4.57
356.6  11453.20  506.97  4.43
358.0  11968.43  519.87  4.34
359.5  12499.88  520.32  4.16
361.0  13164.60  530.88  4.03
362.5  13784.33  540.50  3.92
364.0  14483.20  553.90  3.82
365.4  15159.05  580.65  3.83
366.9  15819.10  596.44  3.77
368.4  16516.05  630.20  3.82
369.9  17225.00  652.15  3.79
371.3  18068.60  673.32  3.73
372.8  18857.85  687.72  3.65
374.3  19672.40  706.34  3.59
375.8  20496.10  729.49  3.56
377.2  21323.25  761.17  3.57
378.7  22176.18  768.55  3.47
380.2  22935.38  781.33  3.41
381.7  23895.75  779.69  3.26
383.1  24886.20  794.39  3.19
384.6  25761.75  829.18  3.22
386.1  26784.30  858.66  3.21
387.6  27707.03  883.26  3.19
389.0  28728.90  899.71  3.13
390.5  29758.30  916.63  3.08
392.0  30791.25  926.57  3.01
393.4  31955.25  958.02  3.00
394.9  32932.30  973.40  2.96
396.4  34155.00  1008.15  2.95
397.9  35270.40  1028.72  2.92
399.3  36204.55  1056.03  2.92
400.8  37431.08  1078.27  2.88
402.2  38614.95  1115.59  2.89
403.7  39813.60  1142.90  2.87
405.2  40982.90  1174.01  2.86
406.6  42264.90  1198.51  2.84
408.1  43364.63  1224.32  2.82
409.6  44571.55  1261.25  2.83
411.0  45802.08  1291.62  2.82
412.5  47159.65  1327.72  2.82
414.0  48543.95  1359.73  2.80
415.4  49845.60  1382.88  2.77
416.9  51184.10  1428.10  2.79
418.4  52525.95  1468.91  2.80
419.8  53838.05  1515.00  2.81
421.3  55336.05  1566.18  2.83
422.7  56851.60  1609.52  2.83
424.2  58372.28  1655.61  2.84
425.7  59802.88  1699.32  2.84
427.1  61277.20  1744.34  2.85
428.6  62782.28  1800.93  2.87
430.0  64323.05  1847.33  2.87
431.5  66006.85  1896.93  2.87
432.9  67674.38  1949.50  2.88
434.4  69367.95  2003.07  2.89
435.9  71056.20  2052.89  2.89
437.3  72712.88  2106.17  2.90
438.8  74358.25  2160.56  2.91
440.2  76060.78  2212.15  2.91
441.7  77930.55  2276.96  2.92
443.1  79745.85  2326.09  2.92
444.6  81546.50  2381.51  2.92
446.0  83349.30  2439.68  2.93
447.5  85350.00  2497.62  2.93
448.9  87087.95  2561.34  2.94
450.4  89000.00  2624.76  2.95
451.8  90801.75  2681.44  2.95
453.3  92607.60  2742.22  2.96
454.7  94453.88  2801.11  2.97
456.2  96221.30  2852.84  2.96
457.6  98136.90  2909.44  2.96
459.1  99993.08  2969.40  2.97
460.5  101879.63  3030.62  2.97
462.0  103878.00  3098.19  2.98
463.4  105858.55  3152.88  2.98
464.8  107849.70  3210.96  2.98
466.3  109789.13  3269.63  2.98
467.7  111819.20  3339.12  2.99
469.2  113704.20  3401.25  2.99
470.6  115742.38  3471.48  3.00
472.0  117776.45  3528.61  3.00
473.5  119764.53  3595.11  3.00
474.9  121936.30  3663.36  3.00
476.4  124015.80  3727.85  3.01
477.8  126112.00  3800.53  3.01
479.2  128214.38  3874.39  3.02
480.7  130363.50  3943.14  3.02
482.1  132587.90  4019.60  3.03
483.6  134784.90  4092.53  3.04
485.0  137021.55  4179.20  3.05
486.4  139111.63  4264.73  3.07
487.9  141391.25  4349.42  3.08
489.3  143546.25  4438.63  3.09
490.7  145777.80  4539.54  3.11
492.2  148032.38  4639.99  3.13
493.6  150301.30  4750.09  3.16
495.0  152600.18  4865.99  3.19
496.5  154791.00  4988.52  3.22
497.9  157084.00  5123.71  3.26
499.3  159354.00  5266.94  3.31
500.7  161649.60  5436.30  3.36
502.2  164015.48  5628.33  3.43
503.6  166323.60  5832.30  3.51
505.0  168618.73  6071.80  3.60
506.5  171071.60  6343.54  3.71
507.9  173541.10  6658.61  3.84
509.3  175879.13  7008.22  3.98
510.7  178500.08  7424.74  4.16
512.2  181138.13  7899.61  4.36
513.6  184010.83  8446.36  4.59
515.0  186747.58  9048.43  4.85
516.4  189580.60  9717.87  5.13
517.8  192385.00  10443.76  5.43
519.3  195323.20  11240.08  5.75
520.7  197965.50  12072.66  6.10
522.1  200667.03  12947.48  6.45
523.5  203226.20  13831.48  6.81
524.9  206110.88  14745.67  7.15
526.3  208752.53  15615.03  7.48
527.8  211567.38  16477.64  7.79
529.2  214185.60  17341.44  8.10
530.6  216922.50  18186.02  8.38
532.0  219846.25  18995.02  8.64
533.4  222379.60  19712.12  8.86
534.8  224932.13  20389.85  9.06
536.3  228038.83  21073.26  9.24
537.7  231054.00  21721.53  9.40
539.1  233952.23  22346.69  9.55
540.5  236824.50  22945.76  9.69
541.9  239765.45  23539.24  9.82
543.3  242289.50  24092.49  9.94
544.7  245278.00  24677.71  10.06
546.1  248096.10  25242.27  10.17
547.5  251035.20  25807.68  10.28
549.0  254188.00  26375.63  10.38
550.4  257084.10  26869.83  10.45
551.8  259986.33  27321.82  10.51
553.2  262920.60  27715.84  10.54
554.6  265822.90  28027.61  10.54
556.0  268766.40  28267.82  10.52
557.4  271893.70  28453.59  10.46
558.8  274785.68  28543.23  10.39
560.2  278000.00  28587.43  10.28
561.6  280929.55  28521.80  10.15
563.0  283732.15  28365.83  10.00
564.4  286899.90  28187.61  9.82
565.8  289940.10  27929.25  9.63
567.2  293130.15  27639.13  9.43
568.6  296193.38  27287.79  9.21
570.0  299087.75  26877.84  8.99
571.4  302530.50  26490.41  8.76
572.8  305677.60  26073.35  8.53
574.2  308560.88  25658.62  8.32
575.6  311637.88  25297.96  8.12
577.0  314686.63  24980.02  7.94
578.4  318128.13  24733.33  7.77
579.8  321213.33  24494.00  7.63
581.2  324316.00  24291.49  7.49
582.5  327217.50  24113.14  7.37
583.9  330262.30  23978.55  7.26
585.3  333195.00  23859.18  7.16
586.7  336174.30  23775.84  7.07
588.1  339178.10  23728.72  7.00
589.5  342581.85  23726.74  6.93
590.9  345533.98  23721.98  6.87
592.3  348485.63  23748.04  6.81
593.7  351447.60  23792.17  6.77
595.0  354412.20  23847.94  6.73
596.4  357752.25  23920.75  6.69
597.8  360436.00  23937.27  6.64
599.2  363595.05  23961.79  6.59
600.6  366771.08  23951.35  6.53
602.0  369739.80  23894.73  6.46
603.3  372632.00  23791.24  6.38
604.7  375646.90  23653.45  6.30
606.1  378698.40  23484.08  6.20
607.5  382033.88  23295.55  6.10
608.9  385142.45  23078.95  5.99
610.2  388310.18  22849.81  5.88
611.6  391215.00  22600.81  5.78
613.0  394055.43  22348.46  5.67
614.4  396814.25  22124.05  5.58
615.8  400115.90  21932.45  5.48
617.1  402827.20  21742.93  5.40
618.5  406079.55  21625.20  5.33
619.9  408806.85  21516.97  5.26
621.3  411747.38  21472.27  5.21
622.6  414677.25  21466.16  5.18
624.0  417416.25  21488.00  5.15
625.4  420508.65  21557.19  5.13
626.8  423484.10  21663.15  5.12
628.1  426318.90  21778.30  5.11
629.5  429132.90  21912.46  5.11
630.9  432063.85  22046.94  5.10
632.2  435202.00  22165.89  5.09
633.6  437688.55  22196.58  5.07
635.0  440644.93  22176.79  5.03
636.3  443682.45  22079.38  4.98
637.7  446421.70  21879.61  4.90
639.1  449435.80  21611.31  4.81
640.4  452163.50  21247.69  4.70
641.8  454996.80  20855.49  4.58
643.2  457580.20  20413.46  4.46
644.5  460460.00  20005.33  4.34
645.9  463155.70  19615.55  4.24
647.2  466258.10  19303.24  4.14
648.6  469247.20  19051.17  4.06
650.0  472084.20  18843.70  3.99
651.3  474369.30  18689.29  3.94
652.7  477324.75  18573.20  3.89
654.0  480201.35  18460.43  3.84
655.4  482593.13  18324.74  3.80
656.8  484379.70  18167.04  3.75
658.1  486950.63  18040.05  3.70
659.5  490147.20  17944.05  3.66
660.8  493353.00  17854.68  3.62
662.2  496041.30  17745.60  3.58
663.5  498833.15  17656.88  3.54
664.9  500958.70  17600.75  3.51
666.2  503108.78  17592.80  3.50
667.6  505689.75  17656.16  3.49
668.9  508464.00  17790.99  3.50
670.3  511070.00  17946.25  3.51
671.6  513506.40  18134.28  3.53
673.0  515753.60  18374.14  3.56
674.3  518194.60  18625.93  3.59
675.7  520713.00  18952.01  3.64
677.0  523083.30  19305.27  3.69
678.4  525347.80  19698.15  3.75
679.7  527770.28  20157.81  3.82
681.1  530332.25  20682.01  3.90
682.4  532526.63  21273.06  3.99
683.8  534899.63  21974.47  4.11
685.1  537119.85  22843.76  4.25
686.4  539340.10  23951.48  4.44
687.8  541887.15  25404.22  4.69
689.1  544296.90  27337.76  5.02
690.5  546251.80  29892.16  5.47
691.8  549013.30  33359.88  6.08
693.1  551406.00  37806.06  6.86
694.5  553722.70  43306.28  7.82
695.8  556126.20  49837.14  8.96
697.1  558398.60  57326.91  10.27
698.5  560755.75  65716.70  11.72
699.8  563181.20  74867.43  13.29
701.1  565037.03  84484.04  14.95
702.5  567128.13  94430.27  16.65
703.8  569550.45  104561.79  18.36
705.1  571435.45  114526.67  20.04
706.5  573672.85  124413.73  21.69
707.8  575545.43  133954.44  23.27
709.1  577825.75  143274.07  24.80
710.5  580063.05  152230.65  26.24
711.8  581962.00  160775.77  27.63
713.1  583940.00  168993.28  28.94
714.4  586043.53  176902.41  30.19
715.8  588318.35  184537.40  31.37
717.1  590550.90  191832.57  32.48
718.4  592780.95  198779.80  33.53
719.7  595052.78  205408.52  34.52
721.0  596771.28  211576.27  35.45
722.4  598659.75  217486.75  36.33
723.7  600613.45  223130.52  37.15
725.0  602369.55  228399.45  37.92
726.3  604700.20  233587.32  38.63
727.6  606402.00  238305.21  39.30
729.0  608298.25  242809.61  39.92
730.3  610305.18  247135.29  40.49
731.6  611852.30  251012.38  41.02
732.9  613837.90  254843.79  41.52
734.2  615511.88  258344.51  41.97
735.5  617324.95  261698.84  42.39
736.8  619266.38  264951.46  42.78
738.1  621166.50  267935.04  43.13
739.5  622885.65  270728.01  43.46
740.8  624850.05  273426.66  43.76
742.1  626467.70  275840.87  44.03
743.4  628217.45  278195.53  44.28
744.7  630189.00  280513.33  44.51
746.0  631754.60  282472.53  44.71
747.3  633376.80  284348.37  44.89
748.6  634999.30  286087.12  45.05
749.9  636832.73  287861.03  45.20
751.2  638207.00  289349.63  45.34
752.5  639838.20  290883.74  45.46
753.8  641218.50  292228.66  45.57
755.1  642736.48  293605.96  45.68
756.4  643876.55  294696.84  45.77
757.7  645909.00  296117.69  45.85
759.0  649513.10  298227.43  45.92
760.3  652262.15  299884.52  45.98
761.6  655189.65  301573.48  46.03
762.9  656625.75  302567.31  46.08
764.2  657453.05  303232.52  46.12
765.5  658305.15  303918.83  46.17
766.8  658900.55  304437.13  46.20
768.1  660003.75  305146.26  46.23
769.3  661301.75  305923.00  46.26
770.6  662685.90  306771.79  46.29
771.9  663929.13  307514.67  46.32
773.2  665455.05  308370.33  46.34
774.5  666476.40  308956.97  46.36
775.8  667507.75  309639.98  46.39
777.1  668789.20  310351.77  46.41
778.4  670063.50  311108.04  46.43
779.6  671453.40  311871.07  46.45
780.9  672166.35  312359.95  46.47
782.2  673210.58  312967.46  46.49
783.5  674159.25  313546.37  46.51
784.8  674992.50  314066.15  46.53
786.0  675851.88  314600.73  46.55
787.3  676759.78  315128.71  46.56
788.6  677704.38  315711.36  46.59
789.9  678451.20  316185.09  46.60
791.2  679874.80  316953.83  46.62
792.4  681082.88  317615.26  46.63
793.7  682704.98  318476.46  46.65
795.0  683736.75  319113.17  46.67
796.2  685198.60  319865.51  46.68
797.5  686495.63  320571.59  46.70
798.8  687932.00  321356.20  46.71
800.0  689150.00  322009.33  46.73
801.3  690464.25  322693.20  46.74
802.6  691560.00  323304.69  46.75
803.8  692605.73  323970.08  46.78
805.1  693760.13  324574.38  46.78
806.4  694750.13  325146.69  46.80
807.7  695894.60  325777.19  46.81
808.9  697142.75  326416.29  46.82
810.2  698056.80  326958.64  46.84
811.4  699192.40  327585.86  46.85
812.7  700524.05  328338.64  46.87
814.0  701939.70  329033.32  46.87
815.2  703250.55  329765.98  46.89
816.5  704401.25  330391.00  46.90
817.7  705341.00  330889.07  46.91
819.0  706087.20  331319.47  46.92
820.2  706853.85  331804.68  46.94
821.5  708107.00  332432.54  46.95
822.7  709126.08  332997.98  46.96
824.0  710060.65  333517.13  46.97
825.2  710837.40  333942.92  46.98
826.5  711646.40  334396.89  46.99
827.7  712623.98  334951.59  47.00
829.0  713586.08  335461.60  47.01
830.2  714526.40  335991.04  47.02
831.5  715427.33  336467.16  47.03
832.7  716499.00  336956.18  47.03
834.0  717042.38  337315.45  47.04
835.2  718222.80  337872.80  47.04
836.4  719042.00  338293.14  47.05
837.7  719910.00  338740.82  47.05
838.9  721001.40  339368.79  47.07
840.1  721891.50  339839.12  47.08
841.4  722875.10  340348.14  47.08
842.6  723850.40  340841.69  47.09
843.8  724629.10  341328.22  47.10
845.1  725509.95  341776.76  47.11
846.3  726493.95  342286.04  47.11
847.5  727392.25  342753.73  47.12
848.8  728394.40  343269.69  47.13
850.0  729429.60  343873.95  47.14
851.2  730414.45  344361.52  47.15
852.5  731714.70  344978.45  47.15
853.7  732422.93  345334.82  47.15
854.9  733599.75  345908.94  47.15
856.1  734674.85  346446.92  47.16
857.4  735413.18  346912.66  47.17
858.6  736443.40  347433.31  47.18
859.8  737712.90  347996.66  47.17
861.0  738797.15  348521.01  47.17
862.2  739800.60  349070.00  47.18
863.5  740707.80  349507.78  47.19
864.7  741606.25  349966.90  47.19
865.9  742720.88  350489.43  47.19
867.1  743481.25  350827.02  47.19
868.3  744739.83  351462.45  47.19
869.5  746151.20  352008.34  47.18
870.8  747179.55  352564.58  47.19
872.0  748135.28  353063.85  47.19
873.2  749062.38  353509.34  47.19
874.4  750031.05  353898.42  47.18
875.6  751094.08  354460.16  47.19
876.8  752715.15  355140.28  47.18
878.0  753694.55  355651.91  47.19
879.2  754794.05  356182.23  47.19
880.4  755964.00  356681.83  47.18
881.6  756893.20  357156.88  47.19
882.8  758252.95  357759.29  47.18
884.0  759392.73  358203.28  47.17
885.2  760775.50  358865.38  47.17
886.5  762097.70  359442.80  47.16
887.7  763294.05  359932.35  47.16
888.8  764811.75  360608.55  47.15
890.0  765686.25  361053.00  47.15
891.2  766688.33  361560.27  47.16
892.4  768169.05  362225.00  47.15
893.6  770159.33  363039.50  47.14
894.8  771871.28  363797.90  47.13
896.0  773313.73  364495.44  47.13
897.2  775036.35  365307.45  47.13
898.4  777115.50  366295.28  47.14
899.6  778564.70  366855.37  47.12
900.8  779334.40  367128.57  47.11
902.0  780189.10  367399.65  47.09
903.2  780337.10  367522.30  47.10
904.3  781413.75  368044.39  47.10
905.5  782520.75  368619.43  47.11
906.7  784095.85  369203.51  47.09
907.9  785205.03  369670.78  47.08
909.1  786354.80  370142.23  47.07
910.2  786948.75  370350.00  47.06
911.4  787124.93  370420.57  47.06
912.6  787640.00  370710.90  47.07
913.8  788836.30  371113.70  47.05
915.0  789351.00  371320.97  47.04
916.2  789534.98  371478.13  47.05
917.3  790302.33  371792.52  47.04
918.5  790767.90  371941.41  47.04
919.7  791140.25  372038.99  47.03
920.8  791477.95  372069.81  47.01
922.0  791521.50  372017.67  47.00
923.2  792138.60  372267.73  47.00
924.4  792807.25  372595.43  47.00
925.5  793817.40  372898.69  46.98
926.7  794527.93  373217.06  46.97
927.9  796401.63  373798.75  46.94
929.0  799318.80  375218.49  46.94
930.2  803935.60  377171.28  46.92
931.4  809358.00  379463.94  46.88
932.5  813982.95  381489.03  46.87
933.7  816698.10  382685.04  46.86
934.9  818116.25  383258.33  46.85
936.0  817076.48  382768.65  46.85
937.2  814434.08  381152.05  46.80
938.3  810764.50  379204.80  46.77
939.5  808551.90  378064.22  46.76
940.7  808372.95  377883.92  46.75
941.8  811608.20  379118.89  46.71
943.0  813909.68  379889.48  46.67
944.2  815814.00  380549.37  46.65
945.3  815594.40  380066.00  46.60
946.5  813828.75  379102.33  46.58
947.6  814492.00  379294.31  46.57
948.8  813555.83  378610.73  46.54
949.9  814227.40  378524.47  46.49
951.1  815216.60  378217.23  46.39
952.2  814632.70  377570.59  46.35
953.4  814355.25  377092.80  46.31
954.5  812707.88  375967.20  46.26
955.7  811986.65  375394.15  46.23
956.8  812603.20  375211.86  46.17
958.0  811771.20  374409.97  46.12
959.1  811944.00  373800.96  46.04
960.3  811687.50  373356.43  46.00
961.4  812356.00  373377.89  45.96
962.6  811879.20  372973.30  45.94
963.7  812464.80  372946.85  45.90
964.9  812756.45  372991.73  45.89
966.0  813351.35  373093.14  45.87
967.2  813968.40  373166.64  45.85
968.3  815784.75  373725.42  45.81
969.5  815796.00  373949.66  45.84
970.6  815977.90  373932.73  45.83
971.8  816045.13  373904.39  45.82
972.9  817215.00  374175.27  45.79
974.0  818306.43  374397.95  45.75
975.2  817796.25  373915.61  45.72
976.3  818524.90  374155.07  45.71
977.5  817680.38  373767.50  45.71
978.6  817651.65  373938.43  45.73
979.7  818417.60  373788.80  45.67
980.9  818590.78  374090.70  45.70
982.0  818822.05  374039.81  45.68
983.2  818637.40  374095.55  45.70
984.3  816486.30  373356.25  45.73
985.4  816629.80  372800.97  45.65
986.6  818170.35  373067.57  45.60
987.7  818618.25  372963.94  45.56
988.9  818371.68  373631.49  45.66
990.0  818246.45  373604.58  45.66
993.1  836280.60  380531.66  45.50
996.9  837843.50  381971.44  45.59
1000.7  838579.50  382967.44  45.67
1004.5  838054.00  383441.43  45.75
1008.4  839304.08  384646.39  45.83
1012.2  840933.38  385939.58  45.89
1016.0  841533.75  386627.46  45.94
1019.8  841257.31  386913.72  45.99
1023.7  841278.70  387226.81  46.03
1027.5  840285.53  387189.60  46.08
1031.3  839854.37  387323.18  46.12
1035.1  839523.75  387515.92  46.16
1038.9  839350.98  387755.98  46.20
1042.7  838865.60  387904.21  46.24
1046.5  838165.13  387776.00  46.26
1050.3  836620.18  387208.44  46.28
1054.2  834691.28  386499.07  46.30
1058.0  833659.20  386088.69  46.31
1061.8  832461.00  385652.23  46.33
1065.6  830816.83  384888.34  46.33
1069.4  829337.07  384216.08  46.33
1073.2  828282.00  383598.20  46.31
1077.0  827141.33  382854.06  46.29
1080.8  826074.33  382105.17  46.26
1084.6  824649.83  381233.02  46.23
1088.4  823098.70  380405.75  46.22
1092.2  821419.20  379443.67  46.19
1096.0  820140.30  378579.67  46.16
1099.8  818726.50  377632.55  46.12
1103.6  817056.38  376532.07  46.08
1107.4  815740.70  375496.72  46.03
1111.2  814287.38  374403.77  45.98
1114.9  813030.00  373313.79  45.92
1118.7  812164.00  372206.93  45.83
1122.5  811836.78  371178.83  45.72
1126.3  809231.85  368949.60  45.59
1130.1  808570.28  367183.22  45.41
1133.9  805198.09  363706.23  45.17
1137.7  802668.60  360143.54  44.87
1141.4  799243.63  355724.50  44.51
1145.2  798509.71  352152.91  44.10
1149.0  796616.10  348280.76  43.72
1152.8  793434.05  344257.36  43.39
1156.6  790033.07  340829.30  43.14
1160.3  786829.65  338211.47  42.98
1164.1  782124.33  335439.12  42.89
1167.9  778922.54  333715.36  42.84
1171.7  776395.27  332495.95  42.83
1175.4  774311.09  331536.06  42.82
1179.2  772657.50  330682.50  42.80
1183.0  772944.63  330569.30  42.77
1186.7  772585.33  330218.67  42.74
1190.5  770543.75  329234.39  42.73
1194.3  767520.60  327837.35  42.71
1198.0  764803.33  326608.25  42.70
1201.8  762454.00  325724.67  42.72
1205.6  760706.00  325339.84  42.77
1209.3  759126.75  325268.25  42.85
1213.1  757256.54  325117.89  42.93
1216.8  754905.20  324864.23  43.03
1220.6  752564.83  324541.62  43.12
1224.3  750154.17  324159.52  43.21
1228.1  748176.94  323941.21  43.30
1231.9  746055.05  323551.61  43.37
1235.6  743818.90  322998.34  43.42
1239.4  741649.08  322494.65  43.48
1243.1  739573.20  321890.92  43.52
1246.9  737628.47  321267.20  43.55
1250.6  735643.25  320534.70  43.57
1254.3  733828.80  319848.68  43.59
1258.1  732000.00  319064.86  43.59
1261.8  729748.60  318054.73  43.58
1265.6  727312.24  316871.66  43.57
1269.3  724475.40  315453.80  43.54
1273.1  724604.32  315272.37  43.51
1276.8  725247.40  315209.74  43.46
1280.6  725444.67  314894.15  43.41
1284.3  723416.22  313498.69  43.34
1288.0  721345.19  311994.37  43.25
1291.8  719182.80  310273.20  43.14
1295.5  716838.35  308525.61  43.04
1299.2  714361.05  306578.17  42.92
1302.9  711639.04  304301.92  42.76
1306.7  708669.68  301774.95  42.58
1310.4  705818.62  298979.50  42.36
1314.1  703522.50  296257.50  42.11
1317.9  701178.51  293218.90  41.82
1321.6  698576.67  289792.21  41.48
1325.3  695787.98  286041.57  41.11
1329.0  693118.07  282184.47  40.71
1332.8  689221.25  277581.79  40.27
1336.5  685545.63  273016.22  39.82
1340.2  683553.10  269086.20  39.37
1343.9  682454.68  265549.03  38.91
1347.6  681498.43  261983.23  38.44
1351.4  680630.00  258566.07  37.99
1355.1  681021.64  255675.21  37.54
1358.8  679527.80  251912.57  37.07
1362.5  679050.87  248289.10  36.56
1366.2  676613.46  243409.44  35.97
1369.9  672734.00  237318.00  35.28
1373.6  668865.82  230188.80  34.41
1377.3  666216.03  222048.96  33.33
1381.0  663493.42  212054.26  31.96
1384.8  659710.90  199784.24  30.28
1388.4  655472.80  186151.44  28.40
1392.2  651346.50  171655.25  26.35
1395.9  649382.15  157421.56  24.24
1399.6  645486.51  143417.58  22.22
1403.3  643299.60  131135.31  20.38
1407.0  641185.88  120661.55  18.82
1410.7  639957.01  112356.02  17.56
1414.3  638093.00  105923.00  16.60
1418.1  636125.00  101260.42  15.92
1421.7  634416.07  98036.03  15.45
1425.4  633190.33  95996.96  15.16
1429.1  629895.00  94505.25  15.00
1432.8  628648.95  93974.60  14.95
1436.5  625358.50  93560.30  14.96
1440.2  621761.17  93452.93  15.03
1443.9  619473.92  93715.62  15.13
1447.6  615848.00  93929.37  15.25
1451.2  612933.70  94276.32  15.38
1454.9  611192.75  94865.37  15.52
1458.6  607494.93  95354.18  15.70
1462.3  606605.27  96550.47  15.92
1466.0  606581.13  98258.71  16.20
1469.7  604865.80  100135.93  16.56
1473.3  602745.73  102286.80  16.97
1477.0  598679.53  104350.60  17.43
1480.7  595573.33  106705.18  17.92
1484.4  591949.37  108983.72  18.41
1488.0  588896.40  111436.00  18.92
1491.7  585432.40  113730.79  19.43
1495.4  581940.58  116017.73  19.94
1499.0  578879.93  118284.08  20.43
1502.7  576095.53  120576.84  20.93
1506.4  573371.43  122759.88  21.41
1510.0  570691.88  124868.87  21.88
1513.7  567999.17  126881.38  22.34
1517.4  565495.00  128838.23  22.78
1521.0  563067.45  130723.37  23.22
1524.7  560582.64  132442.87  23.63
1528.3  558163.50  134105.58  24.03
1532.0  555613.55  135641.18  24.41
1535.7  552908.25  136989.00  24.78
1539.3  550408.70  138276.57  25.12
1543.0  548773.46  139725.84  25.46
1546.6  547388.58  141168.08  25.79
1550.3  545845.23  142452.71  26.10
1553.9  543501.60  143436.48  26.39
1557.6  541311.43  144376.79  26.67
1561.2  538823.68  145130.94  26.93
1564.9  536129.00  145782.45  27.19
1568.5  533485.33  146347.81  27.43
1572.2  531174.70  146938.17  27.66
1575.8  529360.15  147640.62  27.89
1579.5  527519.75  148245.13  28.10
1583.1  525273.23  148702.67  28.31
1586.8  523140.98  149142.15  28.51
1590.4  521097.42  149545.90  28.70
1594.0  518822.55  149824.82  28.88
1597.7  516558.32  150102.56  29.06
1601.3  513979.43  150301.00  29.24
1604.9  511164.13  150335.22  29.41
1608.6  508326.75  150282.64  29.56
1612.2  505742.21  150247.09  29.71
1615.8  503565.00  150247.71  29.84
1619.5  501378.33  150216.78  29.96
1623.1  498672.08  149932.55  30.07
1626.7  495848.18  149555.61  30.16
1630.3  493334.40  149185.71  30.24
1634.0  490928.32  148783.60  30.31
1637.6  488695.00  148324.40  30.35
1641.2  486533.60  147707.93  30.36
1644.8  483988.01  146800.83  30.33
1648.5  481381.48  145770.70  30.28
1652.1  479201.75  144740.69  30.20
1655.7  477345.66  143765.44  30.12
1659.3  475453.13  142881.75  30.05
1662.9  472227.95  141690.15  30.00
1666.6  468685.25  140518.09  29.98
1670.2  465370.95  139432.19  29.96
1673.8  462105.21  138367.50  29.94
1677.4  459631.58  137435.44  29.90
1681.0  458011.68  136586.47  29.82
1684.6  457130.21  135765.73  29.70
1688.2  455655.20  134513.60  29.52
1691.8  453991.23  133188.99  29.34
1695.4  453177.10  132074.82  29.14
1699.0  452334.30  130971.39  28.95
1702.6  451768.53  129868.15  28.75
1706.2  450278.80  128343.41  28.50
1709.8  448166.22  126658.91  28.26
1713.4  446594.20  125287.87  28.05
1717.0  444935.85  124145.98  27.90
1720.6  443313.33  123166.86  27.78
1724.2  441906.10  122317.44  27.68
1727.8  440560.12  121538.82  27.59
1731.4  439820.60  120914.79  27.49
1735.0  439741.47  120429.87  27.39
1738.6  439128.00  119652.75  27.25
1742.2  438131.13  118641.91  27.08
1745.8  436381.87  117326.63  26.89
1749.4  433994.73  115782.78  26.68
1753.0  430260.00  113893.37  26.47
1756.6  426448.75  112090.50  26.28
1760.1  423190.00  110494.00  26.11
1763.7  419407.36  108834.10  25.95
1767.3  416372.84  107394.77  25.79
1770.9  413803.54  106062.05  25.63
1774.5  410809.61  104651.17  25.47
1778.0  408621.43  103590.63  25.35
1781.6  406435.43  102692.15  25.27
1785.2  403856.97  101821.99  25.21
1788.8  401100.00  101025.36  25.19
1792.3  398875.40  100379.96  25.17
1795.9  398394.88  100233.01  25.16
1799.5  398607.83  100252.31  25.15
1803.1  398896.67  100342.29  25.15
1806.6  399236.88  100485.24  25.17
1810.2  400333.50  100823.55  25.18
1813.8  400100.33  100736.71  25.18
1817.3  399926.18  100628.90  25.16
1820.9  399437.50  100365.18  25.13
1824.5  398620.19  99966.70  25.08
1828.0  399266.30  99856.98  25.01
1831.6  400019.26  99684.49  24.92
1835.2  399406.39  99006.28  24.79
1838.7  399705.25  98367.17  24.61
1842.3  398072.50  97071.50  24.39
1845.8  396807.49  95552.01  24.08
1849.4  396323.90  93879.53  23.69
1852.9  394795.83  91511.75  23.18
1856.5  393361.58  88638.89  22.53
1860.0  393194.67  85440.85  21.73
1863.6  392551.40  81451.44  20.75
1867.1  392162.06  76836.31  19.59
1870.7  392553.34  71410.06  18.19
1874.2  391595.38  64847.63  16.56
1877.8  388634.36  57661.48  14.84
1881.3  385912.68  50408.48  13.06
1884.9  383852.58  43581.18  11.35
1888.4  382015.14  37265.49  9.75
1891.9  380716.78  31977.61  8.40
1895.5  379517.72  27824.07  7.33
1899.0  379004.33  24859.65  6.56
1901.3  386401.87  17752.00  4.59
1904.1  386465.33  16274.03  4.21
1906.8  385128.20  15114.42  3.92
1909.6  382144.00  14159.80  3.71
1912.4  378978.97  13511.84  3.57
1915.1  375631.50  13057.33  3.48
1917.9  372427.65  12700.48  3.41
1920.6  370045.87  12480.42  3.37
1923.3  368218.87  12371.67  3.36
1926.1  365741.70  12320.45  3.37
1928.8  362876.80  12291.93  3.39
1931.6  362428.67  12411.79  3.42
1934.3  359359.53  12456.91  3.47
1937.0  356194.20  12549.00  3.52
1939.8  353554.17  12701.27  3.59
1942.5  349643.22  12827.08  3.67
1945.2  346486.92  12996.97  3.75
1947.9  343994.30  13214.50  3.84
1950.7  340082.90  13407.56  3.94
1953.4  336757.47  13645.98  4.05
1956.1  334183.63  13937.92  4.17
1958.8  332038.00  14259.39  4.29
1961.5  329195.65  14603.40  4.44
1964.2  325897.13  14913.09  4.58
1966.9  322973.07  15259.29  4.72
1969.6  320307.77  15627.15  4.88
1972.3  317839.52  16044.73  5.05
1975.0  315414.67  16464.44  5.22
1977.7  313270.25  16919.41  5.40
1980.4  311121.07  17357.51  5.58
1983.1  308808.97  17824.68  5.77
1985.8  306754.80  18326.00  5.97
1988.4  304781.95  18823.75  6.18
1991.1  302997.80  19332.37  6.38
1993.8  301515.90  19860.17  6.59
1996.5  300013.70  20387.97  6.80
1999.1  298655.00  20912.62  7.00
2001.8  297453.98  21477.24  7.22
2004.5  296238.70  22011.02  7.43
2007.1  294740.47  22499.69  7.63
2009.8  292795.42  22961.94  7.84
2012.4  291481.67  23468.01  8.05
2015.1  290316.80  23947.87  8.25
2017.8  289142.73  24402.48  8.44
2020.4  288017.80  24860.38  8.63
2023.1  287561.60  25358.60  8.82
2025.7  287252.02  25839.55  9.00
2028.3  286468.58  26245.02  9.16
2031.0  285885.03  26633.24  9.32
2033.6  285582.25  27058.00  9.47
2036.2  285167.87  27418.92  9.62
2038.9  284211.20  27684.80  9.74
2041.5  283270.83  27951.39  9.87
2044.1  282500.00  28222.22  9.99
2046.8  281378.88  28428.63  10.10
2049.4  280531.47  28656.89  10.22
2052.0  280337.33  28922.03  10.32
2054.6  279954.93  29177.33  10.42
2057.2  278891.45  29350.72  10.52
2059.8  277410.00  29505.00  10.64
2062.4  276053.92  29640.50  10.74
2065.0  274702.50  29771.72  10.84
2067.6  272865.43  29839.29  10.94
2070.2  271435.17  29958.48  11.04
2072.8  270520.25  30121.06  11.13
2075.4  269494.00  30261.28  11.23
2078.0  268824.48  30440.20  11.32
2080.6  267553.40  30547.21  11.42
2083.2  266245.17  30632.05  11.51
2085.8  264974.85  30701.30  11.59
2088.4  263923.43  30804.69  11.67
2090.9  262257.00  30831.00  11.76
2093.5  260373.80  30816.00  11.84
2096.1  258622.65  30787.90  11.90
2098.7  257155.50  30792.78  11.97
2101.2  255259.20  30758.93  12.05
2103.8  253787.50  30754.33  12.12
2106.4  252356.07  30756.84  12.19
2108.9  251312.03  30764.13  12.24
2111.5  250388.25  30813.80  12.31
2114.0  249795.00  30889.44  12.37
2116.6  247680.03  30755.39  12.42
2119.1  246555.40  30741.67  12.47
2121.7  246006.40  30765.28  12.51
2124.2  245865.17  30857.78  12.55
2126.8  244720.55  30825.12  12.60
2129.3  243641.28  30776.67  12.63
2131.9  243820.80  30898.14  12.67
2134.4  242999.75  30884.70  12.71
2136.9  242706.23  30958.00  12.76
2139.4  241674.08  30912.58  12.79
2142.0  241268.65  30944.56  12.83
2144.5  240760.92  31006.92  12.88
2147.0  240329.92  31068.61  12.93
2149.5  239937.90  31152.39  12.98
2152.1  240254.30  31303.57  13.03
2154.6  240305.60  31443.73  13.08
2157.1  240209.33  31576.16  13.15
2159.6  239134.47  31560.58  13.20
2162.1  238926.27  31650.62  13.25
2164.6  238270.87  31684.79  13.30
2167.1  237325.93  31668.66  13.34
2169.6  237475.98  31803.19  13.39
2172.1  236657.80  31826.83  13.45
2174.6  236295.73  31892.23  13.50
2177.1  235221.92  31878.31  13.55
2179.5  234724.07  31947.61  13.61
2182.0  234400.00  32026.53  13.66
2184.5  233470.50  32013.20  13.71
2187.0  232658.07  32023.30  13.76
2189.5  231670.45  32036.96  13.83
2191.9  230470.53  32032.12  13.90
2194.4  228866.00  31941.25  13.96
2196.9  227770.03  31896.64  14.00
2199.3  226339.90  31816.60  14.06
2201.8  225174.25  31757.68  14.10
2204.3  224496.80  31752.87  14.14
2206.7  223290.90  31678.28  14.19
2209.2  222117.30  31576.80  14.22
2211.6  220184.53  31375.23  14.25
2214.1  219530.85  31356.46  14.28
2216.5  219172.62  31366.56  14.31
2219.0  217853.90  31192.09  14.32
2221.4  217860.90  31226.55  14.33
2223.9  216733.40  31057.87  14.33
2226.3  215496.80  30862.06  14.32
2228.7  214557.20  30654.87  14.29
2231.1  213914.77  30457.56  14.24
2233.6  212894.40  30173.87  14.17
2236.0  211908.97  29874.83  14.10
2238.4  211063.87  29556.95  14.00
2240.9  210295.00  29235.80  13.90
2243.3  209395.52  28866.66  13.79
2245.7  208631.67  28480.75  13.65
2248.1  207667.20  28038.40  13.50
2250.5  206882.13  27653.02  13.37
2252.9  206226.20  27239.53  13.21
2255.3  205484.33  26799.87  13.04
2257.7  204606.97  26341.70  12.87
2260.1  203713.20  25919.73  12.72
2262.5  202662.40  25465.33  12.57
2264.9  201762.93  25040.29  12.41
2267.3  200829.20  24653.20  12.28
2269.7  199899.57  24250.30  12.13
2272.1  199123.00  23912.44  12.01
2274.5  198371.73  23564.82  11.88
2276.8  197711.47  23253.33  11.76
2279.2  196896.00  22951.67  11.66
2281.6  196284.25  22666.68  11.55
2284.0  195930.90  22403.70  11.43
2286.3  195434.73  22120.73  11.32
2288.7  194893.78  21852.73  11.21
2291.1  194407.00  21563.50  11.09
2293.4  193655.60  21264.87  10.98
2295.8  192933.22  20955.06  10.86
2298.2  192150.70  20626.70  10.73
2300.5  191058.75  20274.77  10.61
2302.9  189647.05  19939.60  10.51
2305.2  188268.25  19623.78  10.42
2307.6  186814.13  19325.60  10.34
2309.9  185792.72  19081.93  10.27
2312.2  184797.50  18903.28  10.23
2314.6  183777.93  18697.15  10.17
2316.9  182796.70  18476.15  10.11
2319.2  182099.68  18278.88  10.04
2321.6  181479.33  18092.74  9.97
2323.9  180660.60  17846.73  9.88
2326.2  179849.17  17615.13  9.79
2328.6  179168.05  17432.75  9.73
2330.9  178872.00  17258.98  9.65
2333.2  178371.75  17097.00  9.59
2335.5  177819.42  16952.00  9.53
2337.8  177389.00  16790.20  9.47
2340.1  176834.87  16602.69  9.39
2342.4  176381.55  16414.65  9.31
2344.8  175601.55  16179.49  9.21
2347.1  174862.40  15989.27  9.14
2349.4  174252.53  15810.27  9.07
2351.6  173470.00  15656.00  9.03
2353.9  172473.00  15483.73  8.98
2356.2  171747.13  15293.08  8.90
2358.5  170921.78  15110.99  8.84
2360.8  170247.92  14936.11  8.77
2363.1  169805.50  14849.00  8.74
2365.4  169371.00  14688.00  8.67
2367.7  168811.20  14506.35  8.59
2369.9  168089.72  14357.75  8.54
2372.2  166961.00  14151.13  8.48
2374.5  165792.50  13925.83  8.40
2376.7  164771.30  13720.17  8.33
2379.0  163545.80  13498.47  8.25
2381.3  162165.48  13232.63  8.16
2383.5  161196.00  13019.22  8.08
2385.8  160622.00  12831.20  7.99
2388.0  159736.03  12581.69  7.88
2390.3  159010.37  12338.86  7.76
2392.5  158531.42  12182.70  7.68
2394.8  157691.17  11991.00  7.60
2397.0  157155.33  11792.66  7.50
2399.3  156624.08  11594.57  7.40
2401.5  155886.60  11404.73  7.32
2403.8  155153.37  11224.14  7.23
2406.0  154734.80  11025.79  7.13
2408.2  153835.50  10890.25  7.08
2410.4  153014.62  10639.69  6.95
2412.7  152540.00  10467.40  6.86
2414.9  151969.80  10262.71  6.75
2417.1  152035.47  10092.44  6.64
2419.3  151598.07  9912.32  6.54
2421.6  150681.53  9703.40  6.44
2423.8  150104.43  9525.97  6.35
2426.0  149703.90  9388.50  6.27
2428.2  149341.50  9201.50  6.16
2430.4  149371.18  9068.89  6.07
2432.6  149151.00  8885.17  5.96
2434.8  148642.05  8730.63  5.87
2437.0  148167.50  8554.00  5.77
2439.2  147728.53  8406.81  5.69
2441.4  146826.40  8247.73  5.62
2443.6  146712.67  8136.47  5.55
2445.7  146824.67  7990.90  5.44
2447.9  146727.75  7834.23  5.34
2450.1  145950.67  7679.28  5.26
2452.3  145062.87  7513.31  5.18
2454.5  144647.07  7312.98  5.06
2456.6  143969.67  7184.67  4.99
2458.8  142751.93  7022.87  4.92
2461.0  142396.80  6874.98  4.83
2463.1  142014.50  6704.44  4.72
2465.3  141336.67  6661.11  4.71
2467.5  140850.67  6556.33  4.65
2469.6  140543.67  6417.86  4.57
2471.8  140205.47  6386.80  4.56
2473.9  139449.92  6281.53  4.50
2476.1  138691.67  6181.39  4.46
2478.2  138028.40  6066.32  4.39
2480.4  137204.85  5986.25  4.36
2482.5  136189.02  5914.22  4.34
2484.6  135218.00  5794.67  4.29
2486.8  134514.00  5646.27  4.20
2488.9  133878.00  5529.13  4.13
2491.1  132632.97  5409.54  4.08
2493.2  131458.93  5334.07  4.06
2495.3  129964.55  5295.82  4.07
2497.4  128649.50  5221.83  4.06
2499.5  127632.00  5170.28  4.05
2501.7  127695.50  5098.17  3.99
2503.8  128019.27  5033.08  3.93
2505.9  128722.50  5053.55  3.93
2508.0  129417.92  5084.86  3.93
2510.1  130419.00  5055.00  3.88
2512.2  131142.83  5126.56  3.91
2514.3  132127.45  5061.12  3.83
2516.4  133596.12  5151.23  3.86
