/*** Spectra Vista SIG Data ***/
name= 20_20220926_QURU_56_avg.sig
comm= Averaged Ref/Tar of files: HR.092622.0056_moc.sig,HR.092622.0057_moc.sig,HR.092622.0058_moc.sig
data=
337.3  3027.13  209.84  6.93
338.8  3174.60  207.97  6.55
340.3  3326.35  211.49  6.36
341.8  3520.83  204.67  5.81
343.2  3685.20  194.52  5.28
344.7  3881.15  190.91  4.92
346.2  4044.15  188.30  4.66
347.7  4247.10  186.51  4.39
349.2  4384.80  200.16  4.56
350.6  4664.08  201.46  4.32
352.1  4930.05  206.18  4.18
353.6  5205.00  195.64  3.76
355.1  5489.03  200.77  3.66
356.6  5735.63  207.26  3.61
358.0  6029.10  216.31  3.59
359.5  6303.60  212.47  3.37
361.0  6613.43  222.87  3.37
362.5  6996.73  226.39  3.24
364.0  7340.80  236.50  3.22
365.4  7699.40  239.25  3.11
366.9  8038.88  253.10  3.15
368.4  8427.98  261.32  3.10
369.9  8756.10  271.28  3.10
371.3  9184.80  280.73  3.06
372.8  9611.10  288.26  3.00
374.3  10051.25  296.39  2.95
375.8  10456.60  303.38  2.90
377.2  10867.60  308.97  2.84
378.7  11271.10  323.82  2.87
380.2  11701.50  325.36  2.78
381.7  12215.30  332.02  2.72
383.1  12693.45  338.80  2.67
384.6  13244.73  354.01  2.67
386.1  13701.68  363.42  2.65
387.6  14148.75  373.71  2.64
389.0  14632.80  382.86  2.62
390.5  15160.05  390.41  2.58
392.0  15737.75  406.07  2.58
393.4  16316.78  414.40  2.54
394.9  16860.60  427.54  2.54
396.4  17388.00  444.06  2.55
397.9  17937.50  461.25  2.57
399.3  18512.58  468.87  2.53
400.8  19117.48  485.68  2.54
402.2  19738.20  498.01  2.52
403.7  20367.45  511.76  2.51
405.2  20999.73  527.61  2.51
406.6  21599.20  541.77  2.51
408.1  22170.60  556.18  2.51
409.6  22784.10  570.70  2.50
411.0  23463.65  586.82  2.50
412.5  24157.00  604.52  2.50
414.0  24816.75  619.01  2.49
415.4  25519.50  636.00  2.49
416.9  26194.73  651.68  2.49
418.4  26892.00  673.01  2.50
419.8  27627.60  694.72  2.51
421.3  28359.58  711.98  2.51
422.7  29145.00  733.78  2.52
424.2  29936.25  750.86  2.51
425.7  30709.20  775.26  2.52
427.1  31491.75  796.07  2.53
428.6  32302.00  822.83  2.55
430.0  33066.33  843.15  2.55
431.5  33939.45  867.36  2.56
432.9  34823.05  898.26  2.58
434.4  35712.23  923.62  2.59
435.9  36582.00  956.00  2.61
437.3  37441.25  982.41  2.62
438.8  38308.65  1013.34  2.65
440.2  39198.78  1041.04  2.66
441.7  40173.20  1078.13  2.68
443.1  41075.00  1107.95  2.70
444.6  42051.00  1140.57  2.71
446.0  43012.13  1175.41  2.73
447.5  43996.70  1209.29  2.75
448.9  44956.50  1239.38  2.76
450.4  45972.50  1279.71  2.78
451.8  46852.00  1310.65  2.80
453.3  47789.13  1343.61  2.81
454.7  48813.38  1380.24  2.83
456.2  49699.55  1409.41  2.84
457.6  50697.23  1441.79  2.84
459.1  51674.35  1475.14  2.85
460.5  52630.63  1504.88  2.86
462.0  53707.78  1536.18  2.86
463.4  54758.90  1570.67  2.87
464.8  55763.63  1605.01  2.88
466.3  56759.18  1639.99  2.89
467.7  57735.65  1668.09  2.89
469.2  58819.43  1699.99  2.89
470.6  59810.85  1728.82  2.89
472.0  60888.45  1761.38  2.89
473.5  61909.88  1795.89  2.90
474.9  62956.50  1829.16  2.91
476.4  64108.80  1865.69  2.91
477.8  65206.50  1900.19  2.91
479.2  66221.50  1929.19  2.91
480.7  67337.70  1964.19  2.92
482.1  68478.55  2001.81  2.92
483.6  69692.35  2041.44  2.93
485.0  70782.75  2076.68  2.93
486.4  71993.40  2119.03  2.94
487.9  73081.13  2156.98  2.95
489.3  74258.18  2199.78  2.96
490.7  75333.10  2242.13  2.98
492.2  76557.60  2292.92  3.00
493.6  77659.65  2338.70  3.01
495.0  78784.88  2395.16  3.04
496.5  79978.75  2448.91  3.06
497.9  81108.73  2503.41  3.09
499.3  82297.40  2565.19  3.12
500.7  83563.60  2632.81  3.15
502.2  84738.40  2707.81  3.20
503.6  86008.60  2784.84  3.24
505.0  87094.25  2870.56  3.30
506.5  88398.83  2971.04  3.36
507.9  89572.65  3077.95  3.44
509.3  90931.20  3196.24  3.52
510.7  92196.00  3323.91  3.61
512.2  93595.35  3469.86  3.71
513.6  95083.10  3640.25  3.83
515.0  96545.08  3827.20  3.96
516.4  97935.08  4033.53  4.12
517.8  99581.25  4270.59  4.29
519.3  100931.83  4518.75  4.48
520.7  102522.85  4797.07  4.68
522.1  103820.28  5079.98  4.89
523.5  105167.40  5379.43  5.12
524.9  106647.75  5692.40  5.34
526.3  108127.25  5998.30  5.55
527.8  109637.55  6308.56  5.75
529.2  110632.50  6594.88  5.96
530.6  112175.35  6907.65  6.16
532.0  113932.00  7205.60  6.32
533.4  115278.90  7464.18  6.47
534.8  116155.18  7676.29  6.61
536.3  117828.60  7922.32  6.72
537.7  119851.20  8183.76  6.83
539.1  121339.63  8398.14  6.92
540.5  122560.55  8580.29  7.00
541.9  124332.23  8798.28  7.08
543.3  125611.90  8986.83  7.15
544.7  126939.00  9174.29  7.23
546.1  128749.23  9393.04  7.30
547.5  129998.40  9578.03  7.37
549.0  131681.00  9784.97  7.43
550.4  133216.25  9963.42  7.48
551.8  134783.15  10130.66  7.52
553.2  136321.65  10267.29  7.53
554.6  137675.20  10359.79  7.52
556.0  139228.20  10430.43  7.49
557.4  140853.65  10470.53  7.43
558.8  142519.50  10484.85  7.36
560.2  143994.63  10456.81  7.26
561.6  145678.95  10422.02  7.15
563.0  147299.45  10365.46  7.04
564.4  148913.25  10290.57  6.91
565.8  150439.38  10192.31  6.78
567.2  152198.50  10090.87  6.63
568.6  153707.25  9953.42  6.48
570.0  155164.55  9795.55  6.31
571.4  156898.95  9650.54  6.15
572.8  158687.00  9511.56  5.99
574.2  160328.00  9371.31  5.85
575.6  161898.75  9241.93  5.71
577.0  163443.20  9131.05  5.59
578.4  165187.75  9046.70  5.48
579.8  166731.75  8966.68  5.38
581.2  168462.55  8907.02  5.29
582.5  169907.40  8848.10  5.21
583.9  171454.00  8806.39  5.14
585.3  173258.33  8792.70  5.07
586.7  174771.35  8768.63  5.02
588.1  176285.38  8755.87  4.97
589.5  177955.75  8760.73  4.92
590.9  179601.60  8775.19  4.89
592.3  181422.80  8810.82  4.86
593.7  182887.58  8843.77  4.84
595.0  184513.28  8885.89  4.82
596.4  185974.95  8921.93  4.80
597.8  187482.43  8961.23  4.78
599.2  189050.40  8992.34  4.76
600.6  190827.33  9034.10  4.73
602.0  192138.60  9043.33  4.71
603.3  193941.15  9062.24  4.67
604.7  195620.88  9060.14  4.63
606.1  197133.00  9032.82  4.58
607.5  198779.38  9000.85  4.53
608.9  200507.55  8961.76  4.47
610.2  201908.70  8906.76  4.41
611.6  203529.60  8860.22  4.35
613.0  205103.30  8810.92  4.30
614.4  206479.05  8756.33  4.24
615.8  207967.50  8712.60  4.19
617.1  209533.80  8678.32  4.14
618.5  211181.20  8661.24  4.10
619.9  212696.18  8651.38  4.07
621.3  214351.43  8655.92  4.04
622.6  215955.25  8673.62  4.02
624.0  217443.30  8693.49  4.00
625.4  218932.73  8722.77  3.98
626.8  220529.40  8765.12  3.97
628.1  221844.43  8805.38  3.97
629.5  223649.35  8865.58  3.96
630.9  225154.05  8923.34  3.96
632.2  226446.50  8964.42  3.96
633.6  227985.13  9011.66  3.95
635.0  229499.60  9038.36  3.94
636.3  231024.20  9054.65  3.92
637.7  232408.00  9049.56  3.89
639.1  234080.00  9038.33  3.86
640.4  235572.40  9011.56  3.83
641.8  236805.13  8964.11  3.79
643.2  238380.63  8924.26  3.74
644.5  239750.25  8878.54  3.70
645.9  241399.80  8839.13  3.66
647.2  242824.75  8811.56  3.63
648.6  244539.00  8785.80  3.59
650.0  245937.60  8767.95  3.57
651.3  246555.65  8747.84  3.55
652.7  248294.60  8746.71  3.52
654.0  250388.60  8758.27  3.50
655.4  251868.73  8723.91  3.46
656.8  251992.70  8645.46  3.43
658.1  253354.70  8607.84  3.40
659.5  255797.33  8600.86  3.36
660.8  257467.50  8580.43  3.33
662.2  258496.00  8513.71  3.29
663.5  260107.45  8469.74  3.26
664.9  261222.00  8427.89  3.23
666.2  262026.60  8385.26  3.20
667.6  263747.55  8382.29  3.18
668.9  264781.38  8388.74  3.17
670.3  266374.38  8409.59  3.16
671.6  267624.00  8441.64  3.15
673.0  268863.00  8490.10  3.16
674.3  270150.40  8559.65  3.17
675.7  271500.43  8634.06  3.18
677.0  272581.40  8721.06  3.20
678.4  273902.90  8834.75  3.23
679.7  275004.15  8959.77  3.26
681.1  276312.78  9107.93  3.30
682.4  277443.40  9282.00  3.35
683.8  278681.00  9486.58  3.40
685.1  279704.25  9714.35  3.47
686.4  280985.40  9996.77  3.56
687.8  282263.50  10326.97  3.66
689.1  283309.25  10727.47  3.79
690.5  284627.25  11243.12  3.95
691.8  285522.40  11881.36  4.16
693.1  286816.95  12738.36  4.44
694.5  287992.25  13822.03  4.80
695.8  289243.50  15175.33  5.25
697.1  290426.50  16838.90  5.80
698.5  291513.40  18818.95  6.46
699.8  292620.88  21132.24  7.22
701.1  293777.30  23761.67  8.09
702.5  294593.20  26627.90  9.04
703.8  295560.00  29738.14  10.06
705.1  296727.60  33050.61  11.14
706.5  297811.25  36510.46  12.26
707.8  298819.50  40092.92  13.42
709.1  299690.80  43751.47  14.60
710.5  300829.38  47551.40  15.81
711.8  301652.10  51395.34  17.04
713.1  302655.60  55343.50  18.29
714.4  303592.20  59326.07  19.54
715.8  304439.60  63354.09  20.81
717.1  305792.70  67517.86  22.08
718.4  306768.00  71630.93  23.35
719.7  307862.55  75791.69  24.62
721.0  308385.00  79793.14  25.87
722.4  309183.05  83811.26  27.11
723.7  310146.45  87837.99  28.32
725.0  311241.60  91814.63  29.50
726.3  312200.35  95668.49  30.64
727.6  312725.33  99286.58  31.75
729.0  313659.85  102887.84  32.80
730.3  314475.45  106314.54  33.81
731.6  315395.60  109623.85  34.76
732.9  316214.15  112744.99  35.65
734.2  317011.75  115715.15  36.50
735.5  318058.00  118613.50  37.29
736.8  318883.50  121268.61  38.03
738.1  319758.10  123789.71  38.71
739.5  320753.90  126195.80  39.34
740.8  321479.13  128345.97  39.92
742.1  322174.10  130360.86  40.46
743.4  322850.00  132235.71  40.96
744.7  323750.50  134089.72  41.42
746.0  324632.10  135797.78  41.83
747.3  325214.03  137258.87  42.21
748.6  325917.75  138661.54  42.54
749.9  326586.00  139938.93  42.85
751.2  327214.95  141097.43  43.12
752.5  328025.60  142250.02  43.37
753.8  328571.08  143215.32  43.59
755.1  329290.00  144161.83  43.78
756.4  329934.45  145003.33  43.95
757.7  330943.90  145952.95  44.10
759.0  332769.03  147192.18  44.23
760.3  333960.00  148101.49  44.35
761.6  335559.00  149141.39  44.45
762.9  336113.75  149689.94  44.54
764.2  336492.10  150119.93  44.61
765.5  336758.53  150473.14  44.68
766.8  337144.00  150858.97  44.75
768.1  337677.60  151265.74  44.80
769.3  338270.10  151682.63  44.84
770.6  338921.70  152114.55  44.88
771.9  339621.45  152555.55  44.92
773.2  340004.80  152835.82  44.95
774.5  340626.00  153202.85  44.98
775.8  341266.65  153584.21  45.00
777.1  341812.90  153910.89  45.03
778.4  342124.48  154116.38  45.05
779.6  342907.60  154516.78  45.06
780.9  343350.00  154773.14  45.08
782.2  343821.50  155023.47  45.09
783.5  344101.00  155204.91  45.10
784.8  344592.68  155484.24  45.12
786.0  344955.10  155689.48  45.13
787.3  345343.70  155892.38  45.14
788.6  345746.80  156109.20  45.15
789.9  346182.20  156335.60  45.16
791.2  346826.03  156651.00  45.17
792.4  347490.55  156966.02  45.17
793.7  347927.80  157207.76  45.18
795.0  348532.80  157495.64  45.19
796.2  349163.45  157809.19  45.20
797.5  349854.38  158135.00  45.20
798.8  350488.75  158459.50  45.21
800.0  351149.03  158755.11  45.21
801.3  351614.00  158974.77  45.21
802.6  352153.35  159250.53  45.22
803.8  352753.58  159546.60  45.23
805.1  353223.50  159777.25  45.23
806.4  353682.30  160003.31  45.24
807.7  354200.85  160252.40  45.24
808.9  354756.60  160506.64  45.24
810.2  355238.10  160743.25  45.25
811.4  355687.00  160983.55  45.26
812.7  356362.50  161278.16  45.26
814.0  357182.00  161666.98  45.26
815.2  357797.50  161982.05  45.27
816.5  358196.08  162181.39  45.28
817.7  358697.35  162399.05  45.27
819.0  359157.70  162652.80  45.29
820.2  359304.00  162749.71  45.30
821.5  360012.95  163090.72  45.30
822.7  360343.73  163258.20  45.31
824.0  360682.20  163412.74  45.31
825.2  361142.55  163644.15  45.31
826.5  361464.65  163820.03  45.32
827.7  362012.45  164079.01  45.32
829.0  362367.83  164289.56  45.34
830.2  362715.75  164453.74  45.34
831.5  363186.30  164690.69  45.35
832.7  363502.65  164861.20  45.35
834.0  363885.38  165029.35  45.35
835.2  364208.35  165215.64  45.36
836.4  364487.20  165379.92  45.37
837.7  364928.60  165599.07  45.38
838.9  365312.48  165832.40  45.39
840.1  365731.20  166038.89  45.40
841.4  366151.50  166261.80  45.41
842.6  366509.80  166459.60  45.42
843.8  366894.60  166641.66  45.42
845.1  367435.85  166914.81  45.43
846.3  367812.00  167127.22  45.44
847.5  368262.30  167347.40  45.44
848.8  368698.80  167579.23  45.45
850.0  369071.15  167783.86  45.46
851.2  369659.70  168044.60  45.46
852.5  369982.20  168239.42  45.47
853.7  370489.50  168507.81  45.48
854.9  370953.20  168742.60  45.49
856.1  371438.60  168998.38  45.50
857.4  371681.00  169112.92  45.50
858.6  372220.30  169366.74  45.50
859.8  372613.13  169561.75  45.51
861.0  373042.80  169770.34  45.51
862.2  373499.13  170019.52  45.52
863.5  373920.95  170207.47  45.52
864.7  374470.80  170441.29  45.52
865.9  374927.20  170654.30  45.52
867.1  375273.15  170811.94  45.52
868.3  375672.15  171032.96  45.53
869.5  376207.45  171281.69  45.53
870.8  376762.50  171534.86  45.53
872.0  377346.00  171785.22  45.52
873.2  377698.95  172001.45  45.54
874.4  378211.28  172201.60  45.53
875.6  378612.15  172370.22  45.53
876.8  379055.00  172621.72  45.54
878.0  379672.50  172841.38  45.52
879.2  380190.00  173075.40  45.52
880.4  380744.63  173317.19  45.52
881.6  381179.53  173544.68  45.53
882.8  381604.80  173733.76  45.53
884.0  382228.63  173997.61  45.52
885.2  382722.80  174212.29  45.52
886.5  383387.75  174472.63  45.51
887.7  383956.63  174699.94  45.50
888.8  384541.58  175004.60  45.51
890.0  385146.70  175255.27  45.50
891.2  385669.20  175481.36  45.50
892.4  386276.63  175727.47  45.49
893.6  386845.25  176001.17  45.50
894.8  387774.25  176417.34  45.49
896.0  388663.00  176767.09  45.48
897.2  389398.75  177130.01  45.49
898.4  390172.20  177448.61  45.48
899.6  390777.75  177673.73  45.47
900.8  391126.75  177820.85  45.46
902.0  391437.00  177922.02  45.45
903.2  391775.25  178059.55  45.45
904.3  391956.00  178166.96  45.46
905.5  392553.80  178414.19  45.45
906.7  393050.50  178661.97  45.46
907.9  393697.85  178881.69  45.44
909.1  393998.85  179006.07  45.43
910.2  394236.83  179074.39  45.42
911.4  394433.33  179140.54  45.42
912.6  394551.30  179222.58  45.42
913.8  394812.90  179291.20  45.41
915.0  395216.85  179409.16  45.40
916.2  395333.25  179473.17  45.40
917.3  395446.05  179483.25  45.39
918.5  395634.10  179545.43  45.38
919.7  395702.40  179632.15  45.40
920.8  395882.40  179606.56  45.37
922.0  396030.25  179630.73  45.36
923.2  396123.00  179680.80  45.36
924.4  396444.38  179734.63  45.34
925.5  396628.10  179776.41  45.33
926.7  397083.88  180024.37  45.34
927.9  398083.80  180378.17  45.31
929.0  399512.25  180946.85  45.29
930.2  401667.60  181846.86  45.27
931.4  404207.55  182883.52  45.24
932.5  406716.90  184028.25  45.25
933.7  408190.65  184586.36  45.22
934.9  408734.38  184808.83  45.21
936.0  408343.00  184517.14  45.19
937.2  406179.75  183507.69  45.18
938.3  404335.85  182572.37  45.15
939.5  402865.20  181775.59  45.12
940.7  402933.60  181735.95  45.10
941.8  404530.05  182355.12  45.08
943.0  406001.25  182872.56  45.04
944.2  406761.55  183140.55  45.02
945.3  406253.25  182787.06  44.99
946.5  405699.30  182267.12  44.93
947.6  405809.60  182189.33  44.90
948.8  405512.25  181965.89  44.87
949.9  405657.00  181799.76  44.82
951.1  405261.03  181396.82  44.76
952.2  404940.00  181183.09  44.74
953.4  404552.00  180804.90  44.69
954.5  404562.60  180614.57  44.64
955.7  404409.60  180278.88  44.58
956.8  404204.50  179948.04  44.52
958.0  403794.50  179554.23  44.47
959.1  403596.30  179294.44  44.42
960.3  402916.20  178981.88  44.42
961.4  402956.90  178771.78  44.36
962.6  403019.75  178611.47  44.32
963.7  402823.65  178362.96  44.28
964.9  402644.10  178132.12  44.24
966.0  402478.88  178082.67  44.25
967.2  402300.45  178047.16  44.26
968.3  402140.70  177928.07  44.25
969.5  401749.28  177761.77  44.25
970.6  401616.48  177805.10  44.27
971.8  402127.78  177727.27  44.20
972.9  401833.58  177629.26  44.20
974.0  402160.60  177637.23  44.17
975.2  401845.25  177462.97  44.16
976.3  401548.00  177432.32  44.19
977.5  401621.85  177418.10  44.18
978.6  401300.30  177469.12  44.22
979.7  401365.13  177413.70  44.20
980.9  400872.33  177243.59  44.21
982.0  400278.30  177160.97  44.26
983.2  400054.28  176857.91  44.21
984.3  399149.20  176657.32  44.26
985.4  398638.18  176625.17  44.31
986.6  398567.13  176680.84  44.33
987.7  399161.70  176908.27  44.32
988.9  398473.20  176578.32  44.31
990.0  399507.30  176810.31  44.26
993.1  377562.62  165589.75  43.86
996.9  376781.38  165756.07  43.99
1000.7  377151.89  166302.84  44.09
1004.5  377286.00  166753.11  44.20
1008.4  376749.88  166956.97  44.32
1012.2  376486.96  167222.83  44.42
1016.0  376066.80  167428.63  44.52
1019.8  375548.25  167567.40  44.62
1023.7  374787.78  167512.46  44.70
1027.5  373617.27  167282.97  44.77
1031.3  373181.40  167275.53  44.82
1035.1  372564.09  167171.33  44.87
1038.9  372337.90  167196.23  44.90
1042.7  372143.33  167237.58  44.94
1046.5  371975.33  167275.86  44.97
1050.3  371987.38  167363.27  44.99
1054.2  371587.42  167312.17  45.03
1058.0  371112.64  167149.83  45.04
1061.8  371026.91  167177.84  45.06
1065.6  370611.33  166989.62  45.06
1069.4  370200.33  166804.27  45.06
1073.2  369275.91  166400.20  45.06
1077.0  368556.88  166063.99  45.06
1080.8  368269.79  165886.91  45.04
1084.6  367797.27  165574.38  45.02
1088.4  367637.61  165446.11  45.00
1092.2  366999.75  165070.29  44.98
1096.0  366433.01  164694.88  44.95
1099.8  365861.17  164286.79  44.90
1103.6  365085.18  163765.42  44.86
1107.4  364078.30  163127.79  44.81
1111.2  363811.80  162832.47  44.76
1114.9  363188.58  162345.83  44.70
1118.7  362745.90  161868.18  44.62
1122.5  362270.13  161292.11  44.52
1126.3  361247.08  160399.39  44.40
1130.1  360826.87  159560.25  44.22
1133.9  359207.10  157941.90  43.97
1137.7  357744.00  156189.91  43.66
1141.4  355806.53  154064.32  43.30
1145.2  354976.35  152265.17  42.89
1149.0  353777.08  150396.88  42.51
1152.8  352071.55  148481.91  42.17
1156.6  350339.73  146822.50  41.91
1160.3  348623.67  145405.57  41.71
1164.1  346294.33  143949.46  41.57
1167.9  344592.71  142908.04  41.47
1171.7  343294.88  142121.25  41.40
1175.4  341962.63  141369.95  41.34
1179.2  340669.78  140633.66  41.28
1183.0  340279.33  140252.05  41.22
1186.7  339996.30  139925.40  41.15
1190.5  339344.33  139483.67  41.10
1194.3  338336.63  138960.10  41.07
1198.0  336988.30  138371.67  41.06
1201.8  335352.20  137701.76  41.06
1205.6  334218.33  137295.76  41.08
1209.3  333508.47  137132.38  41.12
1213.1  332884.65  137035.55  41.17
1216.8  332214.12  137015.61  41.24
1220.6  331202.67  136884.00  41.33
1224.3  330049.50  136684.30  41.41
1228.1  328694.20  136448.51  41.51
1231.9  327287.08  136132.03  41.59
1235.6  325691.33  135690.60  41.66
1239.4  324224.00  135326.59  41.74
1243.1  322902.49  134958.05  41.80
1246.9  321646.86  134568.96  41.84
1250.6  320630.07  134254.06  41.87
1254.3  319493.81  133865.26  41.90
1258.1  318333.17  133446.25  41.92
1261.8  316915.20  132908.86  41.94
1265.6  315571.92  132341.12  41.94
1269.3  314432.65  131828.83  41.93
1273.1  314628.27  131822.72  41.90
1276.8  314683.20  131741.20  41.86
1280.6  313994.50  131319.12  41.82
1284.3  312223.20  130424.51  41.77
1288.0  310800.53  129627.06  41.71
1291.8  309907.24  128975.07  41.62
1295.5  308921.07  128223.12  41.51
1299.2  307810.34  127359.84  41.38
1302.9  306329.15  126262.50  41.22
1306.7  304685.27  125026.65  41.03
1310.4  303097.33  123693.70  40.81
1314.1  301624.77  122342.00  40.56
1317.9  300334.17  120943.19  40.27
1321.6  298835.28  119382.63  39.95
1325.3  297207.23  117634.88  39.58
1329.0  295870.05  115963.38  39.19
1332.8  293878.20  113935.80  38.77
1336.5  292173.47  111994.09  38.33
1340.2  291943.17  110612.67  37.89
1343.9  291787.08  109245.80  37.44
1347.6  291618.75  107898.39  37.00
1351.4  292500.50  107012.00  36.59
1355.1  293733.00  106274.09  36.18
1358.8  294720.00  105387.43  35.76
1362.5  294643.80  104005.25  35.30
1366.2  292864.10  101823.44  34.77
1369.9  290322.00  99123.50  34.14
1373.6  287853.94  96062.73  33.37
1377.3  286152.30  92694.73  32.39
1381.0  285325.50  88863.55  31.14
1384.8  283432.50  83882.50  29.60
1388.4  280651.35  78147.08  27.84
1392.2  278579.42  72257.82  25.94
1395.9  277056.23  66430.49  23.98
1399.6  275360.41  60837.95  22.09
1403.3  274068.93  55854.28  20.38
1407.0  272677.60  51496.00  18.89
1410.7  271193.18  47846.82  17.64
1414.3  269629.79  44889.72  16.65
1418.1  268215.83  42600.40  15.88
1421.7  267037.05  40843.90  15.30
1425.4  265876.65  39512.06  14.86
1429.1  264757.50  38545.13  14.56
1432.8  263174.33  37787.84  14.36
1436.5  262344.87  37339.59  14.23
1440.2  261628.97  37082.02  14.17
1443.9  260445.90  36876.80  14.16
1447.6  258904.80  36718.00  14.18
1451.2  257785.55  36672.17  14.23
1454.9  256428.90  36650.01  14.29
1458.6  255275.54  36767.61  14.40
1462.3  254108.43  36999.18  14.56
1466.0  252755.88  37347.50  14.78
1469.7  251091.32  37805.97  15.06
1473.3  250045.50  38486.14  15.39
1477.0  248109.53  39127.45  15.77
1480.7  246480.67  39876.21  16.18
1484.4  244520.03  40579.60  16.60
1488.0  242953.33  41389.33  17.04
1491.7  241346.17  42186.60  17.48
1495.4  239644.73  42972.04  17.93
1499.0  238090.00  43752.71  18.38
1502.7  236822.58  44586.63  18.83
1506.4  235433.59  45370.28  19.27
1510.0  234018.63  46125.21  19.71
1513.7  232554.00  46839.92  20.14
1517.4  231239.67  47549.81  20.56
1521.0  230021.47  48251.90  20.98
1524.7  228783.75  48893.31  21.37
1528.3  227511.38  49500.05  21.76
1532.0  226290.17  50081.90  22.13
1535.7  224915.05  50574.34  22.49
1539.3  223645.03  51069.11  22.83
1543.0  222704.48  51598.69  23.17
1546.6  222009.67  52164.67  23.50
1550.3  221020.55  52621.27  23.81
1553.9  219972.50  53031.97  24.11
1557.6  218711.53  53358.69  24.40
1561.2  217452.60  53635.76  24.67
1564.9  216148.43  53891.10  24.93
1568.5  214844.58  54117.23  25.19
1572.2  213700.50  54361.46  25.44
1575.8  212604.00  54610.00  25.69
1579.5  211614.15  54855.89  25.92
1583.1  210586.08  55088.92  26.16
1586.8  209314.00  55234.00  26.39
1590.4  208170.47  55401.59  26.61
1594.0  206829.35  55499.55  26.83
1597.7  205869.78  55679.56  27.05
1601.3  204786.23  55827.23  27.26
1604.9  203695.04  55939.89  27.46
1608.6  202408.75  55969.29  27.65
1612.2  201244.73  55997.82  27.83
1615.8  199982.25  55985.85  28.00
1619.5  198827.42  55972.84  28.15
1623.1  197516.60  55902.58  28.30
1626.7  196306.83  55822.14  28.44
1630.3  195125.58  55744.20  28.57
1634.0  194012.00  55664.00  28.69
1637.6  193036.87  55581.42  28.79
1641.2  192035.40  55451.34  28.88
1644.8  190815.21  55211.96  28.93
1648.5  189716.11  54985.68  28.98
1652.1  188756.70  54740.23  29.00
1655.7  187851.80  54457.00  28.99
1659.3  187031.58  54171.81  28.96
1662.9  185625.83  53693.69  28.93
1666.6  184203.00  53202.14  28.88
1670.2  182786.45  52686.62  28.82
1673.8  181332.00  52134.95  28.75
1677.4  180191.25  51645.79  28.66
1681.0  179371.80  51200.83  28.54
1684.6  178956.92  50818.70  28.40
1688.2  178290.00  50307.29  28.22
1691.8  177619.33  49835.23  28.06
1695.4  177173.40  49409.91  27.89
1699.0  176820.70  49005.37  27.71
1702.6  176486.33  48592.05  27.53
1706.2  175868.12  48088.84  27.34
1709.8  174931.91  47502.77  27.16
1713.4  174189.77  46976.22  26.97
1717.0  173327.25  46424.57  26.78
1720.6  172512.90  45901.71  26.61
1724.2  171786.75  45397.58  26.43
1727.8  171058.30  44941.45  26.27
1731.4  170610.00  44614.43  26.15
1735.0  170411.45  44423.97  26.07
1738.6  170197.20  44206.86  25.97
1742.2  169630.15  43848.70  25.85
1745.8  168998.08  43440.61  25.70
1749.4  168051.68  42915.91  25.54
1753.0  166579.47  42224.04  25.35
1756.6  164924.96  41507.84  25.17
1760.1  163612.92  40895.48  25.00
1763.7  161904.67  40214.95  24.84
1767.3  160475.63  39658.78  24.71
1770.9  159241.83  39182.39  24.61
1774.5  157813.41  38677.57  24.51
1778.0  156686.85  38269.98  24.42
1781.6  155590.50  37898.81  24.36
1785.2  154441.98  37541.04  24.31
1788.8  153280.10  37217.18  24.28
1792.3  152074.37  36901.66  24.27
1795.9  151554.98  36777.22  24.27
1799.5  151152.00  36700.28  24.28
1803.1  151396.12  36787.80  24.30
1806.6  152929.99  37160.06  24.30
1810.2  154588.23  37563.80  24.30
1813.8  155581.10  37812.24  24.30
1817.3  155346.20  37766.94  24.31
1820.9  154291.35  37515.54  24.31
1824.5  152938.28  37185.30  24.31
1828.0  151883.88  36891.97  24.29
1831.6  151190.80  36668.54  24.25
1835.2  150676.67  36422.50  24.17
1838.7  150361.87  36148.55  24.04
1842.3  150045.00  35802.86  23.86
1845.8  149047.88  35179.57  23.60
1849.4  148436.20  34520.30  23.26
1852.9  147681.45  33664.98  22.80
1856.5  146710.02  32564.88  22.20
1860.0  145796.53  31245.56  21.43
1863.6  145631.23  29859.91  20.50
1867.1  145843.60  28285.25  19.39
1870.7  146244.60  26387.30  18.04
1874.2  145404.45  23942.83  16.47
1877.8  143486.00  21210.29  14.78
1881.3  141233.38  18406.82  13.03
1884.9  139704.86  15838.06  11.34
1888.4  138351.22  13461.42  9.73
1891.9  136922.87  11427.10  8.35
1895.5  135555.60  9805.68  7.23
1899.0  134772.75  8628.07  6.40
1901.3  175352.33  7495.28  4.27
1904.1  175214.25  6761.75  3.86
1906.8  174163.20  6166.40  3.54
1909.6  172086.25  5674.08  3.30
1912.4  170044.12  5310.86  3.12
1915.1  168559.05  5060.37  3.00
1917.9  166957.50  4871.55  2.92
1920.6  165559.37  4713.98  2.85
1923.3  164125.97  4605.53  2.81
1926.1  162344.77  4524.71  2.79
1928.8  160644.00  4478.22  2.79
1931.6  159237.08  4462.78  2.80
1934.3  157942.25  4461.94  2.83
1937.0  156709.00  4477.40  2.86
1939.8  155402.00  4502.05  2.90
1942.5  153813.00  4539.33  2.95
1945.2  151869.85  4587.55  3.02
1947.9  150289.30  4642.09  3.09
1950.7  149068.63  4717.30  3.16
1953.4  147261.00  4790.92  3.25
1956.1  145864.17  4887.25  3.35
1958.8  144613.30  4990.63  3.45
1961.5  143133.60  5106.00  3.57
1964.2  141614.20  5220.37  3.69
1966.9  140021.60  5342.52  3.82
1969.6  138780.00  5481.00  3.95
1972.3  137371.50  5618.87  4.09
1975.0  136307.70  5776.10  4.24
1977.7  135194.77  5942.43  4.40
1980.4  134051.10  6110.37  4.56
1983.1  132946.60  6284.72  4.73
1985.8  132005.10  6464.10  4.90
1988.4  130970.67  6653.11  5.08
1991.1  130035.27  6843.36  5.26
1993.8  129172.45  7031.20  5.44
1996.5  128526.20  7240.87  5.63
1999.1  127836.87  7441.93  5.82
2001.8  127151.73  7643.38  6.01
2004.5  126471.65  7836.90  6.20
2007.1  125753.70  8030.08  6.39
2009.8  125002.03  8216.06  6.57
2012.4  124433.28  8404.12  6.75
2015.1  123871.07  8590.17  6.93
2017.8  123085.43  8745.57  7.11
2020.4  122580.70  8915.38  7.27
2023.1  122230.73  9085.14  7.43
2025.7  122009.33  9258.89  7.59
2028.3  121671.33  9412.00  7.74
2031.0  121271.43  9554.56  7.88
2033.6  120973.50  9697.60  8.02
2036.2  120721.20  9825.20  8.14
2038.9  120129.60  9915.10  8.25
2041.5  119767.00  10012.54  8.36
2044.1  119198.70  10080.40  8.46
2046.8  118833.30  10161.60  8.55
2049.4  118198.20  10222.50  8.65
2052.0  117900.00  10314.07  8.75
2054.6  117512.50  10395.00  8.85
2057.2  116939.33  10462.53  8.95
2059.8  116607.47  10564.42  9.06
2062.4  115722.47  10614.00  9.17
2065.0  115201.40  10692.51  9.28
2067.6  114301.65  10736.03  9.39
2070.2  113700.20  10802.85  9.50
2072.8  113063.88  10866.78  9.61
2075.4  112621.25  10957.92  9.73
2078.0  111987.50  11023.08  9.84
2080.6  111434.40  11090.93  9.95
2083.2  110740.53  11139.51  10.06
2085.8  110248.40  11207.53  10.17
2088.4  109577.50  11253.67  10.27
2090.9  108780.03  11282.39  10.37
2093.5  107891.37  11297.31  10.47
2096.1  107130.32  11330.50  10.58
2098.7  106348.60  11356.85  10.68
2101.2  105385.13  11364.98  10.78
2103.8  104712.67  11397.00  10.88
2106.4  104040.20  11426.11  10.98
2108.9  103393.93  11461.05  11.08
2111.5  102546.80  11469.78  11.18
2114.0  101918.00  11504.71  11.29
2116.6  101395.00  11535.42  11.38
2119.1  100825.43  11566.15  11.47
2121.7  100327.50  11596.67  11.56
2124.2  99913.70  11633.37  11.64
2126.8  99119.92  11620.35  11.72
2129.3  98709.60  11657.07  11.81
2131.9  98128.80  11654.13  11.88
2134.4  97695.15  11670.20  11.95
2136.9  97299.15  11690.47  12.01
2139.4  96770.80  11686.27  12.08
2142.0  96327.47  11686.27  12.13
2144.5  96048.80  11709.43  12.19
2147.0  95801.07  11741.38  12.26
2149.5  95300.80  11735.42  12.31
2152.1  95142.48  11762.18  12.36
2154.6  95073.07  11801.78  12.41
2157.1  94557.50  11781.08  12.46
2159.6  94130.58  11778.05  12.51
2162.1  93966.60  11796.63  12.55
2164.6  93726.27  11803.31  12.59
2167.1  93394.50  11806.70  12.64
2169.6  93079.12  11806.55  12.68
2172.1  92610.33  11787.89  12.73
2174.6  92296.00  11808.82  12.79
2177.1  91849.30  11805.31  12.85
2179.5  91433.77  11794.90  12.90
2182.0  90947.45  11796.58  12.97
2184.5  90408.42  11782.34  13.03
2187.0  89795.90  11766.51  13.10
2189.5  89105.40  11740.37  13.18
2191.9  88331.00  11697.67  13.24
2194.4  87697.65  11663.73  13.30
2196.9  86947.20  11619.20  13.36
2199.3  86275.00  11580.67  13.42
2201.8  85380.80  11514.53  13.49
2204.3  84904.35  11492.04  13.54
2206.7  84276.60  11445.70  13.58
2209.2  83800.78  11411.95  13.62
2211.6  83169.90  11365.20  13.67
2214.1  82873.55  11339.68  13.68
2216.5  82307.60  11274.33  13.70
2219.0  81979.80  11237.91  13.71
2221.4  81594.33  11176.08  13.70
2223.9  81128.25  11096.75  13.68
2226.3  80602.67  11004.20  13.65
2228.7  80035.23  10888.14  13.60
2231.1  79427.70  10754.70  13.54
2233.6  78830.93  10598.86  13.45
2236.0  78282.17  10445.56  13.34
2238.4  77786.33  10290.19  13.23
2240.9  77321.07  10118.76  13.09
2243.3  76794.60  9939.96  12.94
2245.7  76207.05  9751.00  12.80
2248.1  75706.80  9564.68  12.63
2250.5  75184.48  9364.37  12.46
2252.9  74570.60  9152.72  12.27
2255.3  74008.10  8955.00  12.10
2257.7  73520.00  8770.00  11.93
2260.1  73042.67  8581.85  11.75
2262.5  72420.00  8393.33  11.59
2264.9  71880.00  8216.28  11.43
2267.3  71260.00  8043.33  11.29
2269.7  70765.10  7886.20  11.14
2272.1  70196.80  7726.19  11.01
2274.5  69633.75  7587.34  10.90
2276.8  69155.07  7455.74  10.78
2279.2  68571.15  7319.75  10.67
2281.6  68131.20  7204.38  10.57
2284.0  67659.90  7086.83  10.47
2286.3  67194.13  6964.98  10.37
2288.7  66772.12  6856.78  10.27
2291.1  66230.13  6730.12  10.16
2293.4  65788.80  6604.89  10.04
2295.8  65168.10  6464.97  9.92
2298.2  64542.60  6334.20  9.81
2300.5  63859.50  6192.75  9.70
2302.9  63105.67  6045.00  9.58
2305.2  62397.40  5898.47  9.45
2307.6  61703.98  5770.45  9.35
2309.9  60935.67  5652.33  9.28
2312.2  60336.33  5562.78  9.22
2314.6  59729.85  5488.95  9.19
2316.9  59036.40  5409.60  9.16
2319.2  58468.00  5342.29  9.14
2321.6  57824.78  5267.81  9.11
2323.9  57270.83  5187.50  9.06
2326.2  56746.90  5098.42  8.98
2328.6  56210.55  5009.03  8.91
2330.9  55692.00  4921.00  8.84
2333.2  55213.25  4840.11  8.77
2335.5  54773.30  4750.80  8.67
2337.8  54304.87  4661.99  8.58
2340.1  53744.13  4561.35  8.49
2342.4  53300.00  4477.78  8.40
2344.8  52869.42  4392.14  8.31
2347.1  52300.03  4309.90  8.24
2349.4  51745.28  4237.75  8.19
2351.6  51150.38  4142.27  8.10
2353.9  50676.10  4074.98  8.04
2356.2  50147.28  4009.41  8.00
2358.5  49560.00  3931.20  7.93
2360.8  48966.40  3849.07  7.86
2363.1  48512.08  3791.23  7.82
2365.4  48047.60  3725.23  7.75
2367.7  47583.60  3659.40  7.69
2369.9  47048.05  3583.85  7.62
2372.2  46405.60  3497.33  7.54
2374.5  45818.85  3422.65  7.47
2376.7  45200.45  3345.60  7.40
2379.0  44578.93  3261.21  7.32
2381.3  43948.33  3177.22  7.23
2383.5  43436.80  3105.42  7.15
2385.8  42842.43  3024.03  7.06
2388.0  42314.80  2953.93  6.98
2390.3  41794.40  2879.64  6.89
2392.5  41304.00  2816.00  6.82
2394.8  40825.40  2746.70  6.73
2397.0  40343.33  2681.47  6.65
2399.3  39888.23  2611.29  6.55
2401.5  39445.00  2552.08  6.47
2403.8  38896.03  2471.55  6.35
2406.0  38392.33  2408.83  6.27
2408.2  37985.93  2347.89  6.18
2410.4  37562.35  2296.93  6.11
2412.7  37147.07  2228.49  6.00
2414.9  36773.55  2171.58  5.91
2417.1  36360.10  2120.90  5.83
2419.3  35955.20  2056.53  5.72
2421.6  35572.50  1997.78  5.62
2423.8  35204.50  1949.32  5.54
2426.0  34834.28  1899.89  5.45
2428.2  34456.80  1842.40  5.35
2430.4  34142.00  1804.15  5.28
2432.6  33866.67  1755.56  5.18
2434.8  33550.33  1706.48  5.09
2437.0  33193.77  1665.73  5.02
2439.2  32831.98  1617.50  4.93
2441.4  32529.13  1572.38  4.83
2443.6  32289.55  1529.05  4.74
2445.7  32014.97  1490.14  4.65
2447.9  31730.00  1461.25  4.61
2450.1  31401.75  1419.05  4.52
2452.3  31028.43  1369.32  4.41
2454.5  30678.55  1337.96  4.36
2456.6  30302.40  1298.27  4.28
2458.8  29929.90  1258.40  4.20
2461.0  29626.25  1220.61  4.12
2463.1  29332.80  1193.10  4.07
2465.3  29061.80  1165.79  4.01
2467.5  28792.00  1145.58  3.98
2469.6  28535.58  1118.75  3.92
2471.8  28231.33  1091.21  3.87
2473.9  27904.17  1065.89  3.82
2476.1  27542.67  1036.39  3.76
2478.2  27221.97  1005.40  3.69
2480.4  26939.25  987.52  3.67
2482.5  26584.88  965.13  3.63
2484.6  26226.75  940.20  3.58
2486.8  25952.10  926.30  3.57
2488.9  25663.70  899.65  3.51
2491.1  25291.47  883.25  3.49
2493.2  24892.03  862.20  3.46
2495.3  24498.93  833.73  3.40
2497.4  24150.00  815.73  3.38
2499.5  23821.87  809.17  3.40
2501.7  23696.87  788.80  3.33
2503.8  23603.93  785.68  3.33
2505.9  23540.83  785.83  3.34
2508.0  23524.88  782.41  3.33
2510.1  23534.47  768.98  3.27
2512.2  23653.15  764.58  3.23
2514.3  23805.10  778.32  3.27
2516.4  24053.70  794.57  3.30
