/*** Spectra Vista SIG Data ***/
name= 33_20220926_ACRU_32_avg.sig
comm= Averaged Ref/Tar of files: HR.092722.0017_moc.sig,HR.092722.0018_moc.sig,HR.092722.0019_moc.sig
data=
337.3  6317.33  456.49  7.23
338.8  6541.60  450.77  6.89
340.3  6900.33  473.53  6.86
341.8  7258.00  471.77  6.50
343.2  7638.95  450.05  5.89
344.7  8158.13  438.37  5.37
346.2  8471.75  438.67  5.18
347.7  8943.95  432.69  4.84
349.2  9223.20  430.56  4.67
350.6  9642.60  449.43  4.66
352.1  10188.00  477.06  4.68
353.6  10732.80  470.46  4.38
355.1  11309.25  478.98  4.24
356.6  11973.80  498.29  4.16
358.0  12538.35  490.92  3.92
359.5  13048.65  516.84  3.96
361.0  13757.60  537.65  3.91
362.5  14418.75  549.29  3.81
364.0  15105.53  572.22  3.79
365.4  15822.95  572.22  3.62
366.9  16523.38  592.31  3.58
368.4  17157.45  623.07  3.63
369.9  17914.00  645.09  3.60
371.3  18803.95  677.32  3.60
372.8  19585.15  712.46  3.64
374.3  20461.40  726.38  3.55
375.8  21288.48  748.61  3.52
377.2  22060.35  748.13  3.39
378.7  22966.30  767.55  3.34
380.2  23726.25  778.32  3.28
381.7  24687.00  804.81  3.26
383.1  25677.08  814.48  3.17
384.6  26655.53  841.20  3.16
386.1  27627.90  862.68  3.12
387.6  28495.65  891.27  3.13
389.0  29515.28  914.69  3.10
390.5  30486.65  936.45  3.07
392.0  31619.25  950.23  3.01
393.4  32777.25  983.46  3.00
394.9  33746.70  1011.21  3.00
396.4  34964.60  1033.20  2.95
397.9  35971.80  1052.58  2.93
399.3  36895.10  1067.30  2.89
400.8  38112.53  1104.23  2.90
402.2  39332.70  1151.13  2.93
403.7  40564.80  1172.41  2.89
405.2  41720.50  1199.48  2.88
406.6  42944.40  1242.51  2.89
408.1  44025.00  1263.73  2.87
409.6  45213.18  1297.92  2.87
411.0  46424.95  1328.01  2.86
412.5  47849.00  1361.71  2.85
414.0  49179.55  1408.16  2.86
415.4  50503.50  1444.06  2.86
416.9  51822.03  1478.84  2.85
418.4  53143.48  1519.42  2.86
419.8  54509.70  1565.50  2.87
421.3  55994.40  1615.02  2.88
422.7  57460.00  1667.47  2.90
424.2  58962.23  1708.05  2.90
425.7  60403.75  1757.75  2.91
427.1  61921.90  1799.90  2.91
428.6  63412.80  1839.82  2.90
430.0  64940.98  1896.65  2.92
431.5  66614.28  1960.29  2.94
432.9  68298.63  2009.49  2.94
434.4  70033.35  2056.93  2.94
435.9  71679.50  2115.35  2.95
437.3  73378.50  2157.39  2.94
438.8  75015.13  2211.60  2.95
440.2  76712.65  2263.31  2.95
441.7  78604.60  2329.30  2.96
443.1  80438.40  2391.07  2.97
444.6  82255.60  2451.94  2.98
446.0  84076.48  2514.66  2.99
447.5  86050.00  2576.67  2.99
448.9  87785.85  2633.50  3.00
450.4  89700.00  2702.86  3.01
451.8  91530.38  2760.88  3.02
453.3  93365.85  2825.50  3.03
454.7  95216.63  2889.73  3.03
456.2  96987.80  2951.63  3.04
457.6  98906.40  3010.09  3.04
459.1  100764.83  3064.46  3.04
460.5  102628.55  3121.14  3.04
462.0  104687.10  3194.64  3.05
463.4  106677.73  3258.58  3.05
464.8  108652.95  3327.24  3.06
466.3  110601.38  3382.05  3.06
467.7  112608.00  3446.89  3.06
469.2  114545.85  3514.50  3.07
470.6  116556.13  3580.50  3.07
472.0  118618.88  3644.04  3.07
473.5  120637.33  3712.00  3.08
474.9  122845.45  3780.91  3.08
476.4  124933.20  3851.76  3.08
477.8  127036.00  3918.93  3.08
479.2  129111.18  4004.11  3.10
480.7  131258.70  4072.09  3.10
482.1  133481.50  4143.54  3.10
483.6  135677.70  4221.14  3.11
485.0  137944.73  4301.22  3.12
486.4  140066.18  4388.26  3.13
487.9  142323.50  4477.49  3.15
489.3  144455.85  4565.87  3.16
490.7  146688.20  4665.26  3.18
492.2  148912.00  4766.46  3.20
493.6  151206.90  4880.00  3.23
495.0  153504.98  5015.72  3.27
496.5  155669.85  5145.12  3.31
497.9  157992.00  5290.18  3.35
499.3  160290.38  5455.03  3.40
500.7  162611.80  5627.12  3.46
502.2  164975.13  5826.18  3.53
503.6  167282.40  6047.69  3.62
505.0  169610.10  6303.26  3.72
506.5  172070.85  6600.76  3.84
507.9  174487.38  6938.26  3.98
509.3  176764.95  7310.85  4.14
510.7  179433.15  7737.66  4.31
512.2  182061.30  8242.77  4.53
513.6  184953.48  8814.97  4.77
515.0  187709.20  9456.63  5.04
516.4  190567.00  10166.18  5.33
517.8  193393.25  10952.94  5.66
519.3  196329.60  11813.61  6.02
520.7  199022.40  12724.10  6.39
522.1  201692.08  13687.37  6.79
523.5  204272.38  14677.11  7.19
524.9  207187.88  15689.33  7.57
526.3  209831.85  16681.44  7.95
527.8  212655.13  17665.71  8.31
529.2  215251.20  18640.46  8.66
530.6  217982.70  19600.68  8.99
532.0  220871.30  20501.51  9.28
533.4  223399.45  21319.47  9.54
534.8  225929.55  22089.49  9.78
536.3  228886.28  22837.00  9.98
537.7  231878.50  23539.13  10.15
539.1  234758.88  24199.95  10.31
540.5  237638.25  24842.07  10.45
541.9  240627.10  25488.43  10.59
543.3  243203.80  26078.68  10.72
544.7  246202.00  26706.74  10.85
546.1  249029.20  27323.81  10.97
547.5  251942.40  27938.47  11.09
549.0  255014.80  28538.03  11.19
550.4  257862.15  29090.49  11.28
551.8  260837.88  29599.18  11.35
553.2  263727.60  30025.78  11.39
554.6  266584.80  30353.41  11.39
556.0  269524.50  30591.52  11.35
557.4  272649.90  30752.51  11.28
558.8  275522.90  30807.47  11.18
560.2  278740.00  30822.48  11.06
561.6  281672.33  30720.10  10.91
563.0  284477.70  30521.68  10.73
564.4  287671.30  30305.39  10.53
565.8  290696.75  30008.91  10.32
567.2  293895.13  29666.85  10.09
568.6  296904.83  29248.37  9.85
570.0  299784.88  28754.14  9.59
571.4  303211.30  28263.33  9.32
572.8  306362.40  27765.38  9.06
574.2  309249.68  27268.69  8.82
575.6  312351.50  26828.59  8.59
577.0  315360.10  26428.77  8.38
578.4  318784.38  26098.75  8.19
579.8  321853.50  25789.07  8.01
581.2  324916.75  25527.74  7.86
582.5  327847.50  25280.57  7.71
583.9  330897.90  25075.50  7.58
585.3  333790.40  24889.03  7.46
586.7  336774.90  24737.24  7.35
588.1  339760.60  24614.12  7.24
589.5  343123.50  24551.21  7.16
590.9  346081.95  24498.45  7.08
592.3  349039.35  24479.00  7.01
593.7  351982.75  24497.82  6.96
595.0  354928.80  24525.97  6.91
596.4  358224.88  24592.14  6.86
597.8  360912.90  24619.99  6.82
599.2  364026.00  24669.65  6.78
600.6  367205.85  24707.40  6.73
602.0  370178.40  24707.06  6.67
603.3  373100.00  24650.97  6.61
604.7  376092.73  24564.58  6.53
606.1  379122.00  24431.63  6.44
607.5  382434.75  24279.54  6.35
608.9  385492.80  24078.41  6.25
610.2  388691.33  23858.95  6.14
611.6  391600.00  23602.33  6.03
613.0  394415.85  23340.75  5.92
614.4  397177.28  23082.54  5.81
615.8  400425.00  22865.91  5.71
617.1  403137.68  22642.90  5.62
618.5  406392.23  22490.40  5.53
619.9  409122.00  22356.82  5.46
621.3  412065.55  22263.43  5.40
622.6  414969.75  22220.53  5.35
624.0  417653.25  22201.82  5.32
625.4  420719.18  22238.89  5.29
626.8  423667.40  22321.28  5.27
628.1  426474.65  22406.05  5.25
629.5  429196.25  22514.59  5.25
630.9  431999.55  22599.92  5.23
632.2  434908.83  22666.62  5.21
633.6  437294.65  22645.50  5.18
635.0  440150.30  22578.77  5.13
636.3  443184.83  22437.67  5.06
637.7  445888.50  22191.91  4.98
639.1  448865.45  21870.77  4.87
640.4  451587.63  21490.30  4.76
641.8  454381.20  21071.11  4.64
643.2  456923.75  20623.39  4.51
644.5  459760.00  20210.67  4.40
645.9  462342.65  19814.18  4.29
647.2  464721.95  19476.01  4.19
648.6  467346.00  19215.98  4.11
650.0  470138.40  19034.54  4.05
651.3  473009.95  18917.31  4.00
652.7  476926.50  18865.67  3.96
654.0  479719.00  18773.65  3.91
655.4  481895.93  18653.42  3.87
656.8  483595.35  18526.43  3.83
658.1  486297.00  18385.33  3.78
659.5  489456.00  18201.60  3.72
660.8  492276.75  17985.88  3.65
662.2  495011.10  17775.86  3.59
663.5  497772.53  17584.96  3.53
664.9  499646.63  17386.30  3.48
666.2  501831.53  17244.90  3.44
667.6  504407.25  17160.26  3.40
668.9  507038.40  17130.24  3.38
670.3  510212.50  17135.30  3.36
671.6  512192.00  17172.40  3.35
673.0  514481.60  17270.13  3.36
674.3  516924.10  17394.96  3.37
675.7  519401.70  17571.02  3.38
677.0  521689.88  17761.04  3.40
678.4  523870.80  18015.78  3.44
679.7  526207.95  18328.06  3.48
681.1  528723.90  18685.08  3.53
682.4  530831.63  19130.09  3.60
683.8  533077.50  19695.09  3.69
685.1  535252.05  20400.26  3.81
686.4  537509.38  21319.94  3.97
687.8  539881.43  22567.35  4.18
689.1  542204.60  24222.69  4.47
690.5  544237.85  26446.20  4.86
691.8  546768.20  29492.23  5.39
693.1  549187.50  33453.57  6.09
694.5  551537.70  38399.40  6.96
695.8  553897.50  44345.10  8.01
697.1  556169.90  51212.24  9.21
698.5  558487.25  58944.44  10.55
699.8  560783.20  67377.36  12.01
701.1  562683.98  76289.45  13.56
702.5  564742.50  85535.50  15.15
703.8  567124.25  94980.78  16.75
705.1  568932.75  104308.76  18.33
706.5  571174.50  113614.62  19.89
707.8  573006.95  122710.58  21.42
709.1  575244.25  131708.95  22.90
710.5  577395.50  140528.66  24.34
711.8  579296.00  149119.09  25.74
713.1  581145.00  157565.10  27.11
714.4  583203.88  165907.68  28.45
715.8  585475.40  174164.12  29.75
717.1  587659.85  182269.71  31.02
718.4  589924.80  190212.17  32.24
719.7  592056.45  197986.57  33.44
721.0  593724.53  205438.00  34.60
722.4  595560.60  212716.84  35.72
723.7  597500.10  219797.08  36.79
725.0  599203.35  226544.96  37.81
726.3  601473.60  233237.93  38.78
727.6  603127.50  239473.41  39.71
729.0  604920.05  245459.67  40.58
730.3  606820.53  251220.71  41.40
731.6  608260.30  256471.37  42.16
732.9  610178.73  261643.27  42.88
734.2  611745.75  266419.53  43.55
735.5  613490.35  270966.23  44.17
736.8  615492.33  275357.49  44.74
738.1  617313.23  279401.57  45.26
739.5  619082.70  283144.27  45.74
740.8  620948.90  286733.17  46.18
742.1  622421.00  289930.91  46.58
743.4  624033.55  293024.97  46.96
744.7  625828.00  295973.07  47.29
746.0  627315.35  298532.75  47.59
747.3  628854.10  300941.55  47.86
748.6  630335.35  303165.82  48.10
749.9  631967.93  305347.28  48.32
751.2  633160.48  307134.57  48.51
752.5  634638.75  308960.93  48.68
753.8  635879.25  310572.43  48.84
755.1  637461.08  312195.47  48.97
756.4  638555.68  313494.85  49.09
757.7  640516.25  315136.22  49.20
759.0  644037.38  317474.10  49.29
760.3  646643.20  319299.72  49.38
761.6  649477.90  321124.97  49.44
762.9  650826.00  322187.43  49.50
764.2  651567.45  322881.21  49.55
765.5  652335.93  323576.77  49.60
766.8  652841.45  324081.37  49.64
768.1  653791.95  324803.70  49.68
769.3  654977.90  325575.58  49.71
770.6  656346.50  326423.93  49.73
771.9  657430.28  327124.52  49.76
773.2  658786.05  327933.78  49.78
774.5  659650.50  328459.54  49.79
775.8  660680.33  329069.53  49.81
777.1  661775.13  329731.58  49.83
778.4  662975.63  330431.63  49.84
779.6  664178.40  331116.98  49.85
780.9  664825.73  331521.08  49.87
782.2  665748.23  332051.45  49.88
783.5  666571.00  332538.91  49.89
784.8  667264.50  332964.10  49.90
786.0  667979.65  333398.75  49.91
787.3  668742.03  333830.92  49.92
788.6  669595.63  334293.17  49.92
789.9  670248.20  334660.77  49.93
791.2  671510.45  335357.23  49.94
792.4  672617.00  335915.83  49.94
793.7  673990.15  336691.16  49.95
795.0  674978.55  337227.35  49.96
796.2  676267.65  337886.01  49.96
797.5  677366.88  338482.63  49.97
798.8  678738.38  339191.77  49.97
800.0  679770.00  339754.67  49.98
801.3  680896.13  340349.85  49.99
802.6  681912.00  340874.06  49.99
803.8  682900.05  341421.53  50.00
805.1  683860.88  341920.24  50.00
806.4  684723.58  342417.73  50.01
807.7  685767.55  342966.55  50.01
808.9  686888.40  343553.52  50.02
810.2  687800.40  343974.20  50.01
811.4  688790.80  344504.59  50.02
812.7  690143.55  345181.66  50.02
814.0  691267.50  345831.64  50.03
815.2  692502.00  346543.25  50.04
816.5  693595.00  347133.17  50.05
817.7  694388.50  347514.40  50.05
819.0  695156.00  347854.53  50.04
820.2  695948.55  348272.25  50.04
821.5  696956.40  348846.96  50.05
822.7  697902.63  349396.26  50.06
824.0  698766.90  349886.83  50.07
825.2  699381.15  350223.45  50.08
826.5  700201.25  350615.94  50.07
827.7  701280.98  351154.07  50.07
829.0  702075.08  351606.24  50.08
830.2  703033.20  352100.07  50.08
831.5  703969.43  352557.14  50.08
832.7  704858.40  353054.24  50.09
834.0  705524.85  353400.18  50.09
835.2  706418.10  353935.87  50.10
836.4  707154.40  354285.55  50.10
837.7  707833.13  354713.04  50.11
838.9  709158.55  355351.72  50.11
840.1  709952.10  355825.71  50.12
841.4  710971.30  356352.50  50.12
842.6  711984.00  356846.12  50.12
843.8  712827.70  357268.38  50.12
845.1  713560.65  357713.62  50.13
846.3  714391.65  358210.00  50.14
847.5  715367.25  358725.22  50.15
848.8  716311.45  359257.08  50.15
850.0  717421.00  359883.06  50.16
851.2  718506.20  360353.79  50.15
852.5  719640.20  360918.00  50.15
853.7  720432.90  361321.52  50.15
854.9  721449.30  361915.43  50.17
856.1  722498.65  362465.05  50.17
857.4  723471.60  362967.65  50.17
858.6  724493.00  363437.01  50.16
859.8  725630.50  364012.38  50.16
861.0  726847.45  364488.35  50.15
862.2  727841.10  365080.32  50.16
863.5  728760.90  365583.27  50.17
864.7  729675.00  366129.88  50.18
865.9  730654.75  366621.90  50.18
867.1  731437.50  366958.10  50.17
868.3  732725.50  367552.18  50.16
869.5  734005.25  368157.24  50.16
870.8  735047.55  368752.14  50.17
872.0  736026.55  369246.77  50.17
873.2  736978.23  369671.71  50.16
874.4  737976.70  370060.34  50.15
875.6  739227.20  370653.36  50.14
876.8  740551.35  371355.63  50.15
878.0  741540.80  371863.08  50.15
879.2  742654.35  372371.63  50.14
880.4  743680.00  372873.94  50.14
881.6  744636.50  373278.48  50.13
882.8  746179.40  373928.61  50.11
884.0  747014.13  374331.48  50.11
885.2  748229.50  375029.15  50.12
886.5  749737.45  375640.61  50.10
887.7  750590.38  376076.49  50.10
888.8  751928.80  376714.39  50.10
890.0  752823.75  377153.00  50.10
891.2  754025.03  377586.26  50.08
892.4  755511.08  378242.24  50.06
893.6  757313.75  379104.23  50.06
894.8  758841.45  379785.60  50.05
896.0  760086.25  380537.63  50.07
897.2  762005.48  381303.45  50.04
898.4  764078.70  382249.84  50.03
899.6  765323.10  382855.64  50.03
900.8  765687.65  383076.77  50.03
902.0  766340.85  383299.27  50.02
903.2  766506.70  383274.96  50.00
904.3  767593.13  383847.75  50.01
905.5  768710.25  384424.07  50.01
906.7  770069.90  384970.31  49.99
907.9  770974.48  385326.57  49.98
909.1  771913.45  385750.42  49.97
910.2  772301.25  385843.50  49.96
911.4  772296.08  385932.78  49.97
912.6  772847.50  386138.52  49.96
913.8  773827.25  386621.88  49.96
915.0  774137.60  386693.51  49.95
916.2  774356.48  386680.72  49.94
917.3  775158.50  386909.45  49.91
918.5  775690.80  387048.22  49.90
919.7  775638.00  387023.24  49.90
920.8  775531.45  387034.21  49.91
922.0  775637.23  387012.22  49.90
923.2  776317.65  387117.08  49.87
924.4  776763.00  387211.77  49.85
925.5  777542.60  387468.51  49.83
926.7  778301.45  387776.15  49.82
927.9  779635.28  388406.68  49.82
929.0  782838.00  389911.06  49.81
930.2  786824.20  391861.07  49.80
931.4  791883.23  394162.02  49.78
932.5  796770.70  396212.58  49.73
933.7  799497.75  397349.32  49.70
934.9  800633.75  397916.50  49.70
936.0  799677.90  397344.06  49.69
937.2  796534.43  395654.87  49.67
938.3  792353.25  393493.84  49.66
939.5  790229.70  392056.30  49.61
940.7  790455.05  391778.49  49.56
941.8  793322.40  392943.76  49.53
943.0  795240.38  393819.65  49.52
944.2  796782.00  394513.14  49.51
945.3  795910.20  393938.67  49.50
946.5  794263.75  392754.83  49.45
947.6  795354.50  392927.50  49.40
948.8  794102.08  392024.56  49.37
949.9  794426.15  391966.69  49.34
951.1  794675.08  391689.10  49.29
952.2  793734.18  390917.54  49.25
953.4  793527.75  390295.45  49.18
954.5  791999.25  389088.70  49.13
955.7  791783.70  388568.02  49.08
956.8  792025.43  388313.25  49.03
958.0  791298.90  387354.57  48.95
959.1  790624.80  386838.72  48.93
960.3  789950.00  386412.14  48.92
961.4  790157.90  386377.38  48.90
962.6  789688.80  385644.34  48.83
963.7  789731.60  385551.31  48.82
964.9  790489.15  385474.92  48.76
966.0  791032.20  385659.09  48.75
967.2  791032.20  385531.36  48.74
968.3  792162.70  385968.08  48.72
969.5  792001.95  385981.58  48.73
970.6  791978.55  385951.92  48.73
971.8  791776.13  385541.96  48.69
972.9  793142.00  385674.80  48.63
974.0  793830.00  385864.38  48.61
975.2  792888.75  385262.36  48.59
976.3  793037.03  385765.06  48.64
977.5  791576.03  385042.82  48.64
978.6  791642.85  384667.06  48.59
979.7  790820.80  384071.89  48.57
980.9  790173.85  384235.24  48.63
982.0  790519.50  383836.49  48.55
983.2  789511.80  384041.84  48.64
984.3  787721.20  382818.17  48.60
985.4  787212.30  382707.67  48.62
986.6  786894.73  382646.85  48.63
987.7  785502.63  382097.54  48.64
988.9  786086.00  382134.05  48.61
990.0  784214.50  382087.91  48.72
993.1  865287.60  418630.03  48.38
996.9  864089.20  418955.03  48.49
1000.7  863285.13  419229.25  48.56
1004.5  861740.93  419155.73  48.64
1008.4  862236.53  420150.93  48.73
1012.2  862880.96  421159.21  48.81
1016.0  862203.00  421385.55  48.87
1019.8  860155.84  420959.64  48.94
1023.7  858186.25  420492.96  49.00
1027.5  855245.87  419570.92  49.06
1031.3  853320.52  418943.21  49.10
1035.1  851983.65  418600.54  49.13
1038.9  851356.53  418500.35  49.16
1042.7  850874.50  418470.41  49.18
1046.5  850075.63  418216.25  49.20
1050.3  848336.56  417478.28  49.21
1054.2  846171.15  416535.59  49.23
1058.0  845218.80  416057.66  49.22
1061.8  843989.25  415527.44  49.23
1065.6  842082.38  414483.27  49.22
1069.4  839478.42  413134.55  49.21
1073.2  837209.75  411875.75  49.20
1077.0  835574.67  410891.28  49.17
1080.8  835028.33  410352.91  49.14
1084.6  834621.33  409878.07  49.11
1088.4  834022.42  409376.09  49.08
1092.2  832762.23  408452.23  49.05
1096.0  831280.17  407400.84  49.01
1099.8  829733.63  406236.54  48.96
1103.6  827798.03  404862.39  48.91
1107.4  826208.50  403579.98  48.85
1111.2  824660.87  402347.40  48.79
1114.9  823546.50  401226.00  48.72
1118.7  823036.83  400200.55  48.62
1122.5  822999.99  399315.29  48.52
1126.3  820663.20  397147.50  48.39
1130.1  820069.63  395559.01  48.23
1133.9  816603.66  392095.45  48.02
1137.7  813824.00  388597.66  47.75
1141.4  810040.38  384193.82  47.43
1145.2  808904.18  380721.55  47.07
1149.0  806799.00  376943.14  46.72
1152.8  803415.05  372869.56  46.41
1156.6  799897.46  369304.56  46.17
1160.3  796683.60  366412.80  45.99
1164.1  792055.20  363311.39  45.87
1167.9  789020.79  361256.75  45.79
1171.7  786465.80  359623.64  45.73
1175.4  783885.59  358147.09  45.69
1179.2  781710.00  356782.61  45.64
1183.0  781780.13  356437.00  45.59
1186.7  781977.00  356124.33  45.54
1190.5  780764.71  355221.80  45.50
1194.3  778049.65  353662.33  45.45
1198.0  774824.85  352044.08  45.44
1201.8  772207.33  350782.67  45.43
1205.6  770642.88  350149.27  45.44
1209.3  769629.00  349941.00  45.47
1213.1  768483.58  349691.61  45.50
1216.8  766776.13  349378.80  45.56
1220.6  764554.17  348868.19  45.63
1224.3  762300.00  348307.14  45.69
1228.1  760060.51  347822.37  45.76
1231.9  757595.80  347105.94  45.82
1235.6  755044.40  346300.51  45.86
1239.4  752601.62  345554.87  45.91
1243.1  750402.00  344738.96  45.94
1246.9  748310.84  343924.60  45.96
1250.6  746179.00  343034.58  45.97
1254.3  744110.40  342177.94  45.98
1258.1  741922.67  341152.66  45.98
1261.8  739315.50  339950.77  45.98
1265.6  736969.47  338723.90  45.96
1269.3  734884.87  337547.36  45.93
1273.1  735507.55  337517.59  45.89
1276.8  735375.60  337124.37  45.84
1280.6  734285.08  336249.89  45.79
1284.3  731344.48  334484.64  45.74
1288.0  729398.37  333021.20  45.66
1291.8  728103.60  331651.80  45.55
1295.5  726678.63  330175.31  45.44
1299.2  724364.55  328188.90  45.31
1302.9  721464.79  325773.00  45.15
1306.7  718305.53  323090.78  44.98
1310.4  715182.95  320157.30  44.77
1314.1  712606.88  317306.79  44.53
1317.9  710017.64  314196.57  44.25
1321.6  707130.67  310713.87  43.94
1325.3  704230.88  306990.38  43.59
1329.0  701562.40  303226.00  43.22
1332.8  697812.50  298788.04  42.82
1336.5  694391.38  294426.83  42.40
1340.2  692608.20  290771.58  41.98
1343.9  692028.98  287642.39  41.57
1347.6  691945.63  284712.11  41.15
1351.4  692483.75  282154.47  40.75
1355.1  694695.74  280350.56  40.36
1358.8  694742.22  277543.83  39.95
1362.5  695141.94  274561.00  39.50
1366.2  692493.58  269860.23  38.97
1369.9  687127.00  263392.43  38.33
1373.6  682349.53  256132.41  37.54
1377.3  680066.83  248325.06  36.51
1381.0  678052.83  238704.20  35.20
1384.8  674360.15  226408.37  33.57
1388.4  669178.55  212237.97  31.72
1392.2  664660.90  197246.57  29.68
1395.9  662833.02  182714.80  27.57
1399.6  658681.18  168126.05  25.52
1403.3  656022.00  155198.40  23.66
1407.0  653288.63  143907.11  22.03
1410.7  651412.04  134708.22  20.68
1414.3  648860.50  127223.36  19.61
1418.1  646296.88  121468.75  18.79
1421.7  644014.00  117080.13  18.18
1425.4  642293.36  113884.43  17.73
1429.1  638384.25  111205.50  17.42
1432.8  636857.40  109620.31  17.21
1436.5  633468.88  108205.97  17.08
1440.2  630198.00  107209.91  17.01
1443.9  628098.80  106692.61  16.99
1447.6  624532.80  106183.77  17.00
1451.2  621403.25  105908.32  17.04
1454.9  619574.20  106045.82  17.12
1458.6  615759.93  106119.81  17.23
1462.3  614864.53  107025.26  17.41
1466.0  614851.54  108517.11  17.65
1469.7  612986.73  110135.67  17.97
1473.3  610758.87  112055.53  18.35
1477.0  606449.93  113870.50  18.78
1480.7  603196.96  116041.70  19.24
1484.4  599407.90  118148.09  19.71
1488.0  596289.75  120487.62  20.21
1491.7  592757.42  122721.97  20.70
1495.4  589292.53  124973.00  21.21
1499.0  586354.60  127241.54  21.70
1502.7  583602.00  129523.19  22.19
1506.4  580856.61  131726.03  22.68
1510.0  578085.63  133862.08  23.16
1513.7  575401.75  135912.83  23.62
1517.4  572823.53  137908.30  24.08
1521.0  570405.09  139856.55  24.52
1524.7  567937.28  141646.08  24.94
1528.3  565480.25  143393.37  25.36
1532.0  562897.20  144966.04  25.75
1535.7  560197.13  146375.35  26.13
1539.3  557625.57  147730.56  26.49
1543.0  555958.08  149265.67  26.85
1546.6  554581.42  150790.12  27.19
1550.3  553032.92  152142.62  27.51
1553.9  550614.40  153204.13  27.82
1557.6  548385.13  154209.63  28.12
1561.2  545914.38  154997.34  28.39
1564.9  543215.17  155683.33  28.66
1568.5  540488.00  156262.48  28.91
1572.2  538127.80  156901.27  29.16
1575.8  536229.95  157629.87  29.40
1579.5  534324.22  158258.41  29.62
1583.1  531970.83  158724.15  29.84
1586.8  529685.08  159149.29  30.05
1590.4  527348.47  159490.07  30.24
1594.0  524941.50  159767.47  30.44
1597.7  523004.88  160155.27  30.62
1601.3  520991.33  160486.65  30.80
1604.9  518597.57  160613.98  30.97
1608.6  515780.33  160531.94  31.12
1612.2  512869.33  160357.78  31.27
1615.8  510326.40  160245.68  31.40
1619.5  508051.61  160148.51  31.52
1623.1  505305.90  159845.28  31.63
1626.7  502489.80  159414.02  31.72
1630.3  499918.80  158971.29  31.80
1634.0  497522.03  158467.95  31.85
1637.6  495324.17  157856.07  31.87
1641.2  493088.05  157010.03  31.84
1644.8  490577.53  155864.64  31.77
1648.5  487892.95  154635.97  31.69
1652.1  485720.77  153575.07  31.62
1655.7  483881.16  152790.65  31.58
1659.3  482082.30  152305.43  31.59
1662.9  478866.28  151562.13  31.65
1666.6  475277.83  150785.21  31.73
1670.2  471927.50  150008.10  31.79
1673.8  468673.38  149109.37  31.82
1677.4  466125.08  148257.94  31.81
1681.0  464487.00  147469.97  31.75
1684.6  463539.08  146726.51  31.65
1688.2  462061.60  145568.80  31.50
1691.8  460358.32  144395.05  31.37
1695.4  459538.25  143439.23  31.21
1699.0  458638.10  142427.14  31.05
1702.6  458047.20  141449.39  30.88
1706.2  456480.07  140066.93  30.68
1709.8  454311.09  138496.44  30.48
1713.4  452701.60  137152.60  30.30
1717.0  451034.52  135940.37  30.14
1720.6  449275.13  134779.27  30.00
1724.2  447779.63  133716.73  29.86
1727.8  446372.36  132784.37  29.75
1731.4  445628.37  132154.72  29.66
1735.0  445629.45  131833.25  29.58
1738.6  445106.63  131260.34  29.49
1742.2  444260.53  130393.77  29.35
1745.8  442624.00  129168.15  29.18
1749.4  440312.28  127631.81  28.99
1753.0  436643.20  125632.45  28.77
1756.6  432808.25  123653.75  28.57
1760.1  429573.20  121886.80  28.37
1763.7  425728.68  120036.43  28.20
1767.3  422638.86  118504.77  28.04
1770.9  420011.58  117145.01  27.89
1774.5  416890.08  115733.41  27.76
1778.0  414727.40  114662.34  27.65
1781.6  412454.03  113721.52  27.57
1785.2  409791.97  112753.69  27.51
1788.8  407028.96  111871.43  27.48
1792.3  404710.44  111164.73  27.47
1795.9  404178.23  110961.80  27.45
1799.5  404765.87  111135.86  27.46
1803.1  407426.79  111886.51  27.46
1806.6  410380.58  112673.31  27.46
1810.2  412746.08  113321.33  27.46
1813.8  412478.93  113251.35  27.46
1817.3  411626.05  113027.28  27.46
1820.9  410368.75  112695.98  27.46
1824.5  409209.13  112314.72  27.45
1828.0  409520.22  112242.50  27.41
1831.6  410562.46  112288.22  27.35
1835.2  410347.99  111831.18  27.25
1838.7  410765.83  111309.33  27.10
1842.3  409141.25  110049.25  26.90
1845.8  407220.55  108381.65  26.61
1849.4  406598.50  106689.97  26.24
1852.9  404704.17  104202.23  25.75
1856.5  403010.08  101206.26  25.11
1860.0  402541.82  97841.03  24.31
1863.6  402020.84  93742.94  23.32
1867.1  402458.82  89089.92  22.14
1870.7  403865.28  83550.89  20.69
1874.2  402436.78  76463.42  19.00
1877.8  397672.37  68344.08  17.19
1881.3  392944.20  60042.92  15.28
1884.9  389690.43  52242.33  13.41
1888.4  386818.96  44918.08  11.61
1891.9  384440.60  38597.74  10.04
1895.5  382389.47  33494.63  8.76
1899.0  381111.08  29685.11  7.79
1901.3  409648.53  22344.98  5.45
1904.1  409665.00  20165.11  4.92
1906.8  407767.67  18437.44  4.52
1909.6  403753.33  17060.00  4.23
1912.4  399630.10  15999.52  4.00
1915.1  395404.03  15202.47  3.84
1917.9  391241.05  14599.08  3.73
1920.6  388038.70  14192.10  3.66
1923.3  385082.40  13919.71  3.61
1926.1  381444.00  13718.60  3.60
1928.8  377309.40  13598.87  3.60
1931.6  375811.63  13596.41  3.62
1934.3  371636.35  13557.53  3.65
1937.0  367446.00  13601.80  3.70
1939.8  363827.25  13697.44  3.76
1942.5  359023.33  13779.42  3.84
1945.2  355156.92  13944.25  3.93
1947.9  352154.83  14165.02  4.02
1950.7  347794.68  14351.86  4.13
1953.4  344204.73  14608.10  4.24
1956.1  341475.47  14917.42  4.37
1958.8  339246.83  15266.61  4.50
1961.5  336283.85  15606.85  4.64
1964.2  332892.27  15962.71  4.80
1966.9  329904.00  16340.71  4.95
1969.6  327184.83  16752.37  5.12
1972.3  324635.67  17187.82  5.29
1975.0  322152.00  17649.33  5.48
1977.7  319888.20  18115.18  5.66
1980.4  317671.20  18623.73  5.86
1983.1  315306.77  19125.60  6.07
1985.8  313180.80  19658.80  6.28
1988.4  311131.15  20193.98  6.49
1991.1  309392.30  20746.60  6.71
1993.8  307890.10  21308.23  6.92
1996.5  306347.30  21896.93  7.15
1999.1  304953.17  22477.01  7.37
2001.8  303732.05  23073.94  7.60
2004.5  302496.40  23667.47  7.82
2007.1  301023.73  24218.89  8.05
2009.8  299083.75  24731.39  8.27
2012.4  297759.73  25275.33  8.49
2015.1  296651.13  25827.73  8.71
2017.8  295492.57  26355.22  8.92
2020.4  294377.75  26864.48  9.13
2023.1  293921.77  27417.11  9.33
2025.7  293663.80  27963.07  9.52
2028.3  292859.75  28437.26  9.71
2031.0  292276.18  28901.51  9.89
2033.6  291994.00  29382.00  10.06
2036.2  291626.30  29807.09  10.22
2038.9  290680.00  30146.13  10.37
2041.5  289708.33  30458.34  10.51
2044.1  288895.83  30791.67  10.66
2046.8  287748.78  31051.53  10.79
2049.4  286895.80  31300.00  10.91
2052.0  286716.27  31628.88  11.03
2054.6  286317.07  31923.02  11.15
2057.2  285269.60  32164.40  11.28
2059.8  283794.00  32361.00  11.40
2062.4  282421.97  32554.82  11.53
2065.0  281017.50  32725.73  11.65
2067.6  279154.40  32847.05  11.77
2070.2  277661.03  33008.31  11.89
2072.8  276782.00  33213.28  12.00
2075.4  275738.17  33379.83  12.11
2078.0  275091.58  33623.49  12.22
2080.6  273835.20  33780.70  12.34
2083.2  272533.58  33929.03  12.45
2085.8  271230.40  34039.02  12.55
2088.4  270163.27  34189.98  12.66
2090.9  268513.50  34220.83  12.74
2093.5  266579.80  34218.60  12.84
2096.1  264800.25  34227.05  12.93
2098.7  263321.22  34273.08  13.02
2101.2  261379.60  34247.13  13.10
2103.8  259934.08  34273.81  13.19
2106.4  258507.43  34264.75  13.25
2108.9  257499.23  34323.20  13.33
2111.5  256517.92  34346.28  13.39
2114.0  255861.67  34428.33  13.46
2116.6  253672.47  34267.20  13.51
2119.1  252588.00  34228.13  13.55
2121.7  252043.63  34268.90  13.60
2124.2  251913.00  34351.11  13.64
2126.8  250756.80  34278.58  13.67
2129.3  249642.73  34264.69  13.73
2131.9  249818.93  34424.71  13.78
2134.4  248993.97  34450.03  13.84
2136.9  248718.37  34569.76  13.90
2139.4  247659.33  34581.44  13.96
2142.0  247226.73  34706.77  14.04
2144.5  246745.50  34800.92  14.10
2147.0  246295.63  34917.21  14.18
2149.5  245902.77  35045.49  14.25
2152.1  246271.57  35269.14  14.32
2154.6  246314.40  35410.93  14.38
2157.1  246237.93  35564.07  14.44
2159.6  245163.07  35548.49  14.50
2162.1  244995.50  35665.54  14.56
2164.6  244314.65  35682.62  14.61
2167.1  243399.70  35654.82  14.65
2169.6  243596.87  35788.51  14.69
2172.1  242800.10  35818.13  14.75
2174.6  242400.20  35881.76  14.80
2177.1  241315.00  35852.06  14.86
2179.5  240855.10  35913.80  14.91
2182.0  240528.58  36022.72  14.98
2184.5  239558.90  35998.48  15.03
2187.0  238775.43  36027.24  15.09
2189.5  237766.38  36017.64  15.15
2191.9  236523.65  35992.18  15.22
2194.4  234825.00  35897.08  15.29
2196.9  233758.62  35880.53  15.35
2199.3  232250.90  35782.97  15.41
2201.8  231054.02  35703.54  15.45
2204.3  230361.70  35715.40  15.50
2206.7  229215.70  35663.42  15.56
2209.2  227984.85  35603.55  15.62
2211.6  226029.20  35395.66  15.66
2214.1  225355.08  35381.77  15.70
2216.5  225018.65  35415.88  15.74
2219.0  223635.50  35269.54  15.77
2221.4  223660.50  35325.65  15.79
2223.9  222509.73  35132.64  15.79
2226.3  221249.83  34894.57  15.77
2228.7  220333.53  34684.87  15.74
2231.1  219618.80  34476.51  15.70
2233.6  218524.80  34172.27  15.64
2236.0  217515.60  33848.46  15.56
2238.4  216711.52  33513.03  15.46
2240.9  215966.80  33126.60  15.34
2243.3  215057.08  32705.17  15.21
2245.7  214241.23  32303.37  15.08
2248.1  213297.07  31865.60  14.94
2250.5  212511.20  31461.46  14.80
2252.9  211819.53  31061.64  14.66
2255.3  211034.93  30649.78  14.52
2257.7  210168.93  30247.31  14.39
2260.1  209308.00  29838.93  14.26
2262.5  208228.80  29431.87  14.13
2264.9  207279.00  29058.87  14.02
2267.3  206377.60  28676.27  13.90
2269.7  205422.77  28306.40  13.78
2272.1  204659.00  28016.39  13.69
2274.5  203885.27  27721.62  13.60
2276.8  203205.07  27429.24  13.50
2279.2  202433.70  27151.33  13.41
2281.6  201879.75  26858.40  13.30
2284.0  201514.50  26601.30  13.20
2286.3  200942.47  26321.38  13.10
2288.7  200417.33  26007.97  12.98
2291.1  199897.00  25681.00  12.85
2293.4  199181.60  25317.27  12.71
2295.8  198479.23  24941.58  12.57
2298.2  197690.80  24560.07  12.42
2300.5  196531.05  24143.12  12.28
2302.9  195136.75  23715.08  12.15
2305.2  193732.17  23276.92  12.01
2307.6  192208.80  22869.15  11.90
2309.9  191139.50  22529.06  11.79
2312.2  190137.17  22237.89  11.70
2314.6  189118.43  21987.75  11.63
2316.9  188072.50  21797.96  11.59
2319.2  187350.35  21593.36  11.53
2321.6  186744.88  21371.29  11.44
2323.9  186004.60  21142.20  11.37
2326.2  185093.37  20909.57  11.30
2328.6  184347.10  20659.78  11.21
2330.9  184012.00  20468.62  11.12
2333.2  183549.50  20247.67  11.03
2335.5  183046.28  20036.32  10.95
2337.8  182544.20  19845.13  10.87
2340.1  181920.27  19644.31  10.80
2342.4  181521.00  19440.00  10.71
2344.8  180802.10  19203.92  10.62
2347.1  180047.10  18973.27  10.54
2349.4  179459.73  18778.62  10.46
2351.6  178638.00  18582.00  10.40
2353.9  177553.60  18374.20  10.35
2356.2  176741.58  18183.93  10.29
2358.5  175950.05  17978.67  10.22
2360.8  175195.83  17772.92  10.14
2363.1  174835.00  17629.86  10.08
2365.4  174393.00  17415.00  9.99
2367.7  173829.47  17221.16  9.91
2369.9  173083.72  16993.47  9.82
2372.2  171911.10  16738.05  9.74
2374.5  170680.00  16490.00  9.66
2376.7  169770.90  16191.23  9.54
2379.0  168586.00  15902.70  9.43
2381.3  167116.77  15613.34  9.34
2383.5  166205.67  15354.11  9.24
2385.8  165517.92  15077.03  9.11
2388.0  164590.27  14865.14  9.03
2390.3  163884.60  14592.04  8.90
2392.5  163363.83  14372.14  8.80
2394.8  162497.08  14116.39  8.69
2397.0  162016.80  13878.44  8.57
2399.3  161447.03  13673.14  8.47
2401.5  160619.40  13442.47  8.37
2403.8  159956.57  13242.15  8.28
2406.0  159525.67  13013.49  8.16
2408.2  158774.70  12759.60  8.04
2410.4  157833.57  12505.09  7.92
2412.7  157431.80  12378.53  7.86
2414.9  156870.33  12144.80  7.74
2417.1  156793.33  11930.71  7.61
2419.3  156325.20  11689.58  7.48
2421.6  155477.47  11450.75  7.36
2423.8  154895.60  11254.54  7.27
2426.0  154483.50  11038.60  7.15
2428.2  154192.50  10857.00  7.04
2430.4  154269.57  10721.36  6.95
2432.6  154122.70  10582.33  6.87
2434.8  153470.05  10339.97  6.74
2437.0  152933.30  10081.50  6.59
2439.2  152499.97  9852.70  6.46
2441.4  151662.00  9629.33  6.35
2443.6  151581.73  9460.51  6.24
2445.7  151762.13  9333.54  6.15
2447.9  151585.85  9169.12  6.05
2450.1  150811.25  8988.75  5.96
2452.3  150041.83  8746.83  5.83
2454.5  149416.40  8607.51  5.76
2456.6  148667.33  8474.22  5.70
2458.8  147480.20  8228.11  5.58
2461.0  147199.87  8075.74  5.49
2463.1  146755.50  7925.61  5.40
2465.3  146205.33  7751.11  5.30
2467.5  145712.67  7636.78  5.24
2469.6  145413.25  7516.64  5.17
2471.8  145071.60  7451.27  5.14
2473.9  144526.42  7255.81  5.02
2476.1  143600.42  7090.42  4.94
2478.2  142676.62  7037.98  4.93
2480.4  141914.03  6890.84  4.86
2482.5  140969.00  6751.39  4.79
2484.6  139974.00  6614.67  4.73
2486.8  139246.90  6614.99  4.75
2488.9  138845.80  6539.53  4.71
2491.1  137476.07  6344.18  4.61
2493.2  136276.80  6223.08  4.57
2495.3  134739.47  6106.11  4.53
2497.4  133287.88  6009.48  4.51
2499.5  132418.20  5820.26  4.40
2501.7  132492.00  5822.17  4.39
2503.8  132928.83  5835.90  4.39
2505.9  133585.35  5784.57  4.33
2508.0  134437.17  5806.58  4.32
2510.1  135372.90  5931.20  4.38
2512.2  136234.75  5888.61  4.32
2514.3  137511.62  5886.69  4.28
2516.4  138971.32  6121.75  4.41
