/*** Spectra Vista SIG Data ***/
name= 42_20220825_ACSA_24_avg.sig
comm= Averaged Ref/Tar of files: HR.082522.0044_moc.sig,HR.082522.0045_moc.sig,HR.082522.0046_moc.sig
data=
337.3  3324.88  275.06  8.27
338.8  3415.10  271.19  7.94
340.3  3607.45  270.39  7.50
341.8  3840.90  259.54  6.76
343.2  4040.40  252.02  6.24
344.7  4179.70  246.15  5.89
346.2  4370.95  250.55  5.73
347.7  4561.70  250.18  5.48
349.2  4762.80  245.52  5.15
350.6  5068.05  243.43  4.80
352.1  5323.03  253.14  4.76
353.6  5586.70  253.81  4.54
355.1  5893.13  245.03  4.16
356.6  6194.48  254.71  4.11
358.0  6507.60  256.42  3.94
359.5  6798.00  267.80  3.94
361.0  7122.15  270.18  3.79
362.5  7465.13  280.48  3.76
364.0  7828.28  280.20  3.58
365.4  8177.10  292.24  3.57
366.9  8591.38  304.66  3.55
368.4  8946.20  307.04  3.43
369.9  9323.63  317.61  3.41
371.3  9772.20  332.10  3.40
372.8  10195.20  341.36  3.35
374.3  10642.50  346.56  3.26
375.8  11076.45  359.85  3.25
377.2  11513.20  369.94  3.21
378.7  11943.60  379.67  3.18
380.2  12347.10  377.62  3.06
381.7  12863.90  382.98  2.98
383.1  13367.20  381.92  2.86
384.6  13892.13  398.20  2.87
386.1  14404.33  412.32  2.86
387.6  14876.40  420.93  2.83
389.0  15383.20  424.72  2.76
390.5  15876.90  436.43  2.75
392.0  16451.90  446.88  2.72
393.4  17026.20  456.93  2.68
394.9  17617.50  465.82  2.64
396.4  18164.25  483.99  2.66
397.9  18757.50  491.02  2.62
399.3  19348.30  506.02  2.62
400.8  19915.08  512.74  2.57
402.2  20572.90  528.41  2.57
403.7  21186.00  534.69  2.52
405.2  21828.35  554.67  2.54
406.6  22434.40  561.66  2.50
408.1  23074.60  582.86  2.53
409.6  23684.05  599.97  2.53
411.0  24360.35  608.78  2.50
412.5  25052.48  617.61  2.47
414.0  25713.25  638.42  2.48
415.4  26433.75  656.06  2.48
416.9  27158.48  679.95  2.50
418.4  27863.10  702.89  2.52
419.8  28610.40  723.15  2.53
421.3  29357.78  741.52  2.53
422.7  30154.20  771.23  2.56
424.2  30948.75  795.54  2.57
425.7  31736.10  822.45  2.59
427.1  32552.03  848.22  2.61
428.6  33387.00  873.61  2.62
430.0  34143.75  894.60  2.62
431.5  35043.90  927.91  2.65
432.9  35951.10  956.85  2.66
434.4  36872.55  983.10  2.67
435.9  37744.00  1016.27  2.69
437.3  38610.00  1042.38  2.70
438.8  39489.68  1068.68  2.71
440.2  40384.58  1095.71  2.71
441.7  41392.60  1127.90  2.72
443.1  42333.75  1162.21  2.75
444.6  43321.70  1190.23  2.75
446.0  44309.63  1224.84  2.76
447.5  45302.13  1258.28  2.78
448.9  46272.30  1290.49  2.79
450.4  47319.30  1324.35  2.80
451.8  48230.00  1356.70  2.81
453.3  49175.08  1389.44  2.83
454.7  50236.28  1423.40  2.83
456.2  51127.85  1452.99  2.84
457.6  52130.93  1483.77  2.85
459.1  53140.10  1520.83  2.86
460.5  54128.63  1550.23  2.86
462.0  55222.58  1583.58  2.87
463.4  56307.00  1615.82  2.87
464.8  57331.50  1646.50  2.87
466.3  58344.00  1682.20  2.88
467.7  59340.20  1712.59  2.89
469.2  60438.05  1743.96  2.89
470.6  61468.75  1779.13  2.89
472.0  62549.30  1807.77  2.89
473.5  63590.75  1842.44  2.90
474.9  64666.50  1878.83  2.91
476.4  65851.20  1918.35  2.91
477.8  66961.00  1952.11  2.92
479.2  67990.50  1985.81  2.92
480.7  69132.60  2022.36  2.93
482.1  70313.70  2067.31  2.94
483.6  71556.40  2114.65  2.96
485.0  72693.45  2159.12  2.97
486.4  73928.55  2204.67  2.98
487.9  75070.13  2251.97  3.00
489.3  76275.50  2300.75  3.02
490.7  77365.15  2350.95  3.04
492.2  78630.30  2414.44  3.07
493.6  79769.25  2477.38  3.11
495.0  80934.75  2548.93  3.15
496.5  82150.65  2623.61  3.19
497.9  83309.98  2704.39  3.25
499.3  84513.33  2794.96  3.31
500.7  85805.05  2901.54  3.38
502.2  87001.40  3017.61  3.47
503.6  88315.40  3155.55  3.57
505.0  89438.25  3301.97  3.69
506.5  90777.60  3479.02  3.83
507.9  92003.95  3671.23  3.99
509.3  93402.80  3896.77  4.17
510.7  94667.63  4148.21  4.38
512.2  96114.00  4438.17  4.62
513.6  97637.40  4771.03  4.89
515.0  99119.80  5139.42  5.19
516.4  100543.28  5543.37  5.51
517.8  102222.63  6000.03  5.87
519.3  103592.00  6470.75  6.25
520.7  105206.40  6989.14  6.64
522.1  106531.43  7512.43  7.05
523.5  107919.60  8051.14  7.46
524.9  109354.05  8592.93  7.86
526.3  110767.65  9120.59  8.23
527.8  112340.25  9655.33  8.59
529.2  113612.50  10149.03  8.93
530.6  115209.85  10655.84  9.25
532.0  116984.00  11142.40  9.52
533.4  118346.85  11562.80  9.77
534.8  119276.28  11901.49  9.98
536.3  120989.10  12286.94  10.16
537.7  123026.40  12677.76  10.30
539.1  124544.13  12992.90  10.43
540.5  125802.00  13269.92  10.55
541.9  127652.78  13600.01  10.65
543.3  128980.23  13871.70  10.75
544.7  130370.40  14154.46  10.86
546.1  132210.65  14483.33  10.95
547.5  133470.40  14736.64  11.04
549.0  135289.00  15039.62  11.12
550.4  136818.13  15298.58  11.18
551.8  138403.75  15533.50  11.22
553.2  139977.43  15732.05  11.24
554.6  141367.20  15866.64  11.22
556.0  142943.85  15971.92  11.17
557.4  144601.63  16042.30  11.09
558.8  146297.25  16074.24  10.99
560.2  147812.63  16050.62  10.86
561.6  149536.20  16011.41  10.71
563.0  151196.15  15922.60  10.53
564.4  152827.30  15807.52  10.34
565.8  154402.50  15650.12  10.14
567.2  156208.25  15484.71  9.91
568.6  157763.63  15262.70  9.67
570.0  159247.25  15001.88  9.42
571.4  161031.65  14747.65  9.16
572.8  162847.75  14501.28  8.90
574.2  164528.00  14248.11  8.66
575.6  166140.00  14007.21  8.43
577.0  167703.30  13786.22  8.22
578.4  169498.88  13604.50  8.03
579.8  171069.30  13424.66  7.85
581.2  172849.48  13285.90  7.69
582.5  174306.60  13142.55  7.54
583.9  175867.20  13024.05  7.41
585.3  177730.20  12941.69  7.28
586.7  179256.68  12853.24  7.17
588.1  180795.88  12782.98  7.07
589.5  182500.50  12738.60  6.98
590.9  184177.20  12715.08  6.90
592.3  186041.20  12716.86  6.84
593.7  187539.30  12719.91  6.78
595.0  189220.05  12745.85  6.74
596.4  190701.70  12765.00  6.69
597.8  192228.65  12786.85  6.65
599.2  193815.60  12805.51  6.61
600.6  195611.00  12828.29  6.56
602.0  196958.18  12805.92  6.50
603.3  198805.60  12791.20  6.43
604.7  200516.53  12746.66  6.36
606.1  202059.60  12662.88  6.27
607.5  203736.68  12565.39  6.17
608.9  205481.25  12451.24  6.06
610.2  206898.30  12310.65  5.95
611.6  208543.35  12173.79  5.84
613.0  210146.35  12029.56  5.72
614.4  211571.55  11874.46  5.61
615.8  213071.63  11732.04  5.51
617.1  214649.40  11610.20  5.41
618.5  216331.60  11520.60  5.33
619.9  217890.08  11443.92  5.25
621.3  219567.38  11393.54  5.19
622.6  221231.75  11366.62  5.14
624.0  222758.10  11355.90  5.10
625.4  224293.58  11367.51  5.07
626.8  225943.90  11401.39  5.05
628.1  227296.03  11432.91  5.03
629.5  229185.23  11496.68  5.02
630.9  230790.45  11537.37  5.00
632.2  232150.10  11556.26  4.98
633.6  233773.38  11560.52  4.95
635.0  235330.40  11522.03  4.90
636.3  236923.50  11435.46  4.83
637.7  238350.25  11305.66  4.74
639.1  240082.50  11144.33  4.64
640.4  241617.25  10952.10  4.53
641.8  242865.63  10732.35  4.42
643.2  244491.10  10525.91  4.31
644.5  245900.50  10308.30  4.19
645.9  247635.90  10119.39  4.09
647.2  249386.55  9956.79  3.99
648.6  251262.00  9835.71  3.91
650.0  252784.80  9734.40  3.85
651.3  253357.50  9623.45  3.80
652.7  254610.30  9544.02  3.75
654.0  256731.90  9492.38  3.70
655.4  258291.28  9437.53  3.65
656.8  258598.40  9330.35  3.61
658.1  259801.50  9238.68  3.56
659.5  262208.63  9162.44  3.49
660.8  263970.00  9057.43  3.43
662.2  264880.00  8926.72  3.37
663.5  266597.40  8832.15  3.31
664.9  267940.40  8749.07  3.27
666.2  268775.40  8679.57  3.23
667.6  270623.65  8664.65  3.20
668.9  271786.65  8667.62  3.19
670.3  272975.00  8686.19  3.18
671.6  274615.50  8745.91  3.18
673.0  275810.25  8830.19  3.20
674.3  277134.00  8933.45  3.22
675.7  278498.20  9065.89  3.26
677.0  279695.48  9217.36  3.30
678.4  281127.10  9400.27  3.34
679.7  282272.40  9596.61  3.40
681.1  283619.60  9838.72  3.47
682.4  284780.60  10109.17  3.55
683.8  286062.40  10433.30  3.65
685.1  287116.13  10824.81  3.77
686.4  288489.00  11324.96  3.93
687.8  289806.25  11958.21  4.13
689.1  290874.25  12787.60  4.40
690.5  292338.00  13914.05  4.76
691.8  293186.38  15400.73  5.25
693.1  294585.90  17365.86  5.90
694.5  295750.00  19813.73  6.70
695.8  297024.00  22749.57  7.66
697.1  298275.25  26165.53  8.77
698.5  299367.60  30008.10  10.02
699.8  300534.45  34227.59  11.39
701.1  301736.23  38730.63  12.84
702.5  302575.90  43363.44  14.33
703.8  303592.50  48100.29  15.84
705.1  304823.03  52868.33  17.34
706.5  305933.38  57584.30  18.82
707.8  306977.25  62223.68  20.27
709.1  307906.40  66740.69  21.68
710.5  309134.28  71226.96  23.04
711.8  310036.90  75557.92  24.37
713.1  311107.30  79840.80  25.66
714.4  312066.20  83993.27  26.92
715.8  312958.20  88055.69  28.14
717.1  314330.40  92161.18  29.32
718.4  315347.20  96067.41  30.46
719.7  316537.90  99921.71  31.57
721.0  317115.00  103488.43  32.63
722.4  317932.45  107008.98  33.66
723.7  318957.30  110469.01  34.63
725.0  320058.90  113844.89  35.57
726.3  321079.28  117040.51  36.45
727.6  321649.90  119960.37  37.30
729.0  322623.53  122869.70  38.08
730.3  323455.20  125585.37  38.83
731.6  324424.10  128206.90  39.52
732.9  325291.40  130654.32  40.17
734.2  326174.75  132974.81  40.77
735.5  327279.80  135253.96  41.33
736.8  328126.50  137298.84  41.84
738.1  329031.30  139239.58  42.32
739.5  330085.45  141101.42  42.75
740.8  330853.05  142730.74  43.14
742.1  331638.15  144260.81  43.50
743.4  332350.00  145682.38  43.83
744.7  333342.18  147122.70  44.14
746.0  334265.10  148436.08  44.41
747.3  334862.48  149510.38  44.65
748.6  335677.00  150567.85  44.85
749.9  336440.00  151535.92  45.04
751.2  337151.95  152416.15  45.21
752.5  338041.05  153315.71  45.35
753.8  338636.03  154052.59  45.49
755.1  339404.00  154790.63  45.61
756.4  340090.68  155420.05  45.70
757.7  341191.38  156210.61  45.78
759.0  343101.68  157340.51  45.86
760.3  344388.00  158146.56  45.92
761.6  346039.40  159116.64  45.98
762.9  346626.50  159552.29  46.03
764.2  347063.80  159884.89  46.07
765.5  347379.35  160155.30  46.10
766.8  347888.00  160473.26  46.13
768.1  348473.20  160824.95  46.15
769.3  349108.90  161195.29  46.17
770.6  349850.15  161580.81  46.19
771.9  350609.70  161990.15  46.20
773.2  351052.40  162245.68  46.22
774.5  351722.80  162592.91  46.23
775.8  352489.30  162977.77  46.24
777.1  353123.10  163295.52  46.24
778.4  353482.53  163500.99  46.25
779.6  354322.00  163904.22  46.26
780.9  354840.00  164172.57  46.27
782.2  355377.00  164434.97  46.27
783.5  355752.00  164641.32  46.28
784.8  356337.00  164929.60  46.28
786.0  356792.10  165154.93  46.29
787.3  357209.78  165382.24  46.30
788.6  357681.18  165622.15  46.30
789.9  358225.00  165890.11  46.31
791.2  358911.35  166228.05  46.31
792.4  359691.30  166584.05  46.31
793.7  360185.60  166844.77  46.32
795.0  360878.93  167177.32  46.33
796.2  361621.35  167523.23  46.33
797.5  362390.10  167901.00  46.33
798.8  363169.75  168255.40  46.33
800.0  363885.00  168600.73  46.33
801.3  364393.40  168854.48  46.34
802.6  365062.95  169162.56  46.34
803.8  365764.83  169505.96  46.34
805.1  366317.00  169768.30  46.34
806.4  366826.80  170010.91  46.35
807.7  367397.78  170286.69  46.35
808.9  368038.55  170569.84  46.35
810.2  368645.55  170861.27  46.35
811.4  369160.60  171122.36  46.35
812.7  369890.63  171446.79  46.35
814.0  370761.50  171871.40  46.36
815.2  371449.75  172204.04  46.36
816.5  371893.18  172424.02  46.36
817.7  372452.20  172674.89  46.36
819.0  373018.25  172935.14  46.36
820.2  373208.00  173031.47  46.36
821.5  373988.40  173396.79  46.36
822.7  374378.98  173586.07  46.37
824.0  374727.60  173759.91  46.37
825.2  375301.35  174005.09  46.36
826.5  375599.88  174182.71  46.37
827.7  376227.85  174463.39  46.37
829.0  376692.98  174666.60  46.37
830.2  377056.25  174824.12  46.37
831.5  377579.35  175077.95  46.37
832.7  377914.43  175222.74  46.37
834.0  378316.65  175399.97  46.36
835.2  378757.78  175602.58  46.36
836.4  379051.75  175765.39  46.37
837.7  379508.40  176000.30  46.38
838.9  379962.43  176212.72  46.38
840.1  380353.73  176407.25  46.38
841.4  380831.70  176629.52  46.38
842.6  381248.80  176840.48  46.38
843.8  381661.80  177038.97  46.39
845.1  382154.65  177310.67  46.40
846.3  382656.70  177515.94  46.39
847.5  383061.00  177708.52  46.39
848.8  383530.80  177929.85  46.39
850.0  383919.20  178149.15  46.40
851.2  384507.00  178418.98  46.40
852.5  384899.80  178621.73  46.41
853.7  385497.00  178875.73  46.40
854.9  385957.90  179108.34  46.41
856.1  386435.40  179339.28  46.41
857.4  386670.33  179475.29  46.42
858.6  387186.00  179710.01  46.41
859.8  387598.13  179913.82  46.42
861.0  388135.80  180147.91  46.41
862.2  388709.18  180377.52  46.40
863.5  389147.85  180566.68  46.40
864.7  389716.80  180834.85  46.40
865.9  390047.60  181035.16  46.41
867.1  390399.75  181195.76  46.41
868.3  390941.55  181402.18  46.40
869.5  391488.75  181652.22  46.40
870.8  392139.00  181947.60  46.40
872.0  392733.68  182201.27  46.39
873.2  393250.80  182397.63  46.38
874.4  393690.38  182627.81  46.39
875.6  394168.28  182819.99  46.38
876.8  394701.10  183053.99  46.38
878.0  395267.65  183319.02  46.38
879.2  395893.50  183564.86  46.37
880.4  396382.50  183814.12  46.37
881.6  396995.05  184044.87  46.36
882.8  397440.80  184243.81  46.36
884.0  398158.43  184523.48  46.34
885.2  398684.20  184776.38  46.35
886.5  399380.75  185073.70  46.34
887.7  399891.05  185302.32  46.34
888.8  400697.25  185630.75  46.33
890.0  401325.45  185893.18  46.32
891.2  401973.00  186170.30  46.31
892.4  402620.93  186460.77  46.31
893.6  403321.10  186729.97  46.30
894.8  404294.00  187162.39  46.29
896.0  405337.00  187548.47  46.27
897.2  406224.00  187959.20  46.27
898.4  407154.00  188321.63  46.25
899.6  407709.38  188627.11  46.27
900.8  408100.18  188766.98  46.26
902.0  408335.10  188875.74  46.26
903.2  408922.20  189021.61  46.22
904.3  409241.70  189202.13  46.23
905.5  410102.48  189512.92  46.21
906.7  410643.00  189780.65  46.22
907.9  411085.50  190010.66  46.22
909.1  411631.88  190154.19  46.20
910.2  411882.15  190233.41  46.19
911.4  412302.15  190347.24  46.17
912.6  412540.70  190456.12  46.17
913.8  412803.75  190531.67  46.16
915.0  413209.65  190687.98  46.15
916.2  413585.25  190784.10  46.13
917.3  413561.03  190786.60  46.13
918.5  413978.20  190909.98  46.12
919.7  414250.95  191010.60  46.11
920.8  414372.88  191016.30  46.10
922.0  414625.75  191011.33  46.07
923.2  414960.00  191058.40  46.04
924.4  415263.38  191147.27  46.03
925.5  415568.60  191286.36  46.03
926.7  416304.50  191533.70  46.01
927.9  417171.00  191915.87  46.00
929.0  418788.90  192536.67  45.97
930.2  421180.60  193508.92  45.94
931.4  423820.35  194610.34  45.92
932.5  426755.30  195815.72  45.88
933.7  428265.60  196461.38  45.87
934.9  428968.75  196676.58  45.85
936.0  428530.38  196387.29  45.83
937.2  426530.10  195271.97  45.78
938.3  424895.30  194374.76  45.75
939.5  423338.40  193580.91  45.73
940.7  423561.60  193582.32  45.70
941.8  425405.63  194247.27  45.66
943.0  426973.50  194798.66  45.62
944.2  427948.95  195063.24  45.58
945.3  427557.00  194724.21  45.54
946.5  426716.10  194208.81  45.51
947.6  426977.30  194158.03  45.47
948.8  426855.00  193925.22  45.43
949.9  427173.60  193760.32  45.36
951.1  426917.73  193378.67  45.30
952.2  426768.00  193104.46  45.25
953.4  426727.75  192710.92  45.16
954.5  426675.60  192464.33  45.11
955.7  426686.40  192151.68  45.03
956.8  426430.30  191785.20  44.97
958.0  426166.00  191426.63  44.92
959.1  426168.80  191156.83  44.85
960.3  425683.73  190844.21  44.83
961.4  425708.25  190673.51  44.79
962.6  426035.75  190626.37  44.74
963.7  425884.20  190395.56  44.71
964.9  425738.40  190276.95  44.69
966.0  425881.80  190108.66  44.64
967.2  425809.80  190157.81  44.66
968.3  425748.15  190084.55  44.65
969.5  425792.73  189945.92  44.61
970.6  425869.38  189876.56  44.59
971.8  426081.78  190023.66  44.60
972.9  426187.13  189856.59  44.55
974.0  426603.10  190033.84  44.55
975.2  426406.25  190100.84  44.58
976.3  426286.23  190066.05  44.59
977.5  426203.23  190059.95  44.59
978.6  426506.60  190142.76  44.58
979.7  426848.63  190220.17  44.56
980.9  426575.05  190204.46  44.59
982.0  426675.55  190270.46  44.59
983.2  426111.45  190073.83  44.61
984.3  425795.40  189988.18  44.62
985.4  425831.20  190059.13  44.63
986.6  426202.75  190062.91  44.59
987.7  427207.38  190437.28  44.58
988.9  426738.60  190510.77  44.64
990.0  427159.90  190837.59  44.68
993.1  371739.43  164195.79  44.17
996.9  372760.53  165112.34  44.29
1000.7  373998.98  166113.67  44.42
1004.5  374694.75  166802.46  44.52
1008.4  374567.63  167149.96  44.62
1012.2  374636.08  167602.50  44.74
1016.0  374752.80  168029.31  44.84
1019.8  375063.15  168531.83  44.93
1023.7  375281.03  168927.14  45.01
1027.5  375267.90  169189.92  45.09
1031.3  375790.10  169614.54  45.14
1035.1  375862.61  169811.10  45.18
1038.9  375947.73  169999.71  45.22
1042.7  375871.25  170080.99  45.25
1046.5  375738.83  170111.12  45.27
1050.3  375831.40  170226.02  45.29
1054.2  375606.58  170191.83  45.31
1058.0  375124.34  169980.59  45.31
1061.8  374985.81  169962.77  45.33
1065.6  374816.00  169868.53  45.32
1069.4  374984.73  169922.14  45.31
1073.2  374792.36  169789.72  45.30
1077.0  374381.73  169542.60  45.29
1080.8  373767.71  169153.72  45.26
1084.6  372511.07  168453.60  45.22
1088.4  371672.98  167986.90  45.20
1092.2  370773.00  167427.00  45.16
1096.0  370217.82  167018.60  45.11
1099.8  369806.45  166622.33  45.06
1103.6  369203.63  166146.84  45.00
1107.4  368353.08  165526.91  44.94
1111.2  368188.40  165214.67  44.87
1114.9  367547.83  164644.92  44.80
1118.7  366938.55  164015.07  44.70
1122.5  366219.53  163241.87  44.57
1126.3  365085.88  162212.15  44.43
1130.1  364574.48  161283.24  44.24
1133.9  362988.50  159621.70  43.97
1137.7  361573.30  157831.04  43.65
1141.4  359794.72  155661.75  43.26
1145.2  359136.03  153786.57  42.82
1149.0  358041.25  151792.29  42.40
1152.8  356416.90  149730.45  42.01
1156.6  354753.12  147972.00  41.71
1160.3  353003.67  146504.05  41.50
1164.1  350535.17  144998.42  41.36
1167.9  348713.54  143969.05  41.29
1171.7  347405.63  143289.00  41.25
1175.4  346250.93  142745.82  41.23
1179.2  345261.08  142249.98  41.20
1183.0  344989.00  142033.81  41.17
1186.7  344379.70  141672.70  41.14
1190.5  343206.60  141072.45  41.10
1194.3  341929.83  140473.72  41.08
1198.0  340754.43  139953.12  41.07
1201.8  339294.08  139375.05  41.08
1205.6  338059.67  138961.19  41.11
1209.3  337075.17  138733.31  41.16
1213.1  336070.88  138493.96  41.21
1216.8  335068.98  138308.10  41.28
1220.6  333995.20  138072.00  41.34
1224.3  332760.75  137768.80  41.40
1228.1  331546.00  137490.57  41.47
1231.9  330331.08  137181.12  41.53
1235.6  328872.75  136739.42  41.58
1239.4  327520.63  136358.95  41.63
1243.1  326304.95  135964.34  41.67
1246.9  325085.08  135546.11  41.70
1250.6  324091.20  135201.96  41.72
1254.3  323014.45  134800.39  41.73
1258.1  322015.05  134405.10  41.74
1261.8  320740.40  133869.52  41.74
1265.6  319231.97  133210.11  41.73
1269.3  317665.33  132479.23  41.70
1273.1  317551.33  132301.98  41.66
1276.8  317946.80  132291.77  41.61
1280.6  317987.97  132130.44  41.55
1284.3  316749.60  131401.48  41.48
1288.0  315218.27  130506.43  41.40
1291.8  313756.52  129536.57  41.29
1295.5  312228.40  128499.70  41.16
1299.2  310944.28  127505.29  41.01
1302.9  309560.08  126378.44  40.83
1306.7  308036.87  125133.05  40.62
1310.4  306579.61  123781.74  40.38
1314.1  305231.12  122400.69  40.10
1317.9  304014.58  120949.70  39.78
1321.6  302633.19  119313.18  39.43
1325.3  300998.25  117458.70  39.02
1329.0  299629.75  115648.98  38.60
1332.8  297481.80  113425.40  38.13
1336.5  295654.27  111291.82  37.64
1340.2  295310.17  109720.00  37.15
1343.9  294950.42  108144.29  36.67
1347.6  294446.10  106540.99  36.18
1351.4  294856.50  105326.93  35.72
1355.1  295467.33  104208.66  35.27
1358.8  295680.00  102912.00  34.81
1362.5  295193.75  101243.95  34.30
1366.2  293235.55  98851.84  33.71
1369.9  291242.75  96150.34  33.01
1373.6  289276.69  93027.53  32.16
1377.3  287519.70  89378.44  31.09
1381.0  286344.00  85108.26  29.72
1384.8  284147.50  79657.50  28.03
1388.4  281658.30  73614.67  26.14
1392.2  279785.67  67352.41  24.07
1395.9  278161.95  61062.12  21.95
1399.6  276444.44  55080.73  19.92
1403.3  275219.29  49805.34  18.10
1407.0  274027.80  45292.26  16.53
1410.7  272760.68  41614.89  15.26
1414.3  271486.13  38735.52  14.27
1418.1  270280.21  36603.88  13.54
1421.7  269338.30  35060.09  13.02
1425.4  268412.30  33975.96  12.66
1429.1  267509.63  33240.75  12.43
1432.8  265978.65  32703.09  12.30
1436.5  265138.76  32436.35  12.23
1440.2  264228.60  32303.06  12.23
1443.9  262862.60  32209.39  12.25
1447.6  261184.00  32157.40  12.31
1451.2  260098.48  32207.16  12.38
1454.9  258822.60  32280.32  12.47
1458.6  257750.58  32457.87  12.59
1462.3  256603.97  32738.30  12.76
1466.0  255260.48  33132.71  12.98
1469.7  253569.88  33652.42  13.27
1473.3  252537.50  34392.14  13.62
1477.0  250634.63  35134.12  14.02
1480.7  249030.98  35982.30  14.45
1484.4  247114.56  36805.73  14.89
1488.0  245549.33  37718.47  15.36
1491.7  243914.30  38605.38  15.83
1495.4  242177.88  39482.20  16.30
1499.0  240555.00  40349.36  16.77
1502.7  239215.75  41254.32  17.25
1506.4  237817.08  42110.94  17.71
1510.0  236403.50  42941.96  18.16
1513.7  234926.42  43726.38  18.61
1517.4  233604.67  44509.09  19.05
1521.0  232375.47  45278.32  19.48
1524.7  231163.83  45990.13  19.90
1528.3  229884.38  46656.89  20.30
1532.0  228661.77  47300.92  20.69
1535.7  227285.25  47857.48  21.06
1539.3  226023.63  48401.27  21.41
1543.0  225043.88  48981.14  21.77
1546.6  224333.42  49587.41  22.10
1550.3  223366.90  50094.27  22.43
1553.9  222273.97  50540.05  22.74
1557.6  221010.53  50910.41  23.04
1561.2  219768.30  51236.36  23.31
1564.9  218448.91  51521.33  23.59
1568.5  217121.45  51765.00  23.84
1572.2  215962.55  52023.13  24.09
1575.8  214872.00  52282.00  24.33
1579.5  213899.40  52525.14  24.56
1583.1  212894.86  52752.32  24.78
1586.8  211680.00  52902.00  24.99
1590.4  210640.33  53074.07  25.20
1594.0  209312.89  53151.85  25.39
1597.7  208109.68  53250.96  25.59
1601.3  206728.20  53287.88  25.78
1604.9  205371.95  53294.68  25.95
1608.6  204044.80  53278.50  26.11
1612.2  203053.95  53319.04  26.26
1615.8  201966.70  53316.62  26.40
1619.5  200887.08  53290.89  26.53
1623.1  199597.63  53189.06  26.65
1626.7  198333.20  53061.08  26.75
1630.3  197115.67  52917.13  26.85
1634.0  196000.00  52770.00  26.92
1637.6  194978.07  52609.33  26.98
1641.2  193960.25  52376.39  27.00
1644.8  192733.94  52023.47  26.99
1648.5  191632.58  51660.05  26.96
1652.1  190660.20  51273.64  26.89
1655.7  189712.00  50876.57  26.82
1659.3  188843.85  50531.09  26.76
1662.9  187396.67  50093.33  26.73
1666.6  185919.13  49701.55  26.73
1670.2  184487.51  49350.78  26.75
1673.8  183024.99  48976.83  26.76
1677.4  181863.20  48663.18  26.76
1681.0  181046.73  48381.81  26.72
1684.6  180661.00  48148.91  26.65
1688.2  180002.15  47729.97  26.52
1691.8  179358.76  47326.10  26.39
1695.4  178920.00  46957.37  26.24
1699.0  178557.17  46606.03  26.10
1702.6  178220.67  46245.48  25.95
1706.2  177611.53  45767.04  25.77
1709.8  176693.79  45198.29  25.58
1713.4  175971.98  44705.67  25.40
1717.0  175112.00  44231.03  25.26
1720.6  174315.45  43807.88  25.13
1724.2  173622.53  43416.82  25.01
1727.8  172894.40  43034.40  24.89
1731.4  172394.75  42691.39  24.76
1735.0  172176.58  42408.85  24.63
1738.6  171881.25  42070.35  24.48
1742.2  171258.53  41615.51  24.30
1745.8  170588.43  41117.45  24.10
1749.4  169572.15  40524.35  23.90
1753.0  168039.60  39803.06  23.69
1756.6  166362.58  39065.42  23.48
1760.1  165024.18  38427.43  23.29
1763.7  163300.00  37720.00  23.10
1767.3  161871.73  37113.72  22.93
1770.9  160631.80  36555.70  22.76
1774.5  159177.66  35966.39  22.60
1778.0  158038.91  35485.57  22.45
1781.6  156938.85  35072.25  22.35
1785.2  155794.23  34688.43  22.27
1788.8  154624.00  34358.97  22.22
1792.3  153414.90  34037.79  22.19
1795.9  152964.72  33897.98  22.16
1799.5  152452.33  33766.14  22.15
1803.1  151690.93  33589.15  22.14
1806.6  152060.48  33643.44  22.13
1810.2  153236.07  33863.13  22.10
1813.8  154361.60  34078.25  22.08
1817.3  154515.40  34085.77  22.06
1820.9  153871.62  33914.08  22.04
1824.5  152729.08  33617.69  22.01
1828.0  151950.33  33377.27  21.97
1831.6  151245.50  33120.85  21.90
1835.2  150577.50  32822.14  21.80
1838.7  150158.40  32494.46  21.64
1842.3  149745.00  32104.29  21.44
1845.8  148879.67  31507.39  21.16
1849.4  148405.25  30863.78  20.80
1852.9  147713.07  30026.80  20.33
1856.5  146790.60  28957.05  19.73
1860.0  146038.15  27701.73  18.97
1863.6  145864.21  26348.52  18.06
1867.1  145843.60  24796.45  17.00
1870.7  145813.20  22910.42  15.71
1874.2  144924.75  20584.93  14.20
1877.8  143541.40  18113.16  12.62
1881.3  141997.00  15634.36  11.01
1884.9  141039.43  13384.43  9.49
1888.4  140038.92  11320.22  8.08
1891.9  139078.47  9594.53  6.90
1895.5  138028.08  8250.25  5.98
1899.0  137558.75  7313.25  5.32
1901.3  169851.67  5773.22  3.40
1904.1  169828.50  5256.75  3.10
1906.8  169030.80  4841.00  2.86
1909.6  167290.20  4522.70  2.70
1912.4  165654.30  4293.25  2.59
1915.1  164448.35  4144.62  2.52
1917.9  163059.00  4024.05  2.47
1920.6  161891.63  3943.99  2.44
1923.3  160729.80  3882.12  2.42
1926.1  159278.13  3834.59  2.41
1928.8  157886.67  3808.45  2.41
1931.6  156763.90  3813.40  2.43
1934.3  155709.12  3834.41  2.46
1937.0  154714.97  3861.66  2.50
1939.8  153664.50  3895.86  2.54
1942.5  152350.00  3930.67  2.58
1945.2  150657.65  3964.03  2.63
1947.9  149275.93  4016.68  2.69
1950.7  148209.17  4079.21  2.75
1953.4  146525.65  4138.33  2.82
1956.1  145214.42  4218.67  2.91
1958.8  144044.98  4301.19  2.99
1961.5  142600.00  4379.20  3.07
1964.2  141113.70  4468.10  3.17
1966.9  139551.00  4567.23  3.27
1969.6  138330.00  4674.00  3.38
1972.3  136944.30  4779.30  3.49
1975.0  135900.60  4899.95  3.61
1977.7  134789.20  5034.32  3.73
1980.4  133656.60  5169.41  3.87
1983.1  132554.35  5314.26  4.01
1985.8  131631.00  5463.60  4.15
1988.4  130615.33  5616.00  4.30
1991.1  129689.93  5769.95  4.45
1993.8  128827.78  5931.14  4.60
1996.5  128181.53  6103.47  4.76
1999.1  127518.05  6278.68  4.92
2001.8  126832.30  6451.98  5.09
2004.5  126151.60  6623.02  5.25
2007.1  125433.65  6793.13  5.42
2009.8  124691.23  6961.35  5.58
2012.4  124097.23  7134.60  5.75
2015.1  123551.63  7306.68  5.91
2017.8  122766.00  7450.56  6.07
2020.4  122253.27  7614.26  6.23
2023.1  121894.03  7770.00  6.37
2025.7  121662.67  7938.67  6.53
2028.3  121333.33  8091.78  6.67
2031.0  120932.78  8231.80  6.81
2033.6  120651.60  8375.20  6.94
2036.2  120390.60  8505.70  7.07
2038.9  119799.00  8607.20  7.18
2041.5  119453.20  8716.67  7.30
2044.1  118902.90  8810.20  7.41
2046.8  118528.80  8911.70  7.52
2049.4  117911.10  8990.00  7.62
2052.0  117620.53  9079.76  7.72
2054.6  117223.75  9161.25  7.82
2057.2  116659.87  9231.13  7.91
2059.8  116336.73  9324.29  8.01
2062.4  115460.97  9367.51  8.11
2065.0  114930.67  9432.00  8.21
2067.6  114031.43  9472.11  8.31
2070.2  113438.70  9518.60  8.39
2072.8  112793.67  9570.90  8.49
2075.4  112367.50  9633.75  8.57
2078.0  111741.57  9667.52  8.65
2080.6  111170.40  9712.27  8.74
2083.2  110460.00  9745.61  8.82
2085.8  109976.12  9790.49  8.90
2088.4  109321.33  9805.00  8.97
2090.9  108524.35  9818.83  9.05
2093.5  107637.13  9824.51  9.13
2096.1  106866.82  9831.48  9.20
2098.7  106111.45  9825.62  9.26
2101.2  105140.60  9807.53  9.33
2103.8  104468.13  9822.09  9.40
2106.4  103804.40  9822.09  9.46
2108.9  103149.40  9819.18  9.52
2111.5  102302.27  9795.89  9.58
2114.0  101664.73  9792.98  9.63
2116.6  101150.00  9791.25  9.68
2119.1  100588.73  9792.37  9.74
2121.7  100100.00  9794.17  9.78
2124.2  99694.53  9795.29  9.83
2126.8  98891.55  9758.28  9.87
2129.3  98489.60  9768.00  9.92
2131.9  97900.00  9750.40  9.96
2134.4  97465.05  9746.80  10.00
2136.9  97077.07  9753.90  10.05
2139.4  96558.00  9747.42  10.09
2142.0  96096.93  9753.33  10.15
2144.5  95835.20  9772.20  10.20
2147.0  95595.60  9805.82  10.26
2149.5  95104.27  9814.76  10.32
2152.1  94944.85  9854.72  10.38
2154.6  94864.53  9900.80  10.44
2157.1  94321.33  9891.75  10.49
2159.6  93921.67  9909.92  10.55
2162.1  93757.30  9946.30  10.61
2164.6  93507.07  9970.56  10.66
2167.1  93183.28  9985.34  10.72
2169.6  92876.35  9993.94  10.76
2172.1  92425.67  9987.39  10.81
2174.6  92092.13  9998.73  10.86
2177.1  91654.35  9991.96  10.90
2179.5  91238.12  9996.78  10.96
2182.0  90760.45  9998.27  11.02
2184.5  90220.75  9993.25  11.08
2187.0  89616.67  9964.74  11.12
2189.5  88953.67  9938.53  11.17
2191.9  88179.00  9899.00  11.23
2194.4  87544.85  9871.52  11.28
2196.9  86784.00  9836.80  11.33
2199.3  86120.33  9805.22  11.39
2201.8  85234.80  9739.82  11.43
2204.3  84786.55  9721.77  11.47
2206.7  84138.70  9679.27  11.50
2209.2  83642.65  9636.25  11.52
2211.6  83011.50  9596.40  11.56
2214.1  82714.35  9585.17  11.59
2216.5  82148.67  9542.62  11.62
2219.0  81791.07  9516.13  11.63
2221.4  81425.75  9477.03  11.64
2223.9  80969.58  9417.53  11.63
2226.3  80453.92  9351.42  11.62
2228.7  79886.98  9267.27  11.60
2231.1  79299.00  9180.60  11.58
2233.6  78711.73  9072.45  11.53
2236.0  78153.25  8961.36  11.47
2238.4  77657.42  8839.06  11.38
2240.9  77201.87  8731.40  11.31
2243.3  76675.40  8602.27  11.22
2245.7  76107.55  8457.50  11.11
2248.1  75627.07  8325.49  11.01
2250.5  75114.60  8183.01  10.89
2252.9  74490.87  8039.78  10.79
2255.3  73938.45  7887.03  10.67
2257.7  73470.00  7736.67  10.53
2260.1  72972.43  7595.24  10.41
2262.5  72380.00  7450.00  10.29
2264.9  71840.07  7314.45  10.18
2267.3  71230.00  7173.33  10.07
2269.7  70745.03  7046.74  9.96
2272.1  70196.80  6921.52  9.86
2274.5  69633.75  6795.32  9.76
2276.8  69155.07  6691.13  9.68
2279.2  68571.15  6569.35  9.58
2281.6  68141.27  6459.44  9.48
2284.0  67670.00  6356.27  9.39
2286.3  67214.40  6245.51  9.29
2288.7  66812.85  6147.34  9.20
2291.1  66260.83  6037.67  9.11
2293.4  65819.60  5934.13  9.02
2295.8  65199.00  5816.07  8.92
2298.2  64604.70  5695.95  8.82
2300.5  63942.30  5571.75  8.71
2302.9  63188.33  5449.11  8.62
2305.2  62459.20  5331.97  8.54
2307.6  61786.52  5223.67  8.45
2309.9  61018.33  5108.11  8.37
2312.2  60408.67  5018.55  8.31
2314.6  59802.30  4936.95  8.26
2316.9  59108.85  4843.80  8.19
2319.2  58519.83  4758.30  8.13
2321.6  57887.08  4669.04  8.07
2323.9  57333.33  4576.39  7.98
2326.2  56788.63  4489.81  7.91
2328.6  56283.70  4406.42  7.83
2330.9  55776.00  4329.50  7.76
2333.2  55297.92  4261.55  7.71
2335.5  54837.50  4183.70  7.63
2337.8  54380.35  4104.85  7.55
2340.1  53808.83  4022.18  7.47
2342.4  53365.00  3961.39  7.42
2344.8  52945.83  3900.89  7.37
2347.1  52365.83  3816.40  7.29
2349.4  51811.38  3738.32  7.22
2351.6  51238.52  3664.88  7.15
2353.9  50742.30  3604.22  7.10
2356.2  50225.10  3542.51  7.05
2358.5  49638.40  3468.27  6.99
2360.8  49044.80  3397.33  6.93
2363.1  48601.82  3320.13  6.83
2365.4  48138.00  3258.17  6.77
2367.7  47652.00  3195.80  6.71
2369.9  47105.30  3141.12  6.67
2372.2  46485.87  3061.60  6.59
2374.5  45888.15  2987.60  6.51
2376.7  45258.53  2908.04  6.43
2379.0  44648.73  2846.29  6.37
2381.3  44018.33  2768.89  6.29
2383.5  43483.73  2698.67  6.21
2385.8  42889.50  2623.97  6.12
2388.0  42373.80  2568.47  6.06
2390.3  41841.87  2499.91  5.97
2392.5  41340.00  2432.00  5.88
2394.8  40873.80  2367.57  5.79
2397.0  40404.00  2301.29  5.70
2399.3  39936.97  2237.67  5.60
2401.5  39481.75  2184.58  5.53
2403.8  38932.98  2122.57  5.45
2406.0  38417.17  2069.44  5.39
2408.2  38010.87  2023.76  5.32
2410.4  37574.83  1972.37  5.25
2412.7  37147.07  1922.70  5.18
2414.9  36786.20  1863.77  5.07
2417.1  36385.50  1807.63  4.97
2419.3  35980.80  1770.67  4.92
2421.6  35611.25  1713.61  4.81
2423.8  35204.50  1664.05  4.73
2426.0  34834.28  1618.59  4.65
2428.2  34482.93  1568.00  4.55
2430.4  34168.47  1526.25  4.47
2432.6  33880.00  1484.44  4.38
2434.8  33563.70  1456.96  4.34
2437.0  33193.77  1414.98  4.26
2439.2  32845.50  1369.69  4.17
2441.4  32515.50  1336.07  4.11
2443.6  32289.55  1307.98  4.05
2445.7  32014.97  1272.64  3.98
2447.9  31730.00  1238.58  3.90
2450.1  31415.80  1198.93  3.82
2452.3  31028.43  1162.27  3.75
2454.5  30678.55  1129.94  3.68
2456.6  30302.40  1089.02  3.59
2458.8  29929.90  1067.73  3.57
2461.0  29626.25  1047.61  3.54
2463.1  29318.25  1023.35  3.49
2465.3  29032.53  990.19  3.41
2467.5  28777.25  963.67  3.35
2469.6  28520.67  934.78  3.28
2471.8  28201.30  931.03  3.30
2473.9  27874.00  899.97  3.23
2476.1  27542.67  884.72  3.21
2478.2  27176.27  868.30  3.20
2480.4  26877.85  834.02  3.10
2482.5  26507.47  820.62  3.10
2484.6  26195.58  805.14  3.07
2486.8  25936.40  785.00  3.03
2488.9  25600.57  757.60  2.96
2491.1  25243.87  745.73  2.95
2493.2  24844.13  739.79  2.98
2495.3  24434.80  710.81  2.91
2497.4  24101.70  692.30  2.87
2499.5  23773.32  685.09  2.88
2501.7  23631.13  668.29  2.83
2503.8  23520.35  674.24  2.87
2505.9  23455.42  654.86  2.79
2508.0  23437.30  665.63  2.84
2510.1  23427.17  667.64  2.85
2512.2  23524.70  660.60  2.81
2514.3  23691.20  651.76  2.75
2516.4  23856.70  696.07  2.92
