/*** Spectra Vista SIG Data ***/
name= 27_20220926_QUPA_23_avg.sig
comm= Averaged Ref/Tar of files: HR.092722.0000_moc.sig,HR.092722.0001_moc.sig,HR.092722.0002_moc.sig
data=
337.3  6417.60  401.10  6.25
338.8  6637.80  357.32  5.38
340.3  6994.85  378.10  5.41
341.8  7167.28  380.18  5.30
343.2  7638.95  380.68  4.98
344.7  7986.38  384.39  4.81
346.2  8389.50  360.33  4.30
347.7  8785.65  361.83  4.12
349.2  9147.60  352.80  3.86
350.6  9569.55  361.77  3.78
352.1  10046.50  343.64  3.42
353.6  10664.00  360.38  3.38
355.1  11176.20  354.80  3.17
356.6  11843.65  353.26  2.98
358.0  12348.38  367.89  2.98
359.5  12865.73  371.66  2.89
361.0  13520.40  389.68  2.88
362.5  14188.05  400.98  2.83
364.0  14935.80  414.88  2.78
365.4  15601.65  426.79  2.74
366.9  16252.50  438.56  2.70
368.4  16890.20  468.32  2.77
369.9  17649.00  479.52  2.72
371.3  18541.33  505.24  2.72
372.8  19325.40  514.55  2.66
374.3  20198.40  520.99  2.58
375.8  20971.53  528.25  2.52
377.2  21797.10  541.54  2.48
378.7  22650.25  541.80  2.39
380.2  23462.63  552.36  2.35
381.7  24370.50  562.67  2.31
383.1  25360.73  582.49  2.30
384.6  26287.50  590.84  2.25
386.1  27258.83  597.55  2.19
387.6  28127.63  615.88  2.19
389.0  29148.30  629.10  2.16
390.5  30174.50  649.08  2.15
392.0  31205.25  670.28  2.15
393.4  32314.88  689.89  2.13
394.9  33288.60  702.91  2.11
396.4  34509.20  718.04  2.08
397.9  35571.00  758.66  2.13
399.3  36451.18  770.41  2.11
400.8  37723.13  788.07  2.09
402.2  38854.20  811.17  2.09
403.7  40048.35  831.69  2.08
405.2  41213.40  856.14  2.08
406.6  42446.10  893.05  2.10
408.1  43496.70  918.24  2.11
409.6  44657.10  941.05  2.11
411.0  45926.65  972.87  2.12
412.5  47281.30  1004.10  2.12
414.0  48623.40  1040.42  2.14
415.4  49923.00  1068.86  2.14
416.9  51184.10  1104.31  2.16
418.4  52489.63  1145.10  2.18
419.8  53838.05  1181.70  2.19
421.3  55336.05  1240.80  2.24
422.7  56784.00  1277.96  2.25
424.2  58273.95  1314.12  2.26
425.7  59676.38  1349.33  2.26
427.1  61185.10  1394.66  2.28
428.6  62632.15  1441.20  2.30
430.0  64175.93  1488.06  2.32
431.5  65862.23  1542.67  2.34
432.9  67532.50  1586.30  2.35
434.4  69201.60  1637.10  2.37
435.9  70839.40  1675.04  2.36
437.3  72499.88  1729.36  2.39
438.8  74148.05  1786.70  2.41
440.2  75878.25  1832.70  2.42
441.7  77723.15  1893.76  2.44
443.1  79540.65  1946.96  2.45
444.6  81318.58  1994.65  2.45
446.0  83123.63  2053.76  2.47
447.5  85075.00  2121.43  2.49
448.9  86838.70  2186.28  2.52
450.4  88725.00  2247.62  2.53
451.8  90550.50  2301.93  2.54
453.3  92380.13  2366.22  2.56
454.7  94199.63  2426.27  2.58
456.2  95991.35  2484.43  2.59
457.6  97906.05  2550.34  2.60
459.1  99735.83  2604.35  2.61
460.5  101595.55  2661.20  2.62
462.0  103617.00  2726.83  2.63
463.4  105647.15  2785.95  2.64
464.8  107608.73  2848.35  2.65
466.3  109545.45  2911.21  2.66
467.7  111547.20  2971.28  2.66
469.2  113432.70  3035.63  2.68
470.6  115471.13  3102.58  2.69
472.0  117559.05  3165.24  2.69
473.5  119573.60  3234.03  2.70
474.9  121743.45  3300.75  2.71
476.4  123849.00  3373.06  2.72
477.8  125944.00  3448.00  2.74
479.2  127990.18  3512.47  2.74
480.7  130167.68  3586.13  2.76
482.1  132364.50  3662.16  2.77
483.6  134589.60  3735.94  2.78
485.0  136825.73  3815.26  2.79
486.4  138943.18  3895.74  2.80
487.9  141221.75  3987.29  2.82
489.3  143375.70  4076.96  2.84
490.7  145578.65  4178.08  2.87
492.2  147805.38  4277.87  2.89
493.6  150074.90  4385.15  2.92
495.0  152345.70  4513.23  2.96
496.5  154535.85  4638.60  3.00
497.9  156885.38  4777.81  3.05
499.3  159155.38  4934.55  3.10
500.7  161451.50  5123.65  3.17
502.2  163846.13  5317.05  3.25
503.6  166154.40  5532.57  3.33
505.0  168448.78  5781.00  3.43
506.5  170928.85  6068.92  3.55
507.9  173369.05  6395.89  3.69
509.3  175621.95  6762.75  3.85
510.7  178273.88  7189.93  4.03
512.2  180886.35  7667.81  4.24
513.6  183733.58  8225.08  4.48
515.0  186472.83  8844.33  4.74
516.4  189361.40  9553.47  5.05
517.8  192167.00  10329.05  5.38
519.3  195105.60  11185.68  5.73
520.7  197748.70  12078.86  6.11
522.1  200397.28  13030.21  6.50
523.5  202957.95  14007.76  6.90
524.9  205868.55  15021.59  7.30
526.3  208503.45  16025.14  7.69
527.8  211281.13  17022.33  8.06
529.2  213811.20  18012.34  8.42
530.6  216587.70  18995.92  8.77
532.0  219441.63  19966.64  9.10
533.4  221935.05  20837.82  9.39
534.8  224420.63  21675.42  9.66
536.3  227291.08  22496.59  9.90
537.7  230229.50  23293.86  10.12
539.1  233074.40  24054.89  10.32
540.5  235894.50  24795.57  10.51
541.9  238790.43  25538.53  10.69
543.3  241330.60  26241.79  10.87
544.7  244288.00  26984.57  11.05
546.1  247076.20  27703.67  11.21
547.5  249955.20  28425.60  11.37
549.0  252979.60  29130.82  11.52
550.4  255814.65  29776.50  11.64
551.8  258749.55  30381.60  11.74
553.2  261589.05  30888.89  11.81
554.6  264379.30  31297.09  11.84
556.0  267250.20  31598.90  11.82
557.4  270321.60  31826.74  11.77
558.8  273151.83  31950.21  11.70
560.2  276300.00  32040.00  11.60
561.6  279183.03  32030.14  11.47
563.0  281958.95  31948.30  11.33
564.4  285072.90  31857.47  11.18
565.8  288058.70  31695.55  11.00
567.2  291166.03  31471.29  10.81
568.6  294100.88  31158.32  10.59
570.0  296933.00  30731.85  10.35
571.4  300275.35  30299.65  10.09
572.8  303387.80  29825.48  9.83
574.2  306193.13  29325.25  9.58
575.6  309194.25  28880.70  9.34
577.0  312166.53  28472.16  9.12
578.4  315503.13  28141.67  8.92
579.8  318520.18  27827.11  8.74
581.2  321534.75  27566.69  8.57
582.5  324360.00  27327.86  8.43
583.9  327402.10  27140.55  8.29
585.3  330218.00  26971.84  8.17
586.7  333125.10  26853.20  8.06
588.1  336055.90  26768.37  7.97
589.5  339331.95  26752.80  7.88
590.9  342246.13  26745.27  7.81
592.3  345115.13  26782.86  7.76
593.7  348066.43  26868.70  7.72
595.0  350943.60  26973.32  7.69
596.4  354145.38  27120.86  7.66
597.8  356771.40  27208.40  7.63
599.2  359817.90  27310.40  7.59
600.6  362934.83  27370.12  7.54
602.0  365869.80  27367.65  7.48
603.3  368706.00  27300.00  7.40
604.7  371660.70  27169.10  7.31
606.1  374621.25  26966.68  7.20
607.5  377864.78  26714.82  7.07
608.9  380911.30  26395.60  6.93
610.2  384008.63  26053.03  6.78
611.6  386870.00  25674.52  6.64
613.0  389591.70  25290.48  6.49
614.4  392346.25  24922.40  6.35
615.8  395507.50  24602.22  6.22
617.1  398141.85  24297.69  6.10
618.5  401332.58  24082.74  6.00
619.9  404022.30  23888.65  5.91
621.3  406916.90  23759.82  5.84
622.6  409792.50  23692.50  5.78
624.0  412409.63  23652.04  5.74
625.4  415456.05  23693.37  5.70
626.8  418321.15  23764.99  5.68
628.1  421054.55  23863.87  5.67
629.5  423748.15  23982.50  5.66
630.9  426469.75  24118.63  5.66
632.2  429403.65  24254.41  5.65
633.6  431747.23  24328.01  5.63
635.0  434544.55  24382.66  5.61
636.3  437478.73  24353.61  5.57
637.7  440123.28  24228.86  5.51
639.1  443061.30  24044.17  5.43
640.4  445727.25  23780.25  5.34
641.8  448464.60  23454.68  5.23
643.2  450981.15  23079.40  5.12
644.5  453810.00  22696.67  5.00
645.9  456333.15  22280.60  4.88
647.2  458540.78  21889.27  4.77
648.6  461021.60  21543.24  4.67
650.0  463680.00  21232.28  4.58
651.3  466607.85  20977.01  4.50
652.7  470643.00  20784.86  4.42
654.0  473492.30  20542.68  4.34
655.4  475664.70  20239.55  4.26
656.8  477320.55  19882.65  4.17
658.1  479891.48  19521.60  4.07
659.5  482976.00  19106.74  3.96
660.8  485690.10  18687.80  3.85
662.2  488357.73  18273.79  3.74
663.5  491026.95  17903.35  3.65
664.9  492832.30  17562.86  3.56
666.2  494934.38  17293.56  3.49
667.6  497396.25  17083.71  3.43
668.9  499953.60  16950.86  3.39
670.3  503052.38  16876.42  3.35
671.6  505026.40  16850.97  3.34
673.0  507231.20  16895.39  3.33
674.3  509597.55  16976.30  3.33
675.7  512041.50  17117.40  3.34
677.0  514258.28  17268.01  3.36
678.4  516359.20  17478.84  3.39
679.7  518607.45  17758.63  3.42
681.1  521020.75  18115.10  3.48
682.4  523119.38  18560.25  3.55
683.8  525322.88  19149.46  3.65
685.1  527483.70  19907.03  3.77
686.4  529675.58  20898.24  3.95
687.8  531943.88  22235.71  4.18
689.1  534262.40  24025.87  4.50
690.5  536267.75  26391.52  4.92
691.8  538694.48  29552.26  5.49
693.1  541053.00  33627.57  6.22
694.5  543365.80  38639.12  7.11
695.8  545638.20  44540.70  8.16
697.1  547866.90  51274.67  9.36
698.5  550067.63  58715.09  10.67
699.8  552281.20  66708.00  12.08
701.1  554099.70  75040.30  13.54
702.5  556024.13  83585.69  15.03
703.8  558372.60  92245.12  16.52
705.1  560130.15  100744.98  17.99
706.5  562344.13  109205.38  19.42
707.8  564057.75  117425.47  20.82
709.1  566252.03  125551.05  22.17
710.5  568317.23  133492.23  23.49
711.8  570137.00  141216.10  24.77
713.1  571986.00  148759.52  26.01
714.4  573953.50  156188.95  27.21
715.8  576128.13  163492.19  28.38
717.1  578296.30  170631.54  29.51
718.4  580404.30  177567.63  30.59
719.7  582502.95  184312.24  31.64
721.0  584149.03  190701.68  32.65
722.4  585913.95  196903.07  33.61
723.7  587765.40  202891.86  34.52
725.0  589396.93  208537.83  35.38
726.3  591572.80  214109.01  36.19
727.6  593215.50  219239.79  36.96
729.0  594918.80  224133.83  37.67
730.3  596813.33  228808.33  38.34
731.6  598247.60  233022.45  38.95
732.9  600059.53  237185.96  39.53
734.2  601627.13  240967.18  40.05
735.5  603356.05  244575.31  40.54
736.8  605228.75  248065.98  40.99
738.1  606914.03  251243.26  41.40
739.5  608612.85  254173.89  41.76
740.8  610339.68  257013.74  42.11
742.1  611822.50  259534.78  42.42
743.4  613379.20  261973.30  42.71
744.7  615146.00  264315.33  42.97
746.0  616562.50  266345.60  43.20
747.3  618118.90  268266.40  43.40
748.6  619603.25  270088.79  43.59
749.9  621275.50  271868.96  43.76
751.2  622404.75  273342.51  43.92
752.5  623679.13  274828.07  44.07
753.8  624844.80  276154.24  44.20
755.1  626250.85  277509.23  44.31
756.4  627255.15  278596.67  44.42
757.7  629171.13  280011.15  44.50
759.0  632625.35  282057.10  44.59
760.3  635096.00  283667.38  44.67
761.6  637742.85  285271.01  44.73
762.9  639069.75  286195.64  44.78
764.2  639743.70  286827.91  44.83
765.5  640450.30  287458.56  44.88
766.8  640935.85  287916.08  44.92
768.1  641850.30  288588.60  44.96
769.3  642924.75  289311.63  45.00
770.6  644214.20  290082.20  45.03
771.9  645203.63  290738.30  45.06
773.2  646448.40  291488.23  45.09
774.5  647229.60  292000.38  45.12
775.8  648210.40  292571.69  45.14
777.1  649229.63  293184.53  45.16
778.4  650413.38  293816.16  45.17
779.6  651490.80  294464.29  45.20
780.9  652082.40  294844.24  45.22
782.2  652896.40  295369.18  45.24
783.5  653665.00  295819.40  45.26
784.8  654283.88  296234.25  45.28
786.0  654981.33  296628.00  45.29
787.3  655605.25  297032.67  45.31
788.6  656372.13  297481.23  45.32
789.9  656997.20  297825.99  45.33
791.2  658165.80  298459.22  45.35
792.4  659175.00  298986.03  45.36
793.7  660557.53  299705.11  45.37
795.0  661443.15  300205.31  45.39
796.2  662636.20  300812.81  45.40
797.5  663673.75  301352.56  45.41
798.8  664913.38  302010.42  45.42
800.0  665910.00  302546.67  45.43
801.3  667004.63  303095.25  45.44
802.6  667872.00  303579.43  45.45
803.8  668888.85  304090.30  45.46
805.1  669676.88  304576.07  45.48
806.4  670506.83  305043.71  45.49
807.7  671559.45  305553.32  45.50
808.9  672578.23  306107.29  45.51
810.2  673348.20  306530.20  45.52
811.4  674291.60  307027.32  45.53
812.7  675610.85  307673.46  45.54
814.0  676714.50  308277.20  45.55
815.2  677979.15  308922.16  45.57
816.5  679048.13  309462.50  45.57
817.7  679813.25  309863.48  45.58
819.0  680381.80  310237.87  45.60
820.2  681148.50  310648.56  45.61
821.5  682118.20  311179.93  45.62
822.7  683205.25  311686.15  45.62
824.0  684039.85  312154.95  45.63
825.2  684717.15  312500.31  45.64
826.5  685499.35  312878.41  45.64
827.7  686440.55  313426.90  45.66
829.0  687398.55  313894.01  45.66
830.2  688325.80  314379.37  45.67
831.5  689251.95  314847.66  45.68
832.7  690106.95  315328.37  45.69
834.0  690847.65  315656.87  45.69
835.2  691921.10  316172.67  45.69
836.4  692636.80  316591.88  45.71
837.7  693511.88  317011.60  45.71
838.9  694708.10  317630.51  45.72
840.1  695580.60  318068.14  45.73
841.4  696596.90  318579.06  45.73
842.6  697493.30  319067.07  45.74
843.8  698480.90  319519.32  45.74
845.1  699268.35  319998.02  45.76
846.3  700272.30  320524.50  45.77
847.5  701177.75  320975.88  45.78
848.8  702153.65  321456.45  45.78
850.0  703431.60  322068.65  45.79
851.2  704341.65  322567.33  45.80
852.5  705659.20  323185.04  45.80
853.7  706509.00  323589.47  45.80
854.9  707600.40  324186.20  45.81
856.1  708866.60  324698.66  45.81
857.4  709785.75  325163.53  45.81
858.6  710913.00  325687.20  45.81
859.8  712175.10  326277.11  45.81
861.0  713230.35  326810.40  45.82
862.2  714333.90  327308.40  45.82
863.5  715249.53  327808.31  45.83
864.7  716306.25  328325.00  45.84
865.9  717425.63  328852.09  45.84
867.1  718071.88  329237.80  45.85
868.3  719376.25  329804.17  45.85
869.5  720509.75  330332.71  45.85
870.8  721854.00  330900.30  45.84
872.0  722844.90  331395.15  45.85
873.2  723809.60  331864.10  45.85
874.4  724826.50  332333.28  45.85
875.6  725936.30  332935.54  45.86
876.8  727427.25  333574.69  45.86
878.0  728576.80  334023.63  45.85
879.2  729694.40  334505.76  45.84
880.4  730898.00  335035.43  45.84
881.6  731876.10  335528.16  45.84
882.8  733085.55  336164.56  45.86
884.0  734119.75  336530.91  45.84
885.2  735509.25  337132.26  45.84
886.5  736847.48  337729.12  45.83
887.7  737886.70  338202.33  45.83
888.8  739408.75  338862.19  45.83
890.0  740328.75  339255.00  45.82
891.2  741175.50  339763.08  45.84
892.4  742664.18  340352.89  45.83
893.6  744468.18  341142.68  45.82
894.8  746006.10  341831.49  45.82
896.0  747648.48  342466.56  45.81
897.2  749576.03  343327.76  45.80
898.4  751449.30  344214.20  45.81
899.6  752702.20  344754.51  45.80
900.8  753090.65  344977.85  45.81
902.0  753770.90  345181.58  45.79
903.2  753972.90  345224.90  45.79
904.3  754869.38  345672.32  45.79
905.5  756459.00  346259.57  45.77
906.7  757627.53  346813.70  45.78
907.9  758350.60  347238.54  45.79
909.1  759335.50  347635.02  45.78
910.2  759307.50  347760.00  45.80
911.4  759619.80  347783.23  45.78
912.6  760480.00  347999.05  45.76
913.8  761524.75  348406.80  45.75
915.0  761917.00  348589.94  45.75
916.2  761707.73  348623.64  45.77
917.3  762068.08  348882.44  45.78
918.5  762433.35  348976.69  45.77
919.7  762763.25  348982.05  45.75
920.8  763040.03  349000.54  45.74
922.0  762983.65  349018.16  45.74
923.2  763497.23  349152.00  45.73
924.4  764038.25  349364.20  45.73
925.5  764354.40  349681.05  45.75
926.7  765491.08  349933.36  45.71
927.9  766626.90  350441.49  45.71
929.0  769594.50  351758.57  45.71
930.2  773915.60  353578.42  45.69
931.4  778700.50  355743.79  45.68
932.5  783313.85  357657.14  45.66
933.7  785801.18  358719.82  45.65
934.9  787036.25  359177.50  45.64
936.0  785562.08  358601.36  45.65
937.2  782943.95  357077.50  45.61
938.3  778963.25  355121.93  45.59
939.5  776997.00  354003.00  45.56
940.7  777016.63  353796.48  45.53
941.8  779608.05  354965.56  45.53
943.0  781597.43  355605.71  45.50
944.2  782874.00  356309.72  45.51
945.3  782539.80  355801.20  45.47
946.5  780718.75  354821.67  45.45
947.6  781575.50  355009.74  45.42
948.8  780095.38  354169.41  45.40
949.9  780961.30  354046.35  45.33
951.1  780577.95  353674.81  45.31
952.2  780211.60  353265.08  45.28
953.4  779781.60  352837.68  45.25
954.5  778052.63  351785.00  45.21
955.7  777598.65  351248.86  45.17
956.8  778015.03  350802.07  45.09
958.0  777057.30  350106.00  45.06
959.1  776563.20  349617.60  45.02
960.3  776075.00  349165.47  44.99
961.4  776933.50  349142.15  44.94
962.6  776181.60  348706.29  44.93
963.7  775894.00  348669.87  44.94
964.9  776319.05  348516.98  44.89
966.0  776498.80  348455.57  44.88
967.2  777163.80  348488.00  44.84
968.3  778428.95  349020.36  44.84
969.5  778405.35  348979.40  44.83
970.6  778515.50  348980.10  44.83
971.8  778428.18  348606.85  44.78
972.9  779205.00  348726.67  44.75
974.0  779937.98  348907.18  44.74
975.2  778359.38  348507.32  44.77
976.3  779200.75  348715.74  44.75
977.5  779291.63  348350.49  44.70
978.6  779451.23  348254.74  44.68
979.7  780472.00  347834.67  44.57
980.9  781007.10  347987.29  44.56
982.0  779784.05  347995.89  44.63
983.2  779109.80  347624.93  44.62
984.3  777764.05  346761.70  44.58
985.4  777798.70  346286.00  44.52
986.6  779388.58  346593.50  44.47
987.7  777554.88  346042.51  44.50
988.9  779067.38  346519.54  44.48
990.0  778295.90  346097.18  44.47
993.1  860013.60  380205.17  44.21
996.9  859585.50  380507.18  44.27
1000.7  859049.88  380809.48  44.33
1004.5  857878.93  380848.37  44.39
1008.4  858744.28  381835.97  44.46
1012.2  860110.88  382865.09  44.51
1016.0  860136.08  383238.83  44.56
1019.8  858883.83  382993.83  44.59
1023.7  857417.73  382591.26  44.62
1027.5  854760.67  381794.64  44.67
1031.3  852856.17  381231.35  44.70
1035.1  851527.80  380884.38  44.73
1038.9  850763.67  380810.96  44.76
1042.7  850142.25  380843.23  44.80
1046.5  849349.38  380669.13  44.82
1050.3  847697.48  380046.74  44.83
1054.2  845544.98  379283.14  44.86
1058.0  844671.60  378926.23  44.86
1061.8  843449.92  378496.43  44.87
1065.6  841542.71  377564.29  44.87
1069.4  838948.15  376404.11  44.87
1073.2  836743.38  375308.14  44.85
1077.0  835304.80  374507.47  44.83
1080.8  834892.67  374110.52  44.81
1084.6  834689.17  373839.19  44.79
1088.4  834089.43  373493.46  44.78
1092.2  832762.23  372718.40  44.76
1096.0  831215.40  371797.68  44.73
1099.8  829606.38  370770.14  44.69
1103.6  827609.58  369595.32  44.66
1107.4  825896.96  368491.48  44.62
1111.2  824350.28  367455.58  44.58
1114.9  823300.50  366566.36  44.52
1118.7  822792.50  365775.73  44.46
1122.5  822698.28  365067.08  44.37
1126.3  820244.25  363127.05  44.27
1130.1  819595.43  361645.24  44.12
1133.9  816079.93  358385.85  43.92
1137.7  813361.60  355131.46  43.66
1141.4  809528.95  351024.26  43.36
1145.2  808508.73  347867.62  43.03
1149.0  806463.30  344444.19  42.71
1152.8  803082.35  340708.56  42.43
1156.6  799346.38  337396.83  42.21
1160.3  796078.05  334719.73  42.05
1164.1  791341.93  331810.09  41.93
1167.9  788260.71  329876.17  41.85
1171.7  785769.43  328287.14  41.78
1175.4  783300.48  326809.60  41.72
1179.2  781177.50  325456.39  41.66
1183.0  781456.88  325074.05  41.60
1186.7  781708.67  324729.33  41.54
1190.5  780446.96  323930.99  41.51
1194.3  777630.58  322576.57  41.48
1198.0  774409.45  321193.22  41.48
1201.8  771848.00  320122.00  41.47
1205.6  770337.13  319647.06  41.49
1209.3  769126.50  319532.57  41.54
1213.1  767791.17  319394.85  41.60
1216.8  765770.93  319154.42  41.68
1220.6  763383.33  318714.22  41.75
1224.3  760925.00  318214.29  41.82
1228.1  758597.23  317815.73  41.90
1231.9  756115.10  317199.54  41.95
1235.6  753533.28  316491.25  42.00
1239.4  751061.42  315863.24  42.06
1243.1  748836.90  315171.26  42.09
1246.9  746802.74  314510.66  42.11
1250.6  744732.92  313770.57  42.13
1254.3  742682.40  313052.57  42.15
1258.1  740499.33  312192.19  42.16
1261.8  738023.77  311140.50  42.16
1265.6  735816.96  310126.94  42.15
1269.3  733789.13  309175.70  42.13
1273.1  734317.41  309239.39  42.11
1276.8  734161.73  308939.90  42.08
1280.6  733184.77  308194.74  42.04
1284.3  730505.92  306637.69  41.98
1288.0  728717.82  305399.52  41.91
1291.8  727385.40  304230.60  41.83
1295.5  725852.35  302945.52  41.74
1299.2  723475.35  301184.74  41.63
1302.9  720445.83  298973.14  41.50
1306.7  717182.55  296506.80  41.34
1310.4  714030.42  293834.26  41.15
1314.1  711466.88  291229.29  40.93
1317.9  708948.39  288366.54  40.68
1321.6  706025.78  285174.07  40.39
1325.3  703229.18  281743.46  40.06
1329.0  700592.20  278288.27  39.72
1332.8  696870.00  274179.46  39.34
1336.5  693420.50  270144.69  38.96
1340.2  691574.35  266763.86  38.57
1343.9  690957.23  263864.85  38.19
1347.6  690929.93  261190.36  37.80
1351.4  691541.25  258871.61  37.43
1355.1  693887.06  257240.07  37.07
1358.8  694074.27  254679.79  36.69
1362.5  694429.28  251986.34  36.29
1366.2  691667.67  247705.28  35.81
1369.9  686128.00  241805.57  35.24
1373.6  681389.04  235202.31  34.52
1377.3  679210.47  228139.27  33.59
1381.0  677183.05  219401.49  32.40
1384.8  673332.80  208182.42  30.92
1388.4  668052.05  195190.26  29.22
1392.2  663488.33  181441.12  27.35
1395.9  661661.73  168087.26  25.40
1399.6  657478.25  154689.71  23.53
1403.3  654831.60  142800.17  21.81
1407.0  651952.13  132366.54  20.30
1410.7  650035.95  123800.43  19.05
1414.3  647400.50  116721.78  18.03
1418.1  644838.54  111177.09  17.24
1421.7  642475.40  106854.20  16.63
1425.4  640721.35  103648.10  16.18
1429.1  636877.50  100947.00  15.85
1432.8  635415.38  99304.29  15.63
1436.5  632160.75  97858.43  15.48
1440.2  628822.83  96856.33  15.40
1443.9  626692.17  96317.37  15.37
1447.6  623097.60  95821.94  15.38
1451.2  619912.90  95527.80  15.41
1454.9  618086.58  95596.22  15.47
1458.6  614171.89  95637.76  15.57
1462.3  613241.53  96437.11  15.73
1466.0  613233.42  97765.57  15.94
1469.7  611441.60  99201.67  16.22
1473.3  609177.80  100895.67  16.56
1477.0  604910.18  102498.80  16.94
1480.7  601729.50  104434.97  17.36
1484.4  598009.43  106319.96  17.78
1488.0  594825.37  108415.39  18.23
1491.7  591299.53  110423.87  18.67
1495.4  587836.35  112455.92  19.13
1499.0  584902.18  114534.09  19.58
1502.7  582157.09  116634.81  20.03
1506.4  579415.80  118678.43  20.48
1510.0  576606.88  120638.84  20.92
1513.7  573858.08  122536.06  21.35
1517.4  571308.50  124398.83  21.77
1521.0  568895.43  126209.44  22.18
1524.7  566376.15  127863.57  22.58
1528.3  563947.22  129461.68  22.96
1532.0  561363.80  130916.52  23.32
1535.7  558627.75  132221.09  23.67
1539.3  556119.13  133482.00  24.00
1543.0  554430.92  134906.34  24.33
1546.6  553080.00  136324.64  24.65
1550.3  551497.68  137597.78  24.95
1553.9  549184.87  138595.00  25.24
1557.6  546928.78  139552.02  25.52
1561.2  544419.78  140339.25  25.78
1564.9  541763.37  141032.00  26.03
1568.5  539066.67  141648.00  26.28
1572.2  536758.25  142322.83  26.52
1575.8  534863.00  143094.13  26.75
1579.5  532935.55  143781.55  26.98
1583.1  530610.38  144337.27  27.20
1586.8  528383.30  144849.78  27.41
1590.4  526112.38  145292.77  27.62
1594.0  523796.43  145730.18  27.82
1597.7  521918.38  146263.60  28.02
1601.3  519882.30  146743.94  28.23
1604.9  517388.30  147037.68  28.42
1608.6  514402.65  147118.53  28.60
1612.2  511486.46  147116.63  28.76
1615.8  508875.00  147172.97  28.92
1619.5  506568.66  147260.97  29.07
1623.1  503780.48  147155.37  29.21
1626.7  500998.10  146978.11  29.34
1630.3  498467.40  146818.97  29.45
1634.0  496096.36  146634.91  29.56
1637.6  493819.17  146420.12  29.65
1641.2  491583.75  146080.83  29.72
1644.8  489065.18  145530.25  29.76
1648.5  486417.98  144866.19  29.78
1652.1  484316.12  144226.17  29.78
1655.7  482392.52  143583.90  29.76
1659.3  480560.85  142933.50  29.74
1662.9  477342.73  141840.43  29.71
1666.6  473764.78  140646.75  29.69
1670.2  470450.48  139509.39  29.65
1673.8  467201.83  138326.48  29.61
1677.4  464682.08  137285.99  29.54
1681.0  463003.83  136379.75  29.46
1684.6  462163.17  135569.17  29.33
1688.2  460605.60  134440.80  29.19
1691.8  458902.98  133350.11  29.06
1695.4  458039.36  132471.73  28.92
1699.0  457135.45  131552.56  28.78
1702.6  456569.87  130691.24  28.62
1706.2  454994.73  129499.85  28.46
1709.8  452858.67  128143.26  28.30
1713.4  451306.70  126946.67  28.13
1717.0  449624.20  125779.55  27.97
1720.6  447899.33  124624.55  27.82
1724.2  446504.46  123570.53  27.68
1727.8  445124.09  122608.77  27.54
1731.4  444372.63  121867.80  27.42
1735.0  444285.88  121389.55  27.32
1738.6  443822.63  120707.47  27.20
1742.2  442929.80  119817.10  27.05
1745.8  441245.87  118641.07  26.89
1749.4  438885.73  117238.44  26.71
1753.0  435148.40  115445.89  26.53
1756.6  431359.25  113666.00  26.35
1760.1  428118.80  112086.91  26.18
1763.7  424328.38  110434.43  26.03
1767.3  421211.16  109066.08  25.89
1770.9  418548.54  107852.72  25.77
1774.5  415419.64  106626.89  25.67
1778.0  413290.70  105688.67  25.57
1781.6  411019.13  104833.11  25.51
1785.2  408367.57  103947.29  25.45
1788.8  405556.67  103145.69  25.43
1792.3  403301.98  102530.02  25.42
1795.9  402783.67  102401.04  25.42
1799.5  403434.40  102629.93  25.44
1803.1  406025.71  103438.80  25.48
1806.6  408562.82  104295.77  25.53
1810.2  410435.03  104945.10  25.57
1813.8  409833.93  104908.26  25.60
1817.3  408971.75  104725.11  25.61
1820.9  407825.00  104416.52  25.60
1824.5  406863.70  104100.78  25.59
1828.0  407221.93  104064.63  25.55
1831.6  408365.96  104145.48  25.50
1835.2  408334.43  103782.38  25.42
1838.7  408850.75  103341.92  25.28
1842.3  407330.00  102206.25  25.09
1845.8  405409.58  100690.92  24.84
1849.4  404802.53  99118.27  24.49
1852.9  402953.13  96789.28  24.02
1856.5  401307.40  93940.26  23.41
1860.0  400830.37  90750.73  22.64
1863.6  400480.36  86875.50  21.69
1867.1  401107.66  82453.94  20.56
1870.7  402597.56  77205.34  19.18
1874.2  401131.80  70483.44  17.57
1877.8  396359.58  62782.78  15.84
1881.3  391661.08  54947.08  14.03
1884.9  388512.15  47605.71  12.25
1888.4  385757.65  40704.76  10.55
1891.9  383553.98  34806.36  9.07
1895.5  381815.12  30021.18  7.86
1899.0  381040.85  26454.76  6.94
1901.3  396207.73  19696.27  4.97
1904.1  396229.75  17595.53  4.44
1906.8  394582.75  15950.53  4.04
1909.6  390901.47  14652.64  3.75
1912.4  387259.87  13614.07  3.52
1915.1  383605.80  12839.71  3.35
1917.9  380108.35  12268.98  3.23
1920.6  377485.60  11873.92  3.15
1923.3  375261.20  11572.27  3.08
1926.1  372266.40  11328.60  3.04
1928.8  368960.80  11199.07  3.04
1931.6  368191.67  11184.49  3.04
1934.3  364852.58  11156.19  3.06
1937.0  361354.80  11186.00  3.10
1939.8  358357.17  11251.47  3.14
1942.5  354067.80  11326.93  3.20
1945.2  350532.92  11479.72  3.27
1947.9  347750.00  11676.67  3.36
1950.7  343545.33  11856.21  3.45
1953.4  340018.40  12088.96  3.56
1956.1  337296.27  12356.21  3.66
1958.8  335081.25  12698.19  3.79
1961.5  332120.60  13037.73  3.93
1964.2  328771.27  13363.31  4.06
1966.9  325753.87  13721.42  4.21
1969.6  323075.37  14103.58  4.37
1972.3  320541.35  14506.77  4.53
1975.0  318060.00  14942.00  4.70
1977.7  315867.95  15400.65  4.88
1980.4  313708.27  15858.58  5.06
1983.1  311363.13  16319.42  5.24
1985.8  309284.40  16796.00  5.43
1988.4  307264.65  17270.37  5.62
1991.1  305515.00  17816.63  5.83
1993.8  304033.10  18357.97  6.04
1996.5  302551.20  18885.77  6.24
1999.1  301174.27  19415.96  6.45
2001.8  299940.75  19962.08  6.66
2004.5  298754.05  20504.53  6.86
2007.1  297257.87  20998.80  7.06
2009.8  295245.42  21457.92  7.27
2012.4  293948.05  21966.44  7.47
2015.1  292809.67  22435.80  7.66
2017.8  291641.70  22900.37  7.85
2020.4  290533.15  23340.27  8.03
2023.1  290044.12  23826.69  8.21
2025.7  289787.87  24279.56  8.38
2028.3  289004.43  24712.51  8.55
2031.0  288387.72  25109.56  8.71
2033.6  288093.00  25494.83  8.85
2036.2  287701.40  25840.66  8.98
2038.9  286728.00  26124.80  9.11
2041.5  285791.67  26395.83  9.24
2044.1  285000.00  26652.78  9.35
2046.8  283876.88  26867.38  9.46
2049.4  283035.47  27091.89  9.57
2052.0  282834.35  27355.27  9.67
2054.6  282461.87  27618.40  9.78
2057.2  281417.45  27814.07  9.88
2059.8  279930.00  27972.00  9.99
2062.4  278554.90  28148.32  10.11
2065.0  277186.40  28333.30  10.22
2067.6  275368.40  28465.11  10.34
2070.2  273875.03  28633.38  10.45
2072.8  272944.83  28849.03  10.57
2075.4  271907.00  29047.72  10.68
2078.0  271233.27  29274.89  10.79
2080.6  270010.57  29429.02  10.90
2083.2  268717.90  29587.53  11.01
2085.8  267408.75  29733.43  11.12
2088.4  266333.30  29908.16  11.23
2090.9  264665.00  29985.33  11.33
2093.5  262770.60  30045.60  11.43
2096.1  261003.60  30130.10  11.54
2098.7  259540.15  30219.89  11.64
2101.2  257613.20  30266.73  11.75
2103.8  256143.33  30347.42  11.85
2106.4  254670.87  30442.48  11.95
2108.9  253675.20  30585.10  12.06
2111.5  252762.42  30713.08  12.15
2114.0  252135.00  30896.67  12.25
2116.6  249951.53  30870.77  12.35
2119.1  248833.90  30958.67  12.44
2121.7  248243.22  31105.51  12.53
2124.2  248114.00  31309.00  12.62
2126.8  246959.45  31373.87  12.70
2129.3  245839.62  31421.51  12.78
2131.9  246034.13  31643.29  12.86
2134.4  245228.08  31724.04  12.94
2136.9  244972.00  31855.33  13.00
2139.4  243938.17  31883.97  13.07
2142.0  243494.50  32008.77  13.15
2144.5  242974.08  32113.50  13.22
2147.0  242552.88  32225.46  13.29
2149.5  242169.03  32351.43  13.36
2152.1  242528.00  32559.08  13.42
2154.6  242579.20  32719.73  13.49
2157.1  242499.27  32861.32  13.55
2159.6  241447.77  32845.74  13.60
2162.1  241269.60  32931.64  13.65
2164.6  240622.53  32978.20  13.71
2167.1  239665.63  33000.01  13.77
2169.6  239810.02  33136.92  13.82
2172.1  239047.80  33181.17  13.88
2174.6  238675.03  33254.12  13.93
2177.1  237606.17  33259.08  14.00
2179.5  237147.40  33320.83  14.05
2182.0  236817.25  33442.69  14.12
2184.5  235900.95  33437.10  14.17
2187.0  235085.20  33501.04  14.25
2189.5  234043.87  33527.64  14.33
2191.9  232806.38  33530.75  14.40
2194.4  231189.00  33439.42  14.46
2196.9  230089.02  33434.13  14.53
2199.3  228678.60  33341.47  14.58
2201.8  227489.73  33310.01  14.64
2204.3  226758.60  33330.87  14.70
2206.7  225512.70  33265.28  14.75
2209.2  224267.85  33214.05  14.81
2211.6  222336.43  32986.94  14.84
2214.1  221668.18  32941.65  14.86
2216.5  221317.95  32930.87  14.88
2219.0  219995.23  32762.40  14.89
2221.4  219982.05  32757.00  14.89
2223.9  218829.00  32553.44  14.88
2226.3  217566.82  32313.77  14.85
2228.7  216652.80  32051.93  14.79
2231.1  215996.33  31791.20  14.72
2233.6  214934.40  31434.13  14.62
2236.0  213868.57  31072.36  14.53
2238.4  213000.98  30684.65  14.41
2240.9  212267.80  30304.40  14.28
2243.3  211401.80  29837.74  14.11
2245.7  210593.63  29401.87  13.96
2248.1  209608.53  28898.13  13.79
2250.5  208832.80  28451.87  13.62
2252.9  208211.83  27994.63  13.45
2255.3  207474.70  27519.39  13.26
2257.7  206555.07  27019.30  13.08
2260.1  205644.40  26582.40  12.93
2262.5  204593.60  26118.53  12.77
2264.9  203611.10  25684.78  12.61
2267.3  202716.80  25272.87  12.47
2269.7  201769.40  24873.58  12.33
2272.1  200968.33  24537.17  12.21
2274.5  200219.20  24199.89  12.09
2276.8  199484.53  23883.11  11.97
2279.2  198683.30  23566.97  11.86
2281.6  198110.15  23314.58  11.77
2284.0  197772.30  23076.90  11.67
2286.3  197290.60  22829.15  11.57
2288.7  196704.78  22587.19  11.48
2291.1  196176.00  22315.83  11.38
2293.4  195466.90  22011.90  11.26
2295.8  194761.23  21729.64  11.16
2298.2  193966.10  21430.07  11.05
2300.5  192851.40  21092.47  10.94
2302.9  191445.40  20749.38  10.84
2305.2  189973.75  20402.83  10.74
2307.6  188432.53  20055.47  10.64
2309.9  187393.55  19754.28  10.54
2312.2  186438.00  19514.45  10.47
2314.6  185396.27  19333.69  10.43
2316.9  184359.90  19116.64  10.37
2319.2  183674.88  18935.22  10.31
2321.6  183102.05  18766.11  10.25
2323.9  182297.20  18559.27  10.18
2326.2  181462.77  18365.90  10.12
2328.6  180725.15  18166.17  10.05
2330.9  180379.73  17978.58  9.97
2333.2  179970.25  17803.58  9.89
2335.5  179479.30  17599.47  9.81
2337.8  179000.00  17410.73  9.73
2340.1  178349.67  17203.80  9.65
2342.4  177912.45  16973.55  9.54
2344.8  177187.53  16769.62  9.46
2347.1  176391.70  16561.20  9.39
2349.4  175761.87  16351.11  9.30
2351.6  175028.00  16150.00  9.23
2353.9  174001.00  15942.13  9.16
2356.2  173179.65  15744.78  9.09
2358.5  172335.98  15556.20  9.03
2360.8  171593.75  15358.33  8.95
2363.1  171162.67  15208.25  8.89
2365.4  170707.50  15052.50  8.82
2367.7  170127.47  14890.27  8.75
2369.9  169504.68  14676.81  8.66
2372.2  168303.40  14388.85  8.55
2374.5  167067.50  14138.33  8.46
2376.7  166150.50  13935.67  8.39
2379.0  164936.20  13730.20  8.32
2381.3  163567.62  13437.11  8.22
2383.5  162526.00  13226.11  8.14
2385.8  161879.67  13010.86  8.04
2388.0  161051.67  12778.28  7.93
2390.3  160297.90  12553.45  7.83
2392.5  159798.17  12370.36  7.74
2394.8  158928.33  12165.47  7.65
2397.0  158406.80  11969.15  7.56
2399.3  157793.28  11724.48  7.43
2401.5  157020.50  11503.33  7.33
2403.8  156404.20  11340.89  7.25
2406.0  156008.97  11110.73  7.12
2408.2  155173.20  10855.95  7.00
2410.4  154310.03  10622.42  6.88
2412.7  153855.00  10449.87  6.79
2414.9  153248.20  10280.47  6.71
2417.1  153279.00  10128.49  6.61
2419.3  152752.37  9912.32  6.49
2421.6  151908.40  9684.81  6.38
2423.8  151400.87  9450.81  6.24
2426.0  150955.70  9255.73  6.13
2428.2  150612.00  9086.00  6.03
2430.4  150610.53  8970.53  5.96
2432.6  150528.70  8785.33  5.84
2434.8  149969.75  8609.93  5.74
2437.0  149389.50  8431.80  5.64
2439.2  148967.87  8220.91  5.52
2441.4  148145.20  8038.40  5.43
2443.6  148122.13  7837.49  5.29
2445.7  148188.97  7731.03  5.22
2447.9  148106.40  7637.28  5.16
2450.1  147282.33  7479.53  5.08
2452.3  146475.82  7266.60  4.96
2454.5  145941.60  7063.15  4.84
2456.6  145213.17  6908.33  4.76
2458.8  144073.07  6698.38  4.65
2461.0  143668.20  6568.90  4.57
2463.1  143379.33  6393.17  4.46
2465.3  142862.67  6273.55  4.39
2467.5  142397.67  6188.00  4.35
2469.6  141967.08  6043.28  4.26
2471.8  141574.07  5905.26  4.17
2473.9  140988.25  5845.67  4.15
2476.1  140172.08  5687.92  4.06
2478.2  139288.93  5567.35  4.00
2480.4  138481.92  5480.74  3.96
2482.5  137647.32  5509.13  4.00
2484.6  136776.00  5384.67  3.94
2486.8  136091.63  5231.10  3.84
2488.9  135477.80  5108.13  3.77
2491.1  134247.33  5041.35  3.76
2493.2  133007.53  4961.25  3.73
2495.3  131527.25  4890.67  3.72
2497.4  130137.28  4784.24  3.68
2499.5  129404.67  4668.02  3.61
2501.7  129324.50  4645.67  3.59
2503.8  129686.67  4600.79  3.55
2505.9  130248.10  4576.80  3.51
2508.0  131189.42  4592.78  3.50
2510.1  131935.50  4650.60  3.52
2512.2  132805.50  4641.61  3.50
2514.3  134065.75  4702.17  3.51
2516.4  135499.83  4927.27  3.64
