/*** Spectra Vista SIG Data ***/
name= 23_20220720_QUPA_38_avg.sig
comm= Averaged Ref/Tar of files: 22_20220720_QUPA_38_1_avg.sig,23_20220720_QUPA_38_2_avg.sig
data=
337.3  3266.98  207.48  6.35
338.8  3367.00  201.79  5.99
340.3  3544.99  196.55  5.54
341.8  3711.35  191.18  5.15
343.2  3922.00  187.12  4.77
344.7  4087.30  186.04  4.55
346.2  4255.21  185.58  4.36
347.7  4430.62  179.02  4.04
349.2  4624.20  174.60  3.78
350.6  4853.82  174.01  3.59
352.1  5138.45  170.29  3.31
353.6  5424.77  171.85  3.17
355.1  5696.69  174.95  3.07
356.6  6003.29  175.11  2.92
358.0  6252.40  178.19  2.85
359.5  6514.75  184.67  2.83
361.0  6822.90  182.83  2.68
362.5  7162.62  191.41  2.67
364.0  7512.85  194.04  2.58
365.4  7863.32  194.70  2.48
366.9  8186.21  202.72  2.48
368.4  8505.26  208.20  2.45
369.9  8841.68  215.17  2.43
371.3  9224.85  224.41  2.43
372.8  9619.95  230.99  2.40
374.3  10019.90  231.64  2.31
375.8  10411.69  241.01  2.31
377.2  10782.42  241.46  2.24
378.7  11167.99  250.17  2.24
380.2  11535.62  252.86  2.19
381.7  12008.11  252.36  2.10
383.1  12432.93  257.82  2.07
384.6  12894.05  264.23  2.05
386.1  13314.32  267.42  2.01
387.6  13740.01  273.61  1.99
389.0  14168.27  278.21  1.96
390.5  14606.93  286.99  1.96
392.0  15120.59  291.96  1.93
393.4  15651.15  299.54  1.91
394.9  16147.20  307.36  1.90
396.4  16637.63  313.09  1.88
397.9  17147.40  321.05  1.87
399.3  17651.53  329.23  1.87
400.8  18170.33  340.41  1.87
402.2  18752.11  347.33  1.85
403.7  19304.14  355.17  1.84
405.2  19875.17  364.49  1.83
406.6  20404.40  373.85  1.83
408.1  20961.50  381.08  1.82
409.6  21525.63  389.56  1.81
411.0  22147.07  401.18  1.81
412.5  22758.26  411.15  1.81
414.0  23359.94  422.06  1.81
415.4  24015.63  434.51  1.81
416.9  24639.88  445.99  1.81
418.4  25289.07  460.47  1.82
419.8  25947.14  471.12  1.82
421.3  26615.70  487.39  1.83
422.7  27347.00  498.31  1.82
424.2  28091.25  513.97  1.83
425.7  28791.24  523.70  1.82
427.1  29497.80  538.50  1.83
428.6  30230.17  554.09  1.83
430.0  30911.48  568.56  1.84
431.5  31720.60  583.14  1.84
432.9  32540.09  598.56  1.84
434.4  33372.48  614.41  1.84
435.9  34141.33  629.60  1.84
437.3  34927.30  646.71  1.85
438.8  35699.99  662.33  1.86
440.2  36499.29  676.83  1.85
441.7  37392.70  697.50  1.87
443.1  38235.08  714.87  1.87
444.6  39131.89  733.79  1.88
446.0  39999.77  751.19  1.88
447.5  40879.62  770.34  1.88
448.9  41753.00  792.56  1.90
450.4  42674.57  811.97  1.90
451.8  43469.84  832.19  1.91
453.3  44319.90  851.75  1.92
454.7  45260.52  872.31  1.93
456.2  46067.09  889.54  1.93
457.6  46978.02  910.48  1.94
459.1  47876.73  929.83  1.94
460.5  48729.59  948.42  1.95
462.0  49702.12  966.85  1.95
463.4  50651.19  986.34  1.95
464.8  51571.07  1004.42  1.95
466.3  52500.25  1023.09  1.95
467.7  53416.98  1041.69  1.95
469.2  54402.23  1062.66  1.95
470.6  55289.09  1080.05  1.95
472.0  56236.67  1101.87  1.96
473.5  57161.52  1122.00  1.96
474.9  58111.50  1140.14  1.96
476.4  59184.00  1163.45  1.97
477.8  60187.09  1187.41  1.97
479.2  61132.00  1209.72  1.98
480.7  62143.59  1231.34  1.98
482.1  63197.08  1256.26  1.99
483.6  64292.87  1277.32  1.99
485.0  65291.90  1302.07  1.99
486.4  66398.93  1328.83  2.00
487.9  67406.63  1356.30  2.01
489.3  68493.34  1388.99  2.03
490.7  69482.37  1417.25  2.04
492.2  70623.70  1449.56  2.05
493.6  71645.83  1480.91  2.07
495.0  72674.07  1516.48  2.09
496.5  73766.34  1557.02  2.11
497.9  74778.91  1597.20  2.14
499.3  75857.53  1642.91  2.17
500.7  77005.29  1693.61  2.20
502.2  78051.60  1748.81  2.24
503.6  79190.40  1812.76  2.29
505.0  80177.01  1880.08  2.34
506.5  81388.09  1962.27  2.41
507.9  82503.60  2055.88  2.49
509.3  83792.67  2165.17  2.58
510.7  84956.63  2285.55  2.69
512.2  86237.23  2428.15  2.82
513.6  87590.01  2595.10  2.96
515.0  88894.40  2784.17  3.13
516.4  90160.09  2997.68  3.32
517.8  91638.30  3246.60  3.54
519.3  92838.70  3510.11  3.78
520.7  94259.11  3801.87  4.03
522.1  95453.91  4102.06  4.30
523.5  96716.20  4421.39  4.57
524.9  97996.43  4740.35  4.84
526.3  99273.30  5052.98  5.09
527.8  100720.13  5370.54  5.33
529.2  101836.53  5662.71  5.56
530.6  103105.57  5949.75  5.77
532.0  104696.67  6232.40  5.95
533.4  105970.98  6468.68  6.10
534.8  106802.90  6655.08  6.23
536.3  108340.65  6865.01  6.34
537.7  110174.40  7073.64  6.42
539.1  111557.69  7246.22  6.50
540.5  112699.64  7395.09  6.56
541.9  114384.32  7574.36  6.62
543.3  115574.45  7716.29  6.68
544.7  116893.70  7870.62  6.73
546.1  118532.20  8045.90  6.79
547.5  119629.07  8177.12  6.84
549.0  121203.50  8335.70  6.88
550.4  122541.67  8466.51  6.91
551.8  123930.13  8576.93  6.92
553.2  125363.06  8667.12  6.91
554.6  126611.34  8709.65  6.88
556.0  128010.53  8733.38  6.82
557.4  129465.18  8730.33  6.74
558.8  130955.10  8700.66  6.64
560.2  132277.80  8632.84  6.53
561.6  133790.98  8550.88  6.39
563.0  135249.71  8437.62  6.24
564.4  136691.08  8302.95  6.07
565.8  138070.11  8139.66  5.90
567.2  139674.75  7973.89  5.71
568.6  141046.94  7779.20  5.52
570.0  142340.27  7571.50  5.32
571.4  143915.20  7378.46  5.13
572.8  145518.71  7193.06  4.94
574.2  147020.54  7018.78  4.77
575.6  148440.00  6857.20  4.62
577.0  149807.87  6714.08  4.48
578.4  151386.09  6597.18  4.36
579.8  152772.42  6488.84  4.25
581.2  154342.98  6402.30  4.15
582.5  155629.50  6318.78  4.06
583.9  157012.77  6247.82  3.98
585.3  158658.15  6197.94  3.91
586.7  159990.62  6149.82  3.84
588.1  161365.57  6111.46  3.79
589.5  162853.54  6089.19  3.74
590.9  164343.40  6073.88  3.70
592.3  166003.04  6077.01  3.66
593.7  167297.33  6071.75  3.63
595.0  168796.24  6081.62  3.60
596.4  170109.04  6089.34  3.58
597.8  171452.48  6093.83  3.55
599.2  172862.80  6095.57  3.53
600.6  174468.67  6095.81  3.49
602.0  175650.47  6072.00  3.46
603.3  177279.17  6054.08  3.41
604.7  178800.63  6022.73  3.37
606.1  180147.50  5972.31  3.32
607.5  181635.38  5919.32  3.26
608.9  183174.53  5862.53  3.20
610.2  184428.57  5794.27  3.14
611.6  185883.59  5730.42  3.08
613.0  187293.68  5669.56  3.03
614.4  188563.15  5606.67  2.97
615.8  189871.50  5550.47  2.92
617.1  191266.60  5507.60  2.88
618.5  192752.74  5477.91  2.84
619.9  194122.02  5454.45  2.81
621.3  195598.13  5445.52  2.78
622.6  197045.25  5443.24  2.76
624.0  198365.13  5441.93  2.74
625.4  199691.67  5456.47  2.73
626.8  201116.83  5482.45  2.73
628.1  202344.68  5501.51  2.72
629.5  204058.97  5536.58  2.71
630.9  205535.69  5571.46  2.71
632.2  206829.06  5592.86  2.70
633.6  208334.19  5613.91  2.69
635.0  209745.40  5619.73  2.68
636.3  211140.74  5612.12  2.66
637.7  212374.63  5584.99  2.63
639.1  213873.33  5551.25  2.60
640.4  215219.64  5501.64  2.56
641.8  216309.35  5439.69  2.51
643.2  217742.01  5388.45  2.47
644.5  218972.63  5332.48  2.44
645.9  220557.45  5290.14  2.40
647.2  222172.89  5261.43  2.37
648.6  223971.75  5249.77  2.34
650.0  225363.60  5233.79  2.32
651.3  225621.32  5197.04  2.30
652.7  226435.52  5179.77  2.29
654.0  228171.78  5182.71  2.27
655.4  229742.82  5185.44  2.26
656.8  230041.80  5157.12  2.24
658.1  230987.64  5138.20  2.22
659.5  233083.12  5138.29  2.20
660.8  234742.50  5135.58  2.19
662.2  235547.20  5123.63  2.18
663.5  237208.05  5129.84  2.16
664.9  238521.62  5134.89  2.15
666.2  239316.00  5139.51  2.15
667.6  241050.47  5177.17  2.15
668.9  242113.72  5221.83  2.16
670.3  243018.61  5268.04  2.17
671.6  244510.75  5340.66  2.18
673.0  245587.50  5420.73  2.21
674.3  246698.62  5506.69  2.23
675.7  247902.26  5604.63  2.26
677.0  248944.91  5708.26  2.29
678.4  250226.03  5833.90  2.33
679.7  251253.86  5965.63  2.37
681.1  252442.34  6113.52  2.42
682.4  253527.52  6268.62  2.47
683.8  254695.14  6439.63  2.53
685.1  255610.13  6619.38  2.59
686.4  256787.40  6829.68  2.66
687.8  258014.71  7081.86  2.74
689.1  258978.88  7379.59  2.85
690.5  260172.63  7780.25  2.99
691.8  261013.42  8311.15  3.18
693.1  262188.85  9051.81  3.45
694.5  263255.42  10029.94  3.81
695.8  264358.79  11301.88  4.28
697.1  265458.38  12903.15  4.86
698.5  266437.47  14867.96  5.58
699.8  267440.29  17203.42  6.43
701.1  268524.91  19903.58  7.41
702.5  269243.24  22898.99  8.50
703.8  270161.25  26171.89  9.69
705.1  271200.48  29681.31  10.94
706.5  272162.04  33348.77  12.25
707.8  273090.93  37140.91  13.60
709.1  273920.31  40997.00  14.97
710.5  274980.75  44946.82  16.35
711.8  275798.97  48885.10  17.72
713.1  276720.70  52861.73  19.10
714.4  277568.10  56815.62  20.47
715.8  278322.58  60723.11  21.82
717.1  279553.80  64686.97  23.14
718.4  280429.34  68512.11  24.43
719.7  281480.65  72289.88  25.68
721.0  281966.25  75857.90  26.90
722.4  282701.83  79380.83  28.08
723.7  283608.20  82834.72  29.21
725.0  284596.54  86193.55  30.29
726.3  285506.52  89400.10  31.31
727.6  285997.25  92350.06  32.29
729.0  286852.89  95258.40  33.21
730.3  287593.77  97994.30  34.07
731.6  288460.58  100628.75  34.88
732.9  289226.79  103089.97  35.64
734.2  289986.36  105417.25  36.35
735.5  290957.20  107694.65  37.01
736.8  291707.50  109760.34  37.63
738.1  292468.29  111701.43  38.19
739.5  293359.60  113572.20  38.71
740.8  294022.26  115238.33  39.19
742.1  294756.44  116833.01  39.64
743.4  295495.83  118334.76  40.05
744.7  296448.22  119816.70  40.42
746.0  297271.00  121155.62  40.76
747.3  297774.65  122272.53  41.06
748.6  298494.00  123387.02  41.34
749.9  299238.34  124428.57  41.58
751.2  299988.45  125404.07  41.80
752.5  300868.83  126377.22  42.00
753.8  301500.88  127184.04  42.18
755.1  302167.67  127946.50  42.34
756.4  302729.97  128606.44  42.48
757.7  303665.11  129372.11  42.60
759.0  305346.42  130413.31  42.71
760.3  306473.20  131186.75  42.81
761.6  307961.50  132079.13  42.89
762.9  308498.84  132530.46  42.96
764.2  308883.74  132890.74  43.02
765.5  309166.00  133186.15  43.08
766.8  309613.07  133521.31  43.13
768.1  310145.17  133871.71  43.16
769.3  310753.75  134236.41  43.20
770.6  311395.61  134616.39  43.23
771.9  312113.26  135008.30  43.26
773.2  312542.00  135264.74  43.28
774.5  313141.40  135600.91  43.30
775.8  313801.45  135941.48  43.32
777.1  314387.61  136251.82  43.34
778.4  314759.23  136455.50  43.35
779.6  315530.88  136838.33  43.37
780.9  316005.00  137096.43  43.38
782.2  316465.42  137343.36  43.40
783.5  316803.50  137535.39  43.41
784.8  317353.65  137806.54  43.42
786.0  317761.15  138019.87  43.44
787.3  318170.29  138223.67  43.44
788.6  318615.99  138452.40  43.45
789.9  319096.64  138691.38  43.46
791.2  319756.20  139004.36  43.47
792.4  320429.07  139330.84  43.48
793.7  320907.20  139575.42  43.49
795.0  321529.18  139864.93  43.50
796.2  322211.27  140170.28  43.50
797.5  322925.14  140513.23  43.51
798.8  323617.95  140838.61  43.52
800.0  324285.75  141157.65  43.53
801.3  324773.65  141394.25  43.54
802.6  325380.60  141685.66  43.54
803.8  326012.36  141974.34  43.55
805.1  326516.03  142217.13  43.56
806.4  327025.00  142454.45  43.56
807.7  327537.68  142701.40  43.57
808.9  328095.33  142973.03  43.58
810.2  328640.73  143220.35  43.58
811.4  329160.85  143474.56  43.59
812.7  329786.98  143773.62  43.60
814.0  330585.38  144143.75  43.60
815.2  331195.79  144441.48  43.61
816.5  331619.19  144640.49  43.62
817.7  332094.64  144859.53  43.62
819.0  332638.72  145109.97  43.62
820.2  332816.00  145215.72  43.63
821.5  333453.64  145537.74  43.65
822.7  333827.67  145725.35  43.65
824.0  334136.70  145880.04  43.66
825.2  334633.62  146116.20  43.66
826.5  334935.50  146269.30  43.67
827.7  335478.64  146509.87  43.67
829.0  335861.43  146708.43  43.68
830.2  336169.34  146868.86  43.69
831.5  336615.16  147079.21  43.69
832.7  336902.83  147234.37  43.70
834.0  337195.28  147375.61  43.71
835.2  337586.93  147545.48  43.71
836.4  337847.77  147717.01  43.72
837.7  338226.07  147908.96  43.73
838.9  338637.82  148122.91  43.74
840.1  338969.93  148306.45  43.75
841.4  339408.50  148508.46  43.76
842.6  339777.30  148691.61  43.76
843.8  340065.57  148876.93  43.78
845.1  340550.30  149105.57  43.78
846.3  340907.24  149308.72  43.80
847.5  341273.45  149498.77  43.81
848.8  341630.40  149691.67  43.82
850.0  341933.26  149855.22  43.83
851.2  342407.93  150097.02  43.84
852.5  342804.74  150288.08  43.84
853.7  343236.75  150508.76  43.85
854.9  343664.92  150722.48  43.86
856.1  344089.53  150930.49  43.86
857.4  344291.01  151047.25  43.87
858.6  344668.77  151250.34  43.88
859.8  345048.13  151426.47  43.89
861.0  345442.50  151618.30  43.89
862.2  345886.49  151832.45  43.90
863.5  346208.48  151987.52  43.90
864.7  346689.20  152233.90  43.91
865.9  347047.44  152428.04  43.92
867.1  347355.68  152563.63  43.92
868.3  347765.58  152763.51  43.93
869.5  348204.34  152951.69  43.93
870.8  348725.25  153186.52  43.93
872.0  349199.70  153391.08  43.93
873.2  349538.90  153591.92  43.94
874.4  349925.07  153786.89  43.95
875.6  350292.03  153958.53  43.95
876.8  350719.97  154168.24  43.96
878.0  351217.48  154358.55  43.95
879.2  351717.08  154575.58  43.95
880.4  352214.57  154783.51  43.95
881.6  352663.66  154993.36  43.95
882.8  353085.74  155189.54  43.95
884.0  353644.45  155428.93  43.95
885.2  354161.84  155657.06  43.95
886.5  354718.82  155894.94  43.95
887.7  355193.64  156106.35  43.95
888.8  355805.17  156375.38  43.95
890.0  356302.30  156623.07  43.96
891.2  356918.92  156868.53  43.95
892.4  357499.89  157122.49  43.95
893.6  358020.54  157364.33  43.95
894.8  358954.30  157748.95  43.95
896.0  359748.17  158107.14  43.95
897.2  360533.88  158447.61  43.95
898.4  361306.55  158755.48  43.94
899.6  361831.25  159002.95  43.94
900.8  362205.16  159175.18  43.95
902.0  362524.85  159279.11  43.94
903.2  362925.69  159432.01  43.93
904.3  363256.60  159588.91  43.93
905.5  363864.88  159840.91  43.93
906.7  364448.50  160116.07  43.93
907.9  364987.12  160329.93  43.93
909.1  365408.44  160492.78  43.92
910.2  365637.19  160586.56  43.92
911.4  365931.15  160713.78  43.92
912.6  366128.86  160793.87  43.92
913.8  366450.62  160905.45  43.91
915.0  366853.20  161096.25  43.91
916.2  367173.63  161181.94  43.90
917.3  367224.38  161208.60  43.90
918.5  367554.18  161328.96  43.89
919.7  367769.95  161458.84  43.90
920.8  367924.98  161499.32  43.89
922.0  368137.00  161571.03  43.89
923.2  368436.25  161641.35  43.87
924.4  368723.25  161734.02  43.86
925.5  369082.54  161834.72  43.85
926.7  369676.69  162083.77  43.84
927.9  370489.30  162410.59  43.84
929.0  371872.58  162961.62  43.82
930.2  373974.15  163823.43  43.81
931.4  376320.60  164752.63  43.78
932.5  378851.00  165824.47  43.77
933.7  380282.23  166383.10  43.75
934.9  380945.84  166616.40  43.74
936.0  380660.59  166430.57  43.72
937.2  378852.93  165592.61  43.71
938.3  377452.56  164889.50  43.68
939.5  376103.40  164232.78  43.67
940.7  376346.40  164275.83  43.65
941.8  377865.45  164847.71  43.63
943.0  379382.63  165392.27  43.60
944.2  380216.42  165628.76  43.56
945.3  380009.50  165434.43  43.53
946.5  379365.75  165059.63  43.51
947.6  379683.70  165089.90  43.48
948.8  379642.25  164935.11  43.44
949.9  379830.50  164857.20  43.40
951.1  379660.67  164588.06  43.35
952.2  379576.00  164422.06  43.32
953.4  379474.75  164150.89  43.26
954.5  379501.20  163988.21  43.21
955.7  379598.10  163850.76  43.16
956.8  379400.22  163632.53  43.13
958.0  379208.00  163327.77  43.07
959.1  379218.00  163180.91  43.03
960.3  378960.47  162982.19  43.01
961.4  378954.62  162819.03  42.97
962.6  379204.59  162877.02  42.95
963.7  379068.02  162766.13  42.94
964.9  378964.08  162719.19  42.94
966.0  378990.23  162655.84  42.92
967.2  379143.30  162664.83  42.90
968.3  379166.40  162585.17  42.88
969.5  379010.51  162508.96  42.88
970.6  379240.29  162594.80  42.87
971.8  379421.38  162663.35  42.87
972.9  379353.38  162646.93  42.87
974.0  379673.50  162735.84  42.86
975.2  379672.13  162638.66  42.84
976.3  379558.47  162688.41  42.86
977.5  379750.73  162642.27  42.83
978.6  379561.54  162680.66  42.86
979.7  379987.30  162823.39  42.85
980.9  380054.62  162822.58  42.84
982.0  380280.39  162785.33  42.81
983.2  380128.20  162705.29  42.80
984.3  379844.30  162629.87  42.81
985.4  380220.21  162750.40  42.80
986.6  380348.09  162819.16  42.81
987.7  381334.22  163422.74  42.86
988.9  381238.20  163351.69  42.85
990.0  382285.07  163781.02  42.84
993.1  316170.01  135310.33  42.80
996.9  316630.39  135857.20  42.91
1000.7  317572.28  136597.87  43.01
1004.5  318128.73  137118.26  43.10
1008.4  317915.73  137366.70  43.21
1012.2  318073.66  137686.80  43.29
1016.0  318221.60  138029.44  43.38
1019.8  318488.37  138386.33  43.45
1023.7  318570.88  138628.01  43.52
1027.5  318333.01  138724.97  43.58
1031.3  318541.73  138954.95  43.62
1035.1  318374.18  139025.75  43.67
1038.9  318321.67  139126.26  43.71
1042.7  318131.77  139150.86  43.74
1046.5  318005.03  139192.06  43.77
1050.3  318029.36  139275.84  43.79
1054.2  317735.74  139239.84  43.82
1058.0  317268.75  139074.44  43.83
1061.8  317161.88  139084.22  43.85
1065.6  316936.76  138994.27  43.86
1069.4  316961.58  139017.62  43.86
1073.2  316647.20  138883.62  43.86
1077.0  316218.30  138687.62  43.86
1080.8  315843.23  138466.37  43.84
1084.6  314993.64  138044.84  43.82
1088.4  314480.26  137800.59  43.82
1092.2  313794.00  137433.22  43.80
1096.0  313306.06  137150.81  43.78
1099.8  312897.87  136866.46  43.74
1103.6  312297.12  136485.20  43.70
1107.4  311490.14  135999.98  43.66
1111.2  311237.20  135781.44  43.63
1114.9  310598.85  135360.00  43.58
1118.7  310011.08  134913.49  43.52
1122.5  309351.76  134371.72  43.44
1126.3  308361.39  133630.61  43.34
1130.1  307964.36  132978.18  43.18
1133.9  306647.37  131744.05  42.96
1137.7  305453.07  130409.15  42.69
1141.4  303972.77  128786.59  42.37
1145.2  303393.78  127419.84  42.00
1149.0  302458.34  126000.11  41.66
1152.8  301097.57  124549.17  41.37
1156.6  299707.74  123336.13  41.15
1160.3  298245.56  122320.19  41.01
1164.1  296212.12  121244.56  40.93
1167.9  294715.46  120512.13  40.89
1171.7  293650.88  120016.69  40.87
1175.4  292647.19  119575.28  40.86
1179.2  291734.96  119149.59  40.84
1183.0  291407.67  118950.36  40.82
1186.7  290922.65  118675.00  40.79
1190.5  290038.39  118266.13  40.78
1194.3  289068.33  117864.86  40.77
1198.0  288097.15  117506.36  40.79
1201.8  286844.62  117038.29  40.80
1205.6  285762.45  116682.10  40.83
1209.3  284925.03  116477.60  40.88
1213.1  284108.68  116289.47  40.93
1216.8  283303.54  116160.39  41.00
1220.6  282374.40  115981.07  41.07
1224.3  281337.38  115743.12  41.14
1228.1  280252.40  115521.46  41.22
1231.9  279153.83  115241.22  41.28
1235.6  277857.01  114860.74  41.34
1239.4  276661.96  114533.11  41.40
1243.1  275611.39  114205.69  41.44
1246.9  274581.99  113864.24  41.47
1250.6  273791.19  113593.58  41.49
1254.3  272917.55  113279.75  41.51
1258.1  272121.71  112978.20  41.52
1261.8  271062.29  112556.45  41.52
1265.6  269844.21  112027.97  41.52
1269.3  268619.50  111482.56  41.50
1273.1  268573.36  111389.73  41.47
1276.8  268834.27  111389.97  41.43
1280.6  268718.85  111227.87  41.39
1284.3  267505.87  110587.55  41.34
1288.0  266222.57  109884.16  41.28
1291.8  265074.83  109176.49  41.19
1295.5  263898.31  108430.98  41.09
1299.2  262821.58  107678.97  40.97
1302.9  261564.46  106791.11  40.83
1306.7  260214.50  105805.94  40.66
1310.4  258942.18  104760.16  40.46
1314.1  257752.58  103689.63  40.23
1317.9  256714.13  102584.56  39.96
1321.6  255546.62  101356.63  39.66
1325.3  254158.54  99945.60  39.32
1329.0  252972.28  98565.50  38.96
1332.8  251153.47  96855.00  38.56
1336.5  249599.82  95225.84  38.15
1340.2  249223.72  94042.00  37.73
1343.9  248704.41  92799.08  37.31
1347.6  247830.88  91433.10  36.89
1351.4  247581.50  90348.39  36.49
1355.1  247392.14  89304.66  36.10
1358.8  247189.34  88203.43  35.68
1362.5  246668.75  86886.33  35.22
1366.2  245331.96  85093.20  34.68
1369.9  244011.98  83070.48  34.04
1373.6  242423.43  80620.25  33.26
1377.3  240694.20  77652.20  32.26
1381.0  239552.28  74223.48  30.98
1384.8  237872.92  69928.39  29.40
1388.4  236073.83  65190.31  27.61
1392.2  234580.78  60216.00  25.67
1395.9  233206.49  55182.09  23.66
1399.6  231892.80  50413.24  21.74
1403.3  230956.77  46203.44  20.01
1407.0  230104.44  42613.17  18.52
1410.7  229207.69  39692.46  17.32
1414.3  228319.80  37427.09  16.39
1418.1  227427.87  35751.92  15.72
1421.7  226737.05  34557.11  15.24
1425.4  225993.63  33738.11  14.93
1429.1  225256.57  33219.88  14.75
1432.8  224026.90  32854.97  14.67
1436.5  223355.26  32736.25  14.66
1440.2  222624.09  32733.36  14.70
1443.9  221530.83  32753.82  14.79
1447.6  220178.94  32791.00  14.89
1451.2  219315.28  32915.82  15.01
1454.9  218255.95  33045.40  15.14
1458.6  217337.61  33272.81  15.31
1462.3  216332.17  33594.13  15.53
1466.0  215147.13  34015.50  15.81
1469.7  213705.16  34542.92  16.16
1473.3  212796.53  35262.02  16.57
1477.0  211180.56  35948.40  17.02
1480.7  209805.86  36722.55  17.50
1484.4  208186.73  37454.37  17.99
1488.0  206856.22  38262.19  18.50
1491.7  205484.72  39034.79  19.00
1495.4  204025.34  39793.13  19.50
1499.0  202647.17  40526.47  20.00
1502.7  201540.20  41306.84  20.50
1506.4  200334.65  42026.85  20.98
1510.0  199105.24  42721.34  21.46
1513.7  197846.69  43362.96  21.92
1517.4  196698.72  43998.22  22.37
1521.0  195674.47  44626.14  22.81
1524.7  194650.45  45197.44  23.22
1528.3  193580.78  45734.74  23.63
1532.0  192553.69  46240.15  24.01
1535.7  191363.09  46656.26  24.38
1539.3  190290.37  47074.44  24.74
1543.0  189465.05  47527.28  25.08
1546.6  188866.89  48006.06  25.42
1550.3  188028.81  48390.21  25.74
1553.9  187097.08  48719.73  26.04
1557.6  186026.26  48981.64  26.33
1561.2  184944.45  49200.65  26.60
1564.9  183846.97  49399.02  26.87
1568.5  182690.78  49557.55  27.13
1572.2  181720.36  49736.00  27.37
1575.8  180821.67  49928.00  27.61
1579.5  179973.83  50104.36  27.84
1583.1  179130.07  50276.64  28.07
1586.8  178080.00  50370.00  28.29
1590.4  177177.85  50484.92  28.49
1594.0  176076.01  50530.45  28.70
1597.7  175121.41  50610.05  28.90
1601.3  174019.39  50635.13  29.10
1604.9  172916.49  50636.39  29.28
1608.6  171766.61  50596.69  29.46
1612.2  170868.92  50604.20  29.62
1615.8  169896.41  50573.53  29.77
1619.5  168913.55  50517.50  29.91
1623.1  167814.16  50406.70  30.04
1626.7  166772.99  50295.03  30.16
1630.3  165742.86  50169.59  30.27
1634.0  164791.67  50050.00  30.37
1637.6  163935.28  49928.63  30.46
1641.2  163094.74  49782.17  30.52
1644.8  162081.24  49540.40  30.57
1648.5  161157.00  49301.71  30.59
1652.1  160331.10  49048.86  30.59
1655.7  159537.00  48772.94  30.57
1659.3  158821.11  48510.50  30.54
1662.9  157618.33  48093.81  30.51
1666.6  156393.20  47668.92  30.48
1670.2  155180.57  47236.01  30.44
1673.8  153950.31  46779.14  30.39
1677.4  152985.77  46382.06  30.32
1681.0  152293.85  46037.32  30.23
1684.6  151975.60  45768.82  30.12
1688.2  151430.94  45387.14  29.97
1691.8  150846.81  45010.91  29.84
1695.4  150489.24  44678.28  29.69
1699.0  150192.51  44357.17  29.53
1702.6  149912.34  44028.93  29.37
1706.2  149402.41  43619.18  29.20
1709.8  148626.42  43137.26  29.02
1713.4  148014.07  42697.03  28.85
1717.0  147283.67  42229.25  28.67
1720.6  146604.94  41783.70  28.50
1724.2  146008.79  41359.31  28.33
1727.8  145405.58  40949.98  28.16
1731.4  144998.34  40612.79  28.01
1735.0  144799.27  40362.21  27.87
1738.6  144560.50  40082.82  27.73
1742.2  144038.82  39696.90  27.56
1745.8  143448.53  39273.18  27.38
1749.4  142595.48  38753.08  27.18
1753.0  141293.79  38104.38  26.97
1756.6  139887.62  37434.57  26.76
1760.1  138758.23  36848.91  26.56
1763.7  137279.34  36198.72  26.37
1767.3  136051.47  35648.24  26.20
1770.9  135013.11  35160.34  26.04
1774.5  133792.51  34650.87  25.90
1778.0  132803.02  34218.15  25.77
1781.6  131855.50  33829.95  25.66
1785.2  130872.77  33445.65  25.56
1788.8  129867.55  33095.97  25.48
1792.3  128807.99  32750.58  25.43
1795.9  128353.62  32578.98  25.38
1799.5  127858.28  32418.81  25.36
1803.1  127190.12  32230.34  25.34
1806.6  127521.62  32286.70  25.32
1810.2  128420.25  32491.65  25.30
1813.8  129120.21  32640.02  25.28
1817.3  129062.10  32597.42  25.26
1820.9  128287.56  32370.06  25.23
1824.5  127152.20  32031.88  25.19
1828.0  126310.71  31743.35  25.13
1831.6  125477.25  31436.87  25.05
1835.2  124770.56  31111.01  24.93
1838.7  124407.76  30799.25  24.76
1842.3  124132.50  30454.29  24.53
1845.8  123584.71  29942.18  24.23
1849.4  123214.54  29358.29  23.83
1852.9  122743.81  28608.57  23.31
1856.5  122040.78  27627.42  22.64
1860.0  121443.41  26474.05  21.80
1863.6  121101.41  25195.49  20.81
1867.1  120750.29  23693.95  19.62
1870.7  120567.32  21902.54  18.17
1874.2  120100.28  19758.64  16.45
1877.8  119346.99  17480.02  14.65
1881.3  118352.57  15142.13  12.79
1884.9  117607.01  12961.68  11.02
1888.4  116762.73  10922.70  9.35
1891.9  115874.07  9186.97  7.93
1895.5  114853.28  7804.69  6.80
1899.0  114250.88  6808.65  5.96
1901.3  144225.25  5444.92  3.78
1904.1  144060.76  4841.53  3.36
1906.8  143432.25  4374.53  3.05
1909.6  141986.69  4025.70  2.84
1912.4  140602.27  3777.03  2.69
1915.1  139537.41  3601.95  2.58
1917.9  138370.86  3479.46  2.51
1920.6  137458.45  3407.65  2.48
1923.3  136594.24  3358.90  2.46
1926.1  135540.92  3331.27  2.46
1928.8  134594.17  3333.00  2.48
1931.6  133848.96  3364.36  2.51
1934.3  133118.12  3406.51  2.56
1937.0  132402.90  3472.75  2.62
1939.8  131589.56  3545.95  2.69
1942.5  130564.50  3625.88  2.78
1945.2  129207.72  3703.22  2.87
1947.9  128085.54  3800.13  2.97
1950.7  127177.87  3917.66  3.08
1953.4  125731.72  4022.94  3.20
1956.1  124594.27  4145.69  3.33
1958.8  123583.26  4278.68  3.46
1961.5  122371.50  4420.60  3.61
1964.2  121118.73  4565.93  3.77
1966.9  119814.08  4709.40  3.93
1969.6  118775.25  4869.00  4.10
1972.3  117593.48  5030.73  4.28
1975.0  116706.06  5210.45  4.46
1977.7  115767.25  5392.50  4.66
1980.4  114800.60  5574.51  4.86
1983.1  113868.00  5760.63  5.06
1985.8  113084.78  5962.77  5.27
1988.4  112205.17  6160.92  5.49
1991.1  111404.54  6359.53  5.71
1993.8  110654.16  6562.67  5.93
1996.5  110107.00  6779.17  6.16
1999.1  109513.53  6989.20  6.38
2001.8  108922.45  7196.97  6.61
2004.5  108333.69  7395.76  6.83
2007.1  107715.21  7591.46  7.05
2009.8  107088.95  7782.95  7.27
2012.4  106596.79  7973.65  7.48
2015.1  106127.41  8155.27  7.68
2017.8  105454.01  8318.22  7.89
2020.4  105019.94  8493.88  8.09
2023.1  104712.63  8662.48  8.27
2025.7  104498.34  8832.42  8.45
2028.3  104206.92  8983.00  8.62
2031.0  103880.89  9124.01  8.78
2033.6  103645.28  9262.24  8.94
2036.2  103424.52  9389.48  9.08
2038.9  102918.83  9485.18  9.22
2041.5  102633.31  9590.52  9.34
2044.1  102165.19  9674.41  9.47
2046.8  101846.55  9764.67  9.59
2049.4  101302.81  9824.48  9.70
2052.0  101037.03  9911.24  9.81
2054.6  100690.63  9987.04  9.92
2057.2  100213.91  10057.53  10.04
2059.8  99950.82  10153.59  10.16
2062.4  99203.30  10206.13  10.29
2065.0  98766.36  10282.41  10.41
2067.6  98004.76  10323.80  10.53
2070.2  97488.30  10391.36  10.66
2072.8  96942.41  10453.47  10.78
2075.4  96565.01  10527.35  10.90
2078.0  96019.40  10579.53  11.02
2080.6  95532.80  10640.30  11.14
2083.2  94948.48  10683.28  11.25
2085.8  94530.63  10742.02  11.36
2088.4  93962.38  10783.30  11.48
2090.9  93273.72  10812.54  11.59
2093.5  92524.50  10821.36  11.70
2096.1  91861.60  10837.54  11.80
2098.7  91194.06  10857.30  11.91
2101.2  90374.72  10857.72  12.01
2103.8  89796.14  10883.92  12.12
2106.4  89221.92  10907.93  12.23
2108.9  88662.99  10933.05  12.33
2111.5  87935.94  10933.04  12.43
2114.0  87389.01  10949.42  12.53
2116.6  86943.29  10973.60  12.62
2119.1  86477.69  10996.69  12.72
2121.7  86068.28  11020.63  12.80
2124.2  85719.38  11048.20  12.89
2126.8  85049.02  11028.58  12.97
2129.3  84705.50  11050.60  13.05
2131.9  84206.10  11048.40  13.12
2134.4  83834.95  11059.18  13.19
2136.9  83507.78  11070.86  13.26
2139.4  83062.94  11065.60  13.32
2142.0  82687.21  11065.60  13.38
2144.5  82464.07  11087.18  13.44
2147.0  82263.72  11113.07  13.51
2149.5  81839.39  11106.37  13.57
2152.1  81687.70  11130.35  13.63
2154.6  81606.80  11156.54  13.67
2157.1  81157.31  11131.63  13.72
2159.6  80821.23  11123.68  13.76
2162.1  80671.50  11139.54  13.81
2164.6  80462.39  11143.81  13.85
2167.1  80193.46  11139.38  13.89
2169.6  79910.81  11129.13  13.93
2172.1  79497.85  11110.02  13.98
2174.6  79225.37  11108.42  14.02
2177.1  78861.92  11101.71  14.08
2179.5  78505.73  11091.49  14.13
2182.0  78084.19  11070.40  14.18
2184.5  77616.59  11043.01  14.23
2187.0  77082.13  11011.06  14.28
2189.5  76499.68  10972.22  14.34
2191.9  75839.69  10916.69  14.39
2194.4  75308.92  10882.23  14.45
2196.9  74672.40  10826.40  14.50
2199.3  74111.92  10780.75  14.55
2201.8  73347.97  10703.02  14.59
2204.3  72943.97  10671.95  14.63
2206.7  72408.59  10620.77  14.67
2209.2  72013.68  10588.76  14.70
2211.6  71474.29  10523.70  14.72
2214.1  71223.35  10497.26  14.74
2216.5  70735.27  10436.21  14.75
2219.0  70445.96  10397.72  14.76
2221.4  70115.79  10338.13  14.74
2223.9  69707.97  10258.79  14.72
2226.3  69270.40  10173.26  14.69
2228.7  68799.12  10067.41  14.63
2231.1  68286.49  9947.03  14.57
2233.6  67785.07  9816.62  14.48
2236.0  67320.54  9684.87  14.39
2238.4  66887.92  9546.04  14.27
2240.9  66504.91  9404.38  14.14
2243.3  66055.43  9250.42  14.00
2245.7  65574.24  9089.33  13.86
2248.1  65153.35  8932.63  13.71
2250.5  64723.20  8766.62  13.54
2252.9  64190.32  8591.27  13.38
2255.3  63707.37  8426.41  13.23
2257.7  63312.50  8271.25  13.06
2260.1  62892.70  8116.97  12.91
2262.5  62381.25  7951.25  12.75
2264.9  61935.35  7795.74  12.59
2267.3  61408.75  7637.50  12.44
2269.7  60978.84  7497.42  12.30
2272.1  60509.44  7355.99  12.16
2274.5  60033.53  7220.45  12.03
2276.8  59625.47  7099.31  11.91
2279.2  59132.95  6964.65  11.78
2281.6  58765.43  6855.40  11.67
2284.0  58361.59  6740.49  11.55
2286.3  57972.80  6633.53  11.44
2288.7  57626.22  6528.79  11.33
2291.1  57163.40  6412.47  11.22
2293.4  56783.65  6305.02  11.10
2295.8  56248.31  6178.72  10.98
2298.2  55737.34  6050.87  10.86
2300.5  55177.15  5927.97  10.74
2302.9  54547.09  5798.30  10.63
2305.2  53932.09  5671.44  10.52
2307.6  53359.09  5558.11  10.42
2309.9  52671.59  5441.80  10.33
2312.2  52136.84  5351.38  10.26
2314.6  51615.45  5268.16  10.21
2316.9  51015.15  5173.71  10.14
2319.2  50510.29  5090.04  10.08
2321.6  49939.94  5006.07  10.02
2323.9  49442.71  4921.88  9.95
2326.2  48989.72  4830.64  9.86
2328.6  48557.24  4746.92  9.78
2330.9  48117.57  4660.69  9.69
2333.2  47704.38  4575.97  9.59
2335.5  47320.76  4495.34  9.50
2337.8  46934.46  4411.73  9.40
2340.1  46443.82  4318.73  9.30
2342.4  46066.05  4233.13  9.19
2344.8  45705.36  4160.62  9.10
2347.1  45214.20  4067.27  9.00
2349.4  44730.42  3989.42  8.92
2351.6  44229.17  3909.54  8.84
2353.9  43799.58  3843.74  8.78
2356.2  43352.22  3767.16  8.69
2358.5  42838.60  3691.80  8.62
2360.8  42333.20  3614.80  8.54
2363.1  41940.52  3550.08  8.46
2365.4  41543.04  3471.93  8.36
2367.7  41138.33  3402.90  8.27
2369.9  40664.68  3327.66  8.18
2372.2  40124.74  3245.07  8.09
2374.5  39626.61  3166.15  7.99
2376.7  39079.92  3090.04  7.91
2379.0  38547.06  3007.22  7.80
2381.3  38010.00  2928.34  7.70
2383.5  37565.74  2854.14  7.60
2385.8  37031.18  2776.94  7.50
2388.0  36580.00  2706.63  7.40
2390.3  36134.00  2632.92  7.29
2392.5  35709.00  2571.00  7.20
2394.8  35309.32  2507.73  7.10
2397.0  34886.37  2434.25  6.98
2399.3  34487.98  2374.23  6.88
2401.5  34099.41  2309.13  6.77
2403.8  33635.28  2243.18  6.67
2406.0  33189.76  2174.47  6.55
2408.2  32838.76  2116.22  6.44
2410.4  32464.47  2056.63  6.34
2412.7  32101.55  1993.39  6.21
2414.9  31787.87  1940.20  6.10
2417.1  31430.92  1889.13  6.01
2419.3  31076.80  1830.40  5.89
2421.6  30736.82  1769.59  5.76
2423.8  30413.32  1714.85  5.64
2426.0  30092.13  1669.98  5.55
2428.2  29762.60  1623.54  5.45
2430.4  29490.49  1578.08  5.35
2432.6  29246.67  1531.67  5.24
2434.8  28985.62  1490.39  5.14
2437.0  28666.74  1442.41  5.03
2439.2  28361.35  1397.29  4.93
2441.4  28077.85  1354.82  4.83
2443.6  27869.95  1317.76  4.73
2445.7  27631.31  1275.53  4.62
2447.9  27381.04  1231.63  4.50
2450.1  27125.29  1204.79  4.44
2452.3  26814.61  1164.63  4.34
2454.5  26505.11  1122.26  4.23
2456.6  26165.07  1087.84  4.16
2458.8  25850.83  1051.06  4.07
2461.0  25591.39  1018.18  3.98
2463.1  25331.56  983.95  3.88
2465.3  25072.39  953.00  3.80
2467.5  24855.60  934.78  3.76
2469.6  24627.42  913.65  3.71
2471.8  24358.91  884.11  3.63
2473.9  24084.31  863.53  3.59
2476.1  23783.24  830.38  3.49
2478.2  23463.15  801.66  3.42
2480.4  23199.61  788.61  3.40
2482.5  22897.92  770.30  3.36
2484.6  22599.73  740.21  3.28
2486.8  22362.69  724.17  3.24
2488.9  22071.02  706.30  3.20
2491.1  21763.12  692.19  3.18
2493.2  21427.27  668.61  3.12
2495.3  21083.84  647.35  3.07
2497.4  20789.13  623.88  3.00
2499.5  20480.01  608.90  2.97
2501.7  20362.96  610.09  3.00
2503.8  20266.87  597.62  2.95
2505.9  20205.32  593.65  2.94
2508.0  20192.34  589.00  2.92
2510.1  20183.58  581.21  2.88
2512.2  20258.40  578.03  2.85
2514.3  20376.24  578.99  2.84
2516.4  20537.26  595.93  2.90
