/*** Spectra Vista SIG Data ***/
name= 33_20220825_ACRU_28_avg.sig
comm= Averaged Ref/Tar of files: HR.082522.0019_moc.sig,HR.082522.0020_moc.sig,HR.082522.0021_moc.sig
data=
337.3  3424.13  297.75  8.70
338.8  3559.40  288.60  8.11
340.3  3701.15  281.10  7.59
341.8  3932.35  280.45  7.13
343.2  4129.20  272.32  6.59
344.7  4265.00  278.65  6.53
346.2  4452.65  266.89  5.99
347.7  4679.68  267.41  5.71
349.2  4914.00  262.08  5.33
350.6  5141.50  254.63  4.95
352.1  5465.93  266.75  4.88
353.6  5760.20  268.35  4.66
355.1  5994.15  278.38  4.64
356.6  6292.80  288.42  4.58
358.0  6603.30  289.23  4.38
359.5  6952.50  288.40  4.15
361.0  7241.85  291.27  4.02
362.5  7640.78  292.75  3.83
364.0  8000.33  309.69  3.87
365.4  8345.70  318.47  3.82
366.9  8729.50  324.13  3.71
368.4  9137.13  334.57  3.66
369.9  9512.80  331.51  3.48
371.3  9932.40  356.00  3.58
372.8  10327.95  375.24  3.63
374.3  10776.88  387.00  3.59
375.8  11238.15  391.67  3.49
377.2  11701.50  398.12  3.40
378.7  12105.00  387.36  3.20
380.2  12535.40  394.53  3.15
381.7  13053.08  407.18  3.12
383.1  13555.85  420.42  3.10
384.6  14107.93  438.79  3.11
386.1  14593.50  443.21  3.04
387.6  15065.05  456.35  3.03
389.0  15570.80  453.81  2.91
390.5  16062.75  463.74  2.89
392.0  16663.50  476.10  2.86
393.4  17262.68  490.47  2.84
394.9  17852.40  504.60  2.83
396.4  18397.13  517.50  2.81
397.9  18988.13  526.17  2.77
399.3  19550.90  536.89  2.75
400.8  20139.40  551.67  2.74
402.2  20793.85  559.74  2.69
403.7  21426.75  568.17  2.65
405.2  22065.10  590.30  2.68
406.6  22689.60  606.29  2.67
408.1  23300.60  617.73  2.65
409.6  23925.50  632.16  2.64
411.0  24616.55  640.50  2.60
412.5  25302.38  655.29  2.59
414.0  25978.13  676.45  2.60
415.4  26712.00  696.95  2.61
416.9  27409.05  714.46  2.61
418.4  28124.55  729.57  2.59
419.8  28865.20  749.84  2.60
421.3  29625.15  765.29  2.58
422.7  30432.60  786.48  2.58
424.2  31269.38  814.50  2.60
425.7  32062.10  838.91  2.62
427.1  32836.88  860.88  2.62
428.6  33666.00  882.47  2.62
430.0  34416.90  904.43  2.63
431.5  35327.48  929.33  2.63
432.9  36244.10  955.18  2.64
434.4  37173.38  981.74  2.64
435.9  38024.00  1009.87  2.66
437.3  38912.50  1037.67  2.67
438.8  39788.33  1069.71  2.69
440.2  40667.55  1097.76  2.70
441.7  41687.40  1125.60  2.70
443.1  42625.25  1155.40  2.71
444.6  43636.10  1182.49  2.71
446.0  44608.05  1216.19  2.73
447.5  45599.40  1252.86  2.75
448.9  46556.10  1291.72  2.77
450.4  47604.20  1320.90  2.77
451.8  48503.00  1348.53  2.78
453.3  49462.73  1382.46  2.79
454.7  50526.13  1415.87  2.80
456.2  51432.03  1449.46  2.82
457.6  52436.25  1485.03  2.83
459.1  53446.58  1517.27  2.84
460.5  54422.88  1546.15  2.84
462.0  55520.13  1579.72  2.85
463.4  56594.70  1609.29  2.84
464.8  57622.88  1644.65  2.85
466.3  58666.58  1673.65  2.85
467.7  59706.15  1709.64  2.86
469.2  60804.00  1745.30  2.87
470.6  61820.00  1777.79  2.88
472.0  62887.10  1810.98  2.88
473.5  63929.75  1845.67  2.89
474.9  65008.50  1875.30  2.88
476.4  66211.20  1916.16  2.89
477.8  67338.00  1954.60  2.90
479.2  68396.50  1991.33  2.91
480.7  69552.38  2030.36  2.92
482.1  70718.30  2069.24  2.93
483.6  71975.45  2111.63  2.93
485.0  73113.23  2151.95  2.94
486.4  74350.50  2198.02  2.96
487.9  75479.63  2248.35  2.98
489.3  76702.53  2304.95  3.01
490.7  77836.35  2357.96  3.03
492.2  79115.40  2418.64  3.06
493.6  80267.35  2480.73  3.09
495.0  81432.00  2546.70  3.13
496.5  82649.60  2629.76  3.18
497.9  83808.93  2711.94  3.24
499.3  85026.95  2809.77  3.30
500.7  86317.80  2920.23  3.38
502.2  87512.40  3036.80  3.47
503.6  88797.20  3178.91  3.58
505.0  89921.70  3336.29  3.71
506.5  91294.73  3526.30  3.86
507.9  92552.48  3743.81  4.05
509.3  93994.80  3994.03  4.25
510.7  95311.13  4272.45  4.48
512.2  96750.90  4597.26  4.75
513.6  98297.50  4970.84  5.06
515.0  99774.15  5390.33  5.40
516.4  101195.33  5849.55  5.78
517.8  102858.25  6375.08  6.20
519.3  104225.38  6924.90  6.64
520.7  105838.65  7530.80  7.12
522.1  107188.25  8144.63  7.60
523.5  108614.60  8786.65  8.09
524.9  110065.50  9428.34  8.57
526.3  111470.80  10056.48  9.02
527.8  113067.90  10690.02  9.45
529.2  114372.40  11300.16  9.88
530.6  115975.70  11918.36  10.28
532.0  117754.00  12514.13  10.63
533.4  119093.48  13022.95  10.94
534.8  120016.88  13443.65  11.20
536.3  121737.30  13914.80  11.43
537.7  123807.60  14399.28  11.63
539.1  125320.60  14793.29  11.80
540.5  126573.20  15147.65  11.97
541.9  128418.15  15561.84  12.12
543.3  129744.18  15904.05  12.26
544.7  131134.20  16259.44  12.40
546.1  132977.35  16658.44  12.53
547.5  134232.00  16976.21  12.65
549.0  136070.00  17349.20  12.75
550.4  137604.38  17660.17  12.83
551.8  139203.65  17941.62  12.89
553.2  140804.95  18177.62  12.91
554.6  142199.20  18337.28  12.90
556.0  143792.55  18458.88  12.84
557.4  145437.95  18535.44  12.74
558.8  147125.25  18562.38  12.62
560.2  148621.88  18517.30  12.46
561.6  150349.35  18455.03  12.27
563.0  152002.73  18327.06  12.06
564.4  153639.65  18160.07  11.82
565.8  155210.00  17943.50  11.56
567.2  157025.25  17708.83  11.28
568.6  158590.13  17415.95  10.98
570.0  160070.38  17080.03  10.67
571.4  161860.40  16753.27  10.35
572.8  163671.00  16430.88  10.04
574.2  165368.00  16105.60  9.74
575.6  166961.25  15801.00  9.46
577.0  168550.80  15523.19  9.21
578.4  170329.25  15294.07  8.98
579.8  171884.03  15073.56  8.77
581.2  173659.73  14899.34  8.58
582.5  175125.60  14718.60  8.40
583.9  176705.00  14570.64  8.25
585.3  178564.95  14464.23  8.10
586.7  180098.43  14356.25  7.97
588.1  181656.75  14268.70  7.85
589.5  183333.50  14218.17  7.76
590.9  185020.40  14187.25  7.67
592.3  186894.60  14191.54  7.59
593.7  188388.53  14190.93  7.53
595.0  190066.50  14213.52  7.48
596.4  191569.35  14231.19  7.43
597.8  193091.60  14243.03  7.38
599.2  194700.00  14254.24  7.32
600.6  196517.10  14257.75  7.26
602.0  197857.65  14205.44  7.18
603.3  199727.00  14158.85  7.09
604.7  201432.75  14070.66  6.99
606.1  202984.20  13939.84  6.87
607.5  204655.73  13791.32  6.74
608.9  206422.60  13621.01  6.60
610.2  207862.20  13417.11  6.45
611.6  209517.45  13221.02  6.31
613.0  211128.95  13024.27  6.17
614.4  212531.85  12813.70  6.03
615.8  214036.88  12632.10  5.90
617.1  215634.30  12471.48  5.78
618.5  217323.20  12343.20  5.68
619.9  218890.05  12236.51  5.59
621.3  220562.33  12166.53  5.52
622.6  222207.75  12120.70  5.45
624.0  223716.00  12096.32  5.41
625.4  225218.40  12096.92  5.37
626.8  226835.70  12126.36  5.35
628.1  228204.63  12151.44  5.32
629.5  230127.15  12226.30  5.31
630.9  231780.18  12279.30  5.30
632.2  233202.55  12314.80  5.28
633.6  234869.38  12336.85  5.25
635.0  236465.60  12308.32  5.21
636.3  238048.00  12236.87  5.14
637.7  239462.25  12104.58  5.05
639.1  241167.50  11944.33  4.95
640.4  242695.43  11743.27  4.84
641.8  243952.95  11500.69  4.71
643.2  245572.60  11257.21  4.58
644.5  246995.50  10998.67  4.45
645.9  248779.80  10769.88  4.33
647.2  250569.20  10565.01  4.22
648.6  252497.25  10397.70  4.12
650.0  254080.80  10255.68  4.04
651.3  254635.70  10094.74  3.96
652.7  255901.10  9982.19  3.90
654.0  258037.20  9892.80  3.83
655.4  259566.68  9787.18  3.77
656.8  259824.20  9603.61  3.70
658.1  260959.20  9449.25  3.62
659.5  263427.68  9324.98  3.54
660.8  265297.50  9183.00  3.46
662.2  266224.00  9007.79  3.38
663.5  267970.70  8871.81  3.31
664.9  269310.60  8760.44  3.25
666.2  270151.80  8655.04  3.20
667.6  272007.80  8626.38  3.17
668.9  273183.20  8607.55  3.15
670.3  274362.25  8603.93  3.14
671.6  276009.38  8646.45  3.13
673.0  277248.38  8705.45  3.14
674.3  278526.30  8798.75  3.16
675.7  279911.00  8906.53  3.18
677.0  281083.05  9036.12  3.21
678.4  282514.68  9197.64  3.26
679.7  283682.00  9376.78  3.31
681.1  285032.40  9598.21  3.37
682.4  286261.30  9853.65  3.44
683.8  287565.20  10163.05  3.53
685.1  288576.38  10540.35  3.65
686.4  289954.20  11043.76  3.81
687.8  291297.00  11706.47  4.02
689.1  292387.25  12578.67  4.30
690.5  293835.45  13767.60  4.69
691.8  294714.68  15333.94  5.20
693.1  296126.10  17419.36  5.88
694.5  297342.50  20032.13  6.74
695.8  298639.25  23180.73  7.76
697.1  299913.25  26848.03  8.95
698.5  301024.70  31005.17  10.30
699.8  302212.40  35581.61  11.77
701.1  303414.18  40485.46  13.34
702.5  304244.60  45554.01  14.97
703.8  305280.00  50763.00  16.63
705.1  306504.90  56029.61  18.28
706.5  307611.50  61265.73  19.92
707.8  308675.85  66421.22  21.52
709.1  309625.43  71457.86  23.08
710.5  310853.30  76458.66  24.60
711.8  311754.00  81282.01  26.07
713.1  312824.40  86042.32  27.50
714.4  313805.60  90677.75  28.90
715.8  314697.60  95176.40  30.24
717.1  316073.70  99719.74  31.55
718.4  317094.40  104016.64  32.80
719.7  318268.48  108230.61  34.01
721.0  318847.50  112128.00  35.17
722.4  319668.80  115961.12  36.28
723.7  320701.35  119721.86  37.33
725.0  321808.73  123366.45  38.34
726.3  322836.80  126806.57  39.28
727.6  323453.08  129932.07  40.17
729.0  324411.68  133044.47  41.01
730.3  325251.15  135933.46  41.79
731.6  326206.65  138720.97  42.53
732.9  327060.30  141304.08  43.20
734.2  327927.88  143750.02  43.84
735.5  329020.65  146152.98  44.42
736.8  329880.30  148289.32  44.95
738.1  330776.00  150318.25  45.44
739.5  331777.70  152276.71  45.90
740.8  332541.83  153980.38  46.30
742.1  333347.63  155606.82  46.68
743.4  334150.00  157130.00  47.02
744.7  335179.95  158669.63  47.34
746.0  336141.00  160053.14  47.61
747.3  336751.33  161178.46  47.86
748.6  337505.25  162314.27  48.09
749.9  338312.00  163373.60  48.29
751.2  339087.05  164364.95  48.47
752.5  340080.75  165376.09  48.63
753.8  340774.18  166195.10  48.77
755.1  341536.00  166999.73  48.90
756.4  342168.68  167680.75  49.01
757.7  343251.30  168514.03  49.09
759.0  345147.23  169738.69  49.18
760.3  346420.80  170603.84  49.25
761.6  348087.60  171637.39  49.31
762.9  348686.25  172116.63  49.36
764.2  349108.20  172482.80  49.41
765.5  349460.28  172772.63  49.44
766.8  349928.00  173126.19  49.47
768.1  350528.20  173500.45  49.50
769.3  351210.30  173903.75  49.52
770.6  351918.45  174337.19  49.54
771.9  352694.65  174790.19  49.56
773.2  353125.60  175061.39  49.57
774.5  353839.20  175443.84  49.58
775.8  354595.35  175846.52  49.59
777.1  355251.05  176194.26  49.60
778.4  355630.55  176408.76  49.60
779.6  356491.93  176839.97  49.61
780.9  357000.00  177132.00  49.62
782.2  357555.00  177414.23  49.62
783.5  357917.50  177619.80  49.63
784.8  358525.58  177926.01  49.63
786.0  359003.75  178169.69  49.63
787.3  359444.50  178396.10  49.63
788.6  359940.75  178648.58  49.63
789.9  360446.80  178916.08  49.64
791.2  361191.60  179284.11  49.64
792.4  361933.60  179660.99  49.64
793.7  362456.80  179936.93  49.64
795.0  363145.20  180278.23  49.64
796.2  363880.20  180644.11  49.64
797.5  364681.95  181046.89  49.65
798.8  365459.38  181427.54  49.64
800.0  366239.55  181790.29  49.64
801.3  366812.10  182064.33  49.63
802.6  367446.83  182387.22  49.64
803.8  368144.03  182742.39  49.64
805.1  368725.00  183023.05  49.64
806.4  369227.10  183291.48  49.64
807.7  369821.70  183592.44  49.64
808.9  370453.45  183901.13  49.64
810.2  371097.65  184202.81  49.64
811.4  371646.80  184486.73  49.64
812.7  372287.50  184832.92  49.65
814.0  373230.50  185273.76  49.64
815.2  373913.00  185637.20  49.65
816.5  374429.68  185874.72  49.64
817.7  374980.35  186140.40  49.64
819.0  375538.35  186423.67  49.64
820.2  375672.00  186548.27  49.66
821.5  376444.15  186928.71  49.66
822.7  376869.10  187130.63  49.65
824.0  377252.10  187320.96  49.65
825.2  377769.83  187604.10  49.66
826.5  378200.00  187776.30  49.65
827.7  378773.18  188078.71  49.65
829.0  379226.68  188299.39  49.65
830.2  379528.75  188483.62  49.66
831.5  380086.85  188731.17  49.65
832.7  380409.75  188918.17  49.66
834.0  380799.45  189120.39  49.66
835.2  381226.45  189335.12  49.66
836.4  381559.20  189484.97  49.66
837.7  381947.40  189714.45  49.67
838.9  382385.73  189957.35  49.68
840.1  382818.83  190193.67  49.68
841.4  383278.40  190463.27  49.69
842.6  383676.40  190662.93  49.69
843.8  384123.00  190864.11  49.69
845.1  384647.35  191162.39  49.70
846.3  385060.70  191374.43  49.70
847.5  385497.00  191623.88  49.71
848.8  385941.00  191851.92  49.71
850.0  386425.20  192043.13  49.70
851.2  386918.10  192346.56  49.71
852.5  387343.20  192565.64  49.71
853.7  387911.25  192844.20  49.71
854.9  388403.60  193073.69  49.71
856.1  388845.60  193315.89  49.72
857.4  389112.03  193445.94  49.71
858.6  389657.40  193721.15  49.72
859.8  390026.25  193954.00  49.73
861.0  390522.60  194210.64  49.73
862.2  391054.65  194451.72  49.72
863.5  391518.08  194626.60  49.71
864.7  392112.60  194916.48  49.71
865.9  392616.60  195136.35  49.70
867.1  392920.85  195311.10  49.71
868.3  393486.45  195548.12  49.70
869.5  393985.20  195792.29  49.70
870.8  394510.50  196084.80  49.70
872.0  395053.43  196364.26  49.71
873.2  395439.00  196583.72  49.71
874.4  395980.65  196837.29  49.71
875.6  396401.98  197001.70  49.70
876.8  396959.30  197269.90  49.70
878.0  397553.85  197516.79  49.68
879.2  398207.70  197753.90  49.66
880.4  398724.00  198012.85  49.66
881.6  399278.58  198266.35  49.66
882.8  399666.40  198477.87  49.66
884.0  400322.80  198776.20  49.65
885.2  400876.70  199055.61  49.66
886.5  401602.00  199355.71  49.64
887.7  402231.70  199591.43  49.62
888.8  402979.13  199928.76  49.61
890.0  403544.25  200197.39  49.61
891.2  404221.80  200493.01  49.60
892.4  404711.48  200781.49  49.61
893.6  405440.80  201088.87  49.60
894.8  406542.25  201521.40  49.57
896.0  407520.50  201993.60  49.57
897.2  408339.75  202413.47  49.57
898.4  409200.00  202772.24  49.55
899.6  409786.88  203082.55  49.56
900.8  410314.10  203301.57  49.55
902.0  410688.00  203404.64  49.53
903.2  410984.18  203535.02  49.52
904.3  411443.70  203699.68  49.51
905.5  412114.43  203996.83  49.50
906.7  412913.00  204284.87  49.47
907.9  413388.50  204583.17  49.49
909.1  413967.38  204714.36  49.45
910.2  414132.23  204843.67  49.46
911.4  414460.80  204975.81  49.46
912.6  414728.60  205046.75  49.44
913.8  415021.80  205144.98  49.43
915.0  415583.70  205384.48  49.42
916.2  415740.00  205487.10  49.43
917.3  416002.05  205474.35  49.39
918.5  416320.00  205592.69  49.38
919.7  416750.40  205674.04  49.35
920.8  416767.33  205692.12  49.35
922.0  416916.50  205736.30  49.35
923.2  417144.00  205805.60  49.34
924.4  417477.38  205902.00  49.32
925.5  417953.70  206035.23  49.30
926.7  418724.88  206329.85  49.28
927.9  419773.80  206739.44  49.25
929.0  421143.30  207383.40  49.24
930.2  423582.20  208478.89  49.22
931.4  426118.73  209652.66  49.20
932.5  429103.55  210987.65  49.17
933.7  430655.48  211689.82  49.16
934.9  431558.75  211948.33  49.11
936.0  431156.38  211699.37  49.10
937.2  429011.85  210496.52  49.07
938.3  427235.40  209583.81  49.06
939.5  425707.20  208725.12  49.03
940.7  426140.10  208801.20  49.00
941.8  427861.58  209527.62  48.97
943.0  429483.00  210104.90  48.92
944.2  430323.40  210461.51  48.91
945.3  429780.00  210147.60  48.90
946.5  429343.20  209692.62  48.84
947.6  429647.10  209642.87  48.79
948.8  429571.35  209443.52  48.76
949.9  429739.80  209349.28  48.72
951.1  429524.55  208947.05  48.65
952.2  429420.00  208651.20  48.59
953.4  429214.75  208327.70  48.54
954.5  429202.80  208100.88  48.49
955.7  429256.80  207888.24  48.43
956.8  429045.10  207557.01  48.38
958.0  428824.00  207294.47  48.34
959.1  428426.05  207034.97  48.32
960.3  428213.45  206732.19  48.28
961.4  428522.85  206497.82  48.19
962.6  428673.00  206536.63  48.18
963.7  428337.45  206301.97  48.16
964.9  428499.68  206242.14  48.13
966.0  428196.38  206082.90  48.13
967.2  428187.15  206107.44  48.13
968.3  428190.30  205864.20  48.08
969.5  428029.33  205729.92  48.06
970.6  428179.18  205726.19  48.05
971.8  428177.75  205844.71  48.07
972.9  428060.48  205818.72  48.08
974.0  428558.50  205881.89  48.04
975.2  428453.00  205766.60  48.03
976.3  428437.38  205602.14  47.99
977.5  428472.28  205525.51  47.97
978.6  428107.00  205438.01  47.99
979.7  428122.80  205680.16  48.04
980.9  427927.83  205681.92  48.06
982.0  428115.40  205610.58  48.03
983.2  427644.23  205459.97  48.04
984.3  427970.60  205338.88  47.98
985.4  427566.93  205201.27  47.99
986.6  427431.00  205199.63  48.01
987.7  427859.60  205581.32  48.05
988.9  427428.00  205533.12  48.09
990.0  428615.30  206084.64  48.08
993.1  374257.57  178292.83  47.64
996.9  374701.63  178957.54  47.76
1000.7  375638.49  179797.33  47.86
1004.5  376134.33  180351.00  47.95
1008.4  375918.54  180577.48  48.04
1012.2  375917.46  180870.49  48.11
1016.0  375891.60  181150.54  48.19
1019.8  375952.50  181456.28  48.27
1023.7  375850.15  181637.60  48.33
1027.5  375483.20  181682.44  48.39
1031.3  375755.78  181927.40  48.42
1035.1  375593.34  181976.19  48.45
1038.9  375652.38  182066.87  48.47
1042.7  375547.08  182102.94  48.49
1046.5  375449.33  182095.50  48.50
1050.3  375516.32  182149.68  48.51
1054.2  375235.58  182050.58  48.52
1058.0  374729.25  181798.61  48.51
1061.8  374625.91  181762.35  48.52
1065.6  374335.47  181577.24  48.51
1069.4  374364.53  181545.62  48.49
1073.2  373961.93  181280.21  48.48
1077.0  373480.98  180964.97  48.45
1080.8  372952.08  180602.68  48.43
1084.6  371876.52  179961.83  48.39
1088.4  371194.72  179550.70  48.37
1092.2  370392.75  179001.64  48.33
1096.0  369813.33  178554.63  48.28
1099.8  369352.32  178129.75  48.23
1103.6  368699.33  177629.67  48.18
1107.4  367797.92  176959.38  48.11
1111.2  367551.30  176631.03  48.06
1114.9  366889.83  176062.00  47.99
1118.7  366257.93  175437.90  47.90
1122.5  365601.60  174710.10  47.79
1126.3  364526.05  173759.02  47.67
1130.1  364046.65  172918.20  47.50
1133.9  362418.70  171332.20  47.27
1137.7  360982.20  169645.70  47.00
1141.4  359214.16  167601.06  46.66
1145.2  358484.52  165886.17  46.27
1149.0  357396.67  164088.96  45.91
1152.8  355729.50  162191.33  45.59
1156.6  354070.38  160543.35  45.34
1160.3  352346.67  159133.05  45.16
1164.1  349953.57  157623.98  45.04
1167.9  348162.50  156560.86  44.97
1171.7  346862.25  155806.88  44.92
1175.4  345641.67  155158.80  44.89
1179.2  344558.33  154551.46  44.85
1183.0  344255.33  154272.86  44.81
1186.7  343743.40  153910.53  44.77
1190.5  342694.73  153320.69  44.74
1194.3  341538.27  152668.22  44.70
1198.0  340320.75  152050.37  44.68
1201.8  338798.53  151351.91  44.67
1205.6  337568.33  150861.67  44.69
1209.3  336656.85  150594.00  44.73
1213.1  335724.08  150316.12  44.77
1216.8  334775.10  150105.41  44.84
1220.6  333687.20  149831.73  44.90
1224.3  332479.58  149491.72  44.96
1228.1  331255.00  149152.74  45.03
1231.9  329988.63  148772.78  45.08
1235.6  328515.08  148260.32  45.13
1239.4  327148.13  147802.68  45.18
1243.1  325900.33  147340.90  45.21
1246.9  324684.87  146856.13  45.23
1250.6  323678.73  146446.16  45.24
1254.3  322607.54  145981.52  45.25
1258.1  321592.25  145521.22  45.25
1261.8  320286.27  144910.95  45.24
1265.6  318819.57  144200.08  45.23
1269.3  317377.60  143465.97  45.20
1273.1  317335.43  143313.31  45.16
1276.8  317586.00  143261.03  45.11
1280.6  317415.13  142997.91  45.05
1284.3  315978.80  142169.26  44.99
1288.0  314503.63  141251.45  44.91
1291.8  313188.06  140348.88  44.81
1295.5  311825.07  139364.35  44.69
1299.2  310578.39  138397.96  44.56
1302.9  309138.65  137277.52  44.41
1306.7  307586.88  136045.70  44.23
1310.4  306071.13  134717.26  44.02
1314.1  304652.88  133389.30  43.78
1317.9  303406.25  132008.33  43.51
1321.6  301995.14  130459.52  43.20
1325.3  300328.35  128707.80  42.86
1329.0  298972.57  127019.78  42.49
1332.8  296835.00  124922.60  42.08
1336.5  295043.60  122929.38  41.66
1340.2  294658.00  121530.50  41.24
1343.9  294220.42  120089.35  40.82
1347.6  293565.45  118563.30  40.39
1351.4  293771.50  117432.43  39.97
1355.1  294142.93  116391.78  39.57
1358.8  294304.00  115213.72  39.15
1362.5  293835.05  113661.73  38.68
1366.2  292105.05  111402.70  38.14
1369.9  290195.00  108804.98  37.49
1373.6  288122.68  105750.98  36.70
1377.3  286263.60  102198.39  35.70
1381.0  285083.00  98103.95  34.41
1384.8  283042.50  92854.82  32.81
1388.4  280619.38  86949.33  30.98
1392.2  278740.25  80775.10  28.98
1395.9  277152.38  74520.83  26.89
1399.6  275503.88  68492.23  24.86
1403.3  274305.31  63105.37  23.01
1407.0  273148.60  58442.13  21.40
1410.7  271945.58  54593.79  20.08
1414.3  270719.05  51572.11  19.05
1418.1  269561.50  49317.81  18.30
1421.7  268647.93  47695.05  17.75
1425.4  267679.10  46551.65  17.39
1429.1  266771.63  45784.55  17.16
1432.8  265239.05  45199.25  17.04
1436.5  264436.38  44923.01  16.99
1440.2  263574.80  44796.42  17.00
1443.9  262304.90  44693.46  17.04
1447.6  260691.20  44616.00  17.11
1451.2  259611.55  44663.09  17.20
1454.9  258322.65  44724.96  17.31
1458.6  257222.37  44930.05  17.47
1462.3  256062.77  45250.33  17.67
1466.0  254693.97  45704.69  17.94
1469.7  252991.05  46282.68  18.29
1473.3  251959.00  47125.50  18.70
1477.0  250073.50  47917.83  19.16
1480.7  248485.53  48826.51  19.65
1484.4  246554.38  49673.10  20.15
1488.0  245021.33  50620.95  20.66
1491.7  243389.00  51531.51  21.17
1495.4  241653.78  52414.16  21.69
1499.0  240062.00  53273.00  22.19
1502.7  238768.83  54188.13  22.69
1506.4  237357.61  55033.44  23.19
1510.0  235929.40  55845.29  23.67
1513.7  234469.08  56595.00  24.14
1517.4  233131.67  57343.57  24.60
1521.0  231918.93  58081.64  25.04
1524.7  230685.00  58749.63  25.47
1528.3  229390.00  59373.43  25.88
1532.0  228167.68  59965.58  26.28
1535.7  226763.24  60448.16  26.66
1539.3  225485.62  60937.47  27.02
1543.0  224511.56  61462.56  27.38
1546.6  223840.50  62035.07  27.71
1550.3  222847.05  62480.35  28.04
1553.9  221782.80  62859.31  28.34
1557.6  220508.93  63147.86  28.64
1561.2  219238.20  63378.83  28.91
1564.9  217922.29  63570.16  29.17
1568.5  216593.88  63718.55  29.42
1572.2  215456.75  63889.36  29.65
1575.8  214368.00  64068.00  29.89
1579.5  213345.40  64230.37  30.11
1583.1  212352.43  64381.67  30.32
1586.8  211120.00  64436.00  30.52
1590.4  210050.93  64513.24  30.71
1594.0  208702.65  64497.07  30.90
1597.7  207564.07  64520.20  31.08
1601.3  206246.25  64473.98  31.26
1604.9  204963.29  64408.98  31.42
1608.6  203667.25  64293.37  31.57
1612.2  202619.18  64238.51  31.70
1615.8  201477.58  64131.28  31.83
1619.5  200358.25  64010.70  31.95
1623.1  199066.90  63805.72  32.05
1626.7  197830.10  63586.25  32.14
1630.3  196614.67  63350.66  32.22
1634.0  195510.00  63108.00  32.28
1637.6  194485.73  62851.88  32.32
1641.2  193468.50  62524.51  32.32
1644.8  192226.04  62058.53  32.28
1648.5  191139.37  61608.77  32.23
1652.1  190152.60  61173.86  32.17
1655.7  189215.00  60778.03  32.12
1659.3  188362.47  60470.24  32.10
1662.9  186929.17  60040.35  32.12
1666.6  185469.00  59622.57  32.15
1670.2  184023.58  59187.59  32.16
1673.8  182577.26  58687.05  32.14
1677.4  181399.55  58223.20  32.10
1681.0  180596.33  57797.98  32.00
1684.6  180182.17  57431.83  31.87
1688.2  179521.05  56866.83  31.68
1691.8  178863.80  56336.36  31.50
1695.4  178423.00  55856.71  31.31
1699.0  178073.23  55410.37  31.12
1702.6  177747.67  54941.71  30.91
1706.2  177136.05  54333.83  30.67
1709.8  176202.78  53628.10  30.44
1713.4  175489.91  53021.99  30.21
1717.0  174625.25  52465.75  30.04
1720.6  173813.10  51995.33  29.91
1724.2  173100.15  51582.93  29.80
1727.8  172382.70  51204.40  29.70
1731.4  171910.75  50910.75  29.61
1735.0  171674.43  50714.98  29.54
1738.6  171402.30  50459.70  29.44
1742.2  170793.28  50038.75  29.30
1745.8  170120.68  49541.41  29.12
1749.4  169117.58  48919.44  28.93
1753.0  167604.67  48131.14  28.72
1756.6  165914.29  47322.38  28.52
1760.1  164574.43  46626.91  28.33
1763.7  162855.33  45862.00  28.16
1767.3  161431.65  45197.65  28.00
1770.9  160193.66  44604.12  27.84
1774.5  158738.07  43969.99  27.70
1778.0  157583.16  43452.51  27.57
1781.6  156484.35  43010.85  27.49
1785.2  155343.48  42600.17  27.42
1788.8  154171.00  42243.33  27.40
1792.3  152942.67  41878.61  27.38
1795.9  152422.51  41721.27  27.37
1799.5  151904.00  41572.62  27.37
1803.1  151318.53  41402.90  27.36
1806.6  151895.57  41529.06  27.34
1810.2  153093.73  41821.60  27.32
1813.8  154036.40  42057.26  27.30
1817.3  154019.60  42030.06  27.29
1820.9  153215.78  41780.33  27.27
1824.5  152009.95  41404.79  27.24
1828.0  151126.25  41088.34  27.19
1831.6  150329.28  40771.04  27.12
1835.2  149628.33  40417.50  27.01
1838.7  149228.27  40058.02  26.84
1842.3  148860.00  39642.86  26.63
1845.8  148084.50  38998.12  26.34
1849.4  147569.60  38296.20  25.95
1852.9  146906.84  37400.26  25.46
1856.5  146000.88  36237.17  24.82
1860.0  145216.63  34865.34  24.01
1863.6  144948.92  33380.81  23.03
1867.1  144797.45  31661.35  21.87
1870.7  144752.68  29563.74  20.42
1874.2  144020.70  26942.27  18.71
1877.8  142747.33  24069.98  16.86
1881.3  141214.75  21088.82  14.93
1884.9  140169.06  18277.87  13.04
1888.4  139114.70  15614.09  11.22
1891.9  138021.80  13292.87  9.63
1895.5  136825.87  11400.00  8.33
1899.0  136140.88  10006.86  7.35
1901.3  170557.83  8399.67  4.92
1904.1  170441.25  7546.50  4.43
1906.8  169623.00  6890.20  4.06
1909.6  167836.90  6345.03  3.78
1912.4  166144.53  5964.50  3.59
1915.1  164875.70  5711.57  3.46
1917.9  163435.67  5499.33  3.36
1920.6  162261.93  5378.17  3.31
1923.3  161044.57  5306.86  3.30
1926.1  159558.33  5256.34  3.29
1928.8  158136.00  5236.00  3.31
1931.6  156984.97  5245.73  3.34
1934.3  155877.90  5297.20  3.40
1937.0  154825.07  5362.28  3.46
1939.8  153710.83  5444.17  3.54
1942.5  152339.00  5544.00  3.64
1945.2  150605.40  5632.55  3.74
1947.9  149235.80  5745.76  3.85
1950.7  148140.80  5886.04  3.97
1953.4  146430.15  6019.68  4.11
1956.1  145101.42  6177.33  4.26
1958.8  143923.87  6347.75  4.41
1961.5  142489.60  6507.47  4.57
1964.2  141004.50  6685.47  4.74
1966.9  139460.50  6859.90  4.92
1969.6  138240.00  7056.00  5.10
1972.3  136873.10  7250.53  5.30
1975.0  135829.80  7475.30  5.50
1977.7  134718.67  7702.83  5.72
1980.4  133577.70  7925.07  5.93
1983.1  132484.62  8161.71  6.16
1985.8  131561.40  8404.20  6.39
1988.4  130537.33  8643.56  6.62
1991.1  129594.97  8883.70  6.85
1993.8  128733.00  9130.79  7.09
1996.5  128103.98  9397.91  7.34
1999.1  127414.65  9656.41  7.58
2001.8  126737.33  9913.94  7.82
2004.5  126065.10  10163.75  8.06
2007.1  125329.85  10403.07  8.30
2009.8  124596.27  10639.14  8.54
2012.4  124011.07  10882.85  8.78
2015.1  123456.67  11116.85  9.00
2017.8  122679.67  11318.30  9.23
2020.4  122175.72  11534.84  9.44
2023.1  121824.97  11761.48  9.65
2025.7  121602.00  11988.89  9.86
2028.3  121272.67  12188.22  10.05
2031.0  120872.00  12370.86  10.23
2033.6  120590.70  12559.90  10.42
2036.2  120329.70  12731.00  10.58
2038.9  119738.10  12864.40  10.74
2041.5  119383.47  13008.17  10.90
2044.1  118842.00  13119.60  11.04
2046.8  118476.60  13232.70  11.17
2049.4  117858.90  13319.70  11.30
2052.0  117568.13  13437.69  11.43
2054.6  117197.50  13539.17  11.55
2057.2  116624.93  13632.73  11.69
2059.8  116275.60  13760.82  11.83
2062.4  115408.67  13818.82  11.97
2065.0  114878.27  13912.20  12.11
2067.6  113979.13  13961.19  12.25
2070.2  113377.68  14036.74  12.38
2072.8  112758.80  14109.38  12.51
2075.4  112315.00  14201.25  12.64
2078.0  111688.87  14264.13  12.77
2080.6  111126.40  14338.13  12.90
2083.2  110433.70  14380.26  13.02
2085.8  109940.98  14439.80  13.13
2088.4  109286.00  14474.89  13.24
2090.9  108480.27  14488.72  13.36
2093.5  107593.30  14485.45  13.46
2096.1  106822.90  14495.43  13.57
2098.7  106058.75  14498.35  13.67
2101.2  105096.93  14468.22  13.77
2103.8  104424.47  14476.96  13.86
2106.4  103760.73  14471.13  13.95
2108.9  103114.47  14468.22  14.03
2111.5  102258.60  14436.20  14.12
2114.0  101629.80  14418.73  14.19
2116.6  101115.00  14411.25  14.25
2119.1  100562.43  14386.10  14.31
2121.7  100065.00  14367.50  14.36
2124.2  99659.47  14365.64  14.41
2126.8  98856.42  14302.19  14.47
2129.3  98472.00  14300.00  14.52
2131.9  97891.20  14267.73  14.58
2134.4  97456.20  14263.25  14.64
2136.9  97077.07  14260.71  14.69
2139.4  96549.13  14242.82  14.75
2142.0  96096.93  14233.96  14.81
2144.5  95817.40  14251.87  14.87
2147.0  95577.73  14278.45  14.94
2149.5  95077.47  14248.67  14.99
2152.1  94908.92  14274.51  15.04
2154.6  94855.47  14307.20  15.08
2157.1  94330.42  14263.86  15.12
2159.6  93912.58  14227.53  15.15
2162.1  93748.20  14238.47  15.19
2164.6  93497.93  14229.73  15.22
2167.1  93174.10  14212.74  15.25
2169.6  92848.70  14205.95  15.30
2172.1  92397.97  14163.93  15.33
2174.6  92064.33  14153.29  15.37
2177.1  91635.78  14119.95  15.41
2179.5  91210.17  14102.33  15.46
2182.0  90732.40  14071.75  15.51
2184.5  90192.60  14043.72  15.57
2187.0  89578.93  13989.63  15.62
2189.5  88915.73  13937.34  15.67
2191.9  88150.50  13863.67  15.73
2194.4  87525.75  13815.67  15.78
2196.9  86774.40  13744.00  15.84
2199.3  86110.67  13684.78  15.89
2201.8  85225.07  13578.00  15.93
2204.3  84766.92  13540.46  15.97
2206.7  84138.70  13474.80  16.01
2209.2  83662.42  13434.74  16.06
2211.6  83031.30  13358.40  16.09
2214.1  82744.20  13336.32  16.12
2216.5  82158.60  13267.62  16.15
2219.0  81830.80  13227.89  16.16
2221.4  81445.58  13175.95  16.18
2223.9  80979.50  13083.39  16.16
2226.3  80463.83  12990.83  16.14
2228.7  79896.87  12874.69  16.11
2231.1  79318.80  12731.40  16.05
2233.6  78731.60  12585.53  15.99
2236.0  78183.00  12422.28  15.89
2238.4  77687.17  12260.31  15.78
2240.9  77231.67  12095.49  15.66
2243.3  76685.33  11903.44  15.52
2245.7  76127.45  11701.20  15.37
2248.1  75627.07  11511.50  15.22
2250.5  75124.58  11317.77  15.07
2252.9  74520.77  11102.86  14.90
2255.3  73978.25  10901.88  14.74
2257.7  73510.00  10726.67  14.59
2260.1  73012.57  10545.03  14.44
2262.5  72410.00  10343.33  14.28
2264.9  71860.03  10166.36  14.15
2267.3  71260.00  9976.67  14.00
2269.7  70785.17  9819.29  13.87
2272.1  70226.85  9659.41  13.75
2274.5  69653.72  9490.82  13.63
2276.8  69175.10  9345.55  13.51
2279.2  68601.30  9182.35  13.39
2281.6  68181.53  9046.58  13.27
2284.0  67730.60  8898.10  13.14
2286.3  67275.20  8748.44  13.00
2288.7  66853.58  8611.71  12.88
2291.1  66291.53  8445.91  12.74
2293.4  65840.13  8295.47  12.60
2295.8  65229.90  8116.40  12.44
2298.2  64635.75  7952.25  12.30
2300.5  63973.35  7779.75  12.16
2302.9  63229.67  7605.33  12.03
2305.2  62510.70  7436.60  11.90
2307.6  61838.10  7283.57  11.78
2309.9  61070.00  7136.89  11.69
2312.2  60460.33  7026.67  11.62
2314.6  59854.05  6924.15  11.57
2316.9  59150.25  6806.85  11.51
2319.2  58561.30  6700.32  11.44
2321.6  57907.85  6586.49  11.37
2323.9  57364.58  6479.17  11.29
2326.2  56840.80  6360.86  11.19
2328.6  56304.60  6252.58  11.10
2330.9  55797.00  6149.50  11.02
2333.2  55319.08  6053.67  10.94
2335.5  54880.30  5959.90  10.86
2337.8  54423.48  5866.13  10.78
2340.1  53830.40  5758.30  10.70
2342.4  53397.50  5669.45  10.62
2344.8  52978.58  5571.14  10.52
2347.1  52398.73  5468.71  10.44
2349.4  51855.45  5376.13  10.37
2351.6  51260.55  5265.96  10.27
2353.9  50775.40  5185.67  10.21
2356.2  50247.33  5109.96  10.17
2358.5  49660.80  5021.33  10.11
2360.8  49067.20  4939.20  10.07
2363.1  48635.47  4849.34  9.97
2365.4  48171.90  4764.83  9.89
2367.7  47686.20  4677.80  9.81
2369.9  47128.20  4591.45  9.74
2372.2  46497.33  4483.47  9.64
2374.5  45922.80  4396.70  9.57
2376.7  45281.77  4298.17  9.49
2379.0  44660.37  4195.75  9.39
2381.3  44041.67  4083.33  9.27
2383.5  43518.93  3985.42  9.16
2385.8  42936.57  3890.85  9.06
2388.0  42409.20  3795.67  8.95
2390.3  41877.47  3698.44  8.83
2392.5  41376.00  3616.00  8.74
2394.8  40922.20  3529.17  8.62
2397.0  40440.40  3441.82  8.51
2399.3  39973.52  3366.66  8.42
2401.5  39506.25  3287.08  8.32
2403.8  38969.93  3210.55  8.24
2406.0  38466.83  3124.86  8.12
2408.2  38048.27  3054.33  8.03
2410.4  37637.25  2979.35  7.92
2412.7  37222.47  2898.71  7.79
2414.9  36836.80  2825.17  7.67
2417.1  36423.60  2755.90  7.57
2419.3  36006.40  2692.27  7.48
2421.6  35637.08  2613.47  7.33
2423.8  35256.37  2541.47  7.21
2426.0  34873.23  2471.16  7.09
2428.2  34496.00  2404.27  6.97
2430.4  34181.70  2337.89  6.84
2432.6  33920.00  2288.89  6.75
2434.8  33603.80  2227.78  6.63
2437.0  33247.50  2158.29  6.49
2439.2  32886.05  2104.09  6.40
2441.4  32542.77  2045.00  6.28
2443.6  32289.55  1989.60  6.16
2445.7  32014.97  1939.04  6.06
2447.9  31743.92  1883.39  5.93
2450.1  31443.90  1821.82  5.79
2452.3  31084.90  1778.70  5.72
2454.5  30721.10  1725.64  5.62
2456.6  30330.93  1678.71  5.53
2458.8  29958.50  1630.20  5.44
2461.0  29640.67  1581.03  5.33
2463.1  29347.35  1532.60  5.22
2465.3  29061.80  1492.60  5.14
2467.5  28821.50  1465.17  5.08
2469.6  28565.42  1432.00  5.01
2471.8  28246.35  1391.55  4.93
2473.9  27904.17  1342.42  4.81
2476.1  27573.00  1329.61  4.82
2478.2  27237.20  1289.75  4.74
2480.4  26923.90  1248.47  4.64
2482.5  26569.40  1218.02  4.58
2484.6  26226.75  1199.92  4.58
2486.8  25936.40  1172.27  4.52
2488.9  25632.13  1131.14  4.41
2491.1  25275.60  1100.09  4.35
2493.2  24860.10  1064.44  4.28
2495.3  24466.87  1047.51  4.28
2497.4  24133.90  1025.03  4.25
2499.5  23789.50  992.58  4.17
2501.7  23647.57  986.00  4.17
2503.8  23553.78  975.14  4.14
2505.9  23472.50  968.06  4.12
2508.0  23437.30  969.26  4.14
2510.1  23462.93  971.66  4.14
2512.2  23543.05  954.20  4.05
2514.3  23691.20  968.15  4.09
2516.4  23896.10  971.87  4.07
