/*** Spectra Vista SIG Data ***/
name= 11_20220926_CECA_30_avg.sig
comm= Averaged Ref/Tar of files: HR.092622.0029_moc.sig,HR.092622.0030_moc.sig,HR.092622.0031_moc.sig
data=
337.3  6317.33  494.69  7.83
338.8  6445.40  487.41  7.56
340.3  6805.80  491.53  7.22
341.8  7076.55  471.77  6.67
343.2  7550.13  473.73  6.27
344.7  7814.63  469.45  6.01
346.2  8225.00  460.60  5.60
347.7  8627.35  464.35  5.38
349.2  8920.80  463.68  5.20
350.6  9277.35  477.26  5.14
352.1  9834.25  471.67  4.80
353.6  10320.00  458.67  4.44
355.1  10843.58  470.11  4.34
356.6  11518.28  485.89  4.22
358.0  12031.75  498.16  4.14
359.5  12499.88  504.06  4.03
361.0  13164.60  521.84  3.96
362.5  13784.33  530.61  3.85
364.0  14483.20  550.66  3.80
365.4  15159.05  553.25  3.65
366.9  15819.10  570.64  3.61
368.4  16462.60  605.77  3.68
369.9  17225.00  621.87  3.61
371.3  18121.13  644.31  3.56
372.8  18857.85  664.96  3.53
374.3  19619.80  687.31  3.50
375.8  20496.10  697.29  3.40
377.2  21270.60  709.02  3.33
378.7  22176.18  730.43  3.29
380.2  22988.10  745.18  3.24
381.7  23895.75  766.63  3.21
383.1  24886.20  787.36  3.16
384.6  25814.33  785.12  3.04
386.1  26784.30  808.45  3.02
387.6  27707.03  827.18  2.99
389.0  28728.90  852.78  2.97
390.5  29758.30  887.89  2.98
392.0  30894.75  903.90  2.93
393.4  32006.63  924.75  2.89
394.9  32983.20  936.56  2.84
396.4  34155.00  971.52  2.84
397.9  35220.30  1002.00  2.84
399.3  36253.88  1025.96  2.83
400.8  37431.08  1051.38  2.81
402.2  38662.80  1071.84  2.77
403.7  39860.55  1101.76  2.76
405.2  41075.10  1124.84  2.74
406.6  42310.20  1171.76  2.77
408.1  43364.63  1179.87  2.72
409.6  44614.33  1203.40  2.70
411.0  45843.60  1251.29  2.73
412.5  47240.75  1286.79  2.72
414.0  48583.68  1334.76  2.75
415.4  49923.00  1367.40  2.74
416.9  51221.63  1410.94  2.75
418.4  52598.60  1457.84  2.77
419.8  53944.10  1508.27  2.80
421.3  55440.00  1561.56  2.82
422.7  56919.20  1608.88  2.83
424.2  58405.05  1669.34  2.86
425.7  59866.13  1720.40  2.87
427.1  61400.00  1784.69  2.91
428.6  62872.35  1841.53  2.93
430.0  64440.75  1898.89  2.95
431.5  66122.55  1966.90  2.97
432.9  67759.50  2027.87  2.99
434.4  69478.85  2081.22  3.00
435.9  71137.50  2142.71  3.01
437.3  72846.00  2208.10  3.03
438.8  74489.63  2270.16  3.05
440.2  76191.15  2329.37  3.06
441.7  78086.10  2392.01  3.06
443.1  79899.75  2458.98  3.08
444.6  81723.78  2525.75  3.09
446.0  83549.90  2591.08  3.10
447.5  85500.00  2653.33  3.10
448.9  87262.43  2718.49  3.12
450.4  89175.00  2790.00  3.13
451.8  90977.63  2854.20  3.14
453.3  92835.08  2921.79  3.15
454.7  94682.70  2993.37  3.16
456.2  96476.80  3052.37  3.16
457.6  98419.05  3112.20  3.16
459.1  100250.33  3162.46  3.15
460.5  102112.05  3226.40  3.16
462.0  104165.10  3292.08  3.16
463.4  106175.65  3361.26  3.17
464.8  108171.00  3420.06  3.16
466.3  110114.03  3476.43  3.16
467.7  112145.60  3536.00  3.15
469.2  114030.00  3594.66  3.15
470.6  116095.00  3663.68  3.16
472.0  118129.73  3721.16  3.15
473.5  120173.65  3789.41  3.15
474.9  122349.55  3849.65  3.15
476.4  124432.80  3921.65  3.15
477.8  126560.00  3994.67  3.16
479.2  128662.78  4061.76  3.16
480.7  130811.10  4129.11  3.16
482.1  133034.70  4203.64  3.16
483.6  135287.10  4278.00  3.16
485.0  137553.08  4349.18  3.16
486.4  139701.20  4432.11  3.17
487.9  141956.25  4520.00  3.18
489.3  144143.18  4593.48  3.19
490.7  146346.80  4688.56  3.20
492.2  148628.25  4782.13  3.22
493.6  150895.60  4875.15  3.23
495.0  153222.23  4987.71  3.26
496.5  155443.05  5095.44  3.28
497.9  157765.00  5217.22  3.31
499.3  160063.38  5345.85  3.34
500.7  162357.10  5482.65  3.38
502.2  164749.33  5633.71  3.42
503.6  167085.00  5797.92  3.47
505.0  169383.50  5982.24  3.53
506.5  171899.55  6197.25  3.61
507.9  174372.68  6434.67  3.69
509.3  176679.23  6686.55  3.78
510.7  179320.05  6982.04  3.89
512.2  182005.35  7321.99  4.02
513.6  184870.30  7718.64  4.18
515.0  187681.73  8161.91  4.35
516.4  190539.60  8654.75  4.54
517.8  193338.75  9203.23  4.76
519.3  196302.40  9810.13  5.00
520.7  198968.20  10453.37  5.25
522.1  201638.13  11149.67  5.53
523.5  204272.38  11878.11  5.81
524.9  207160.95  12633.21  6.10
526.3  209804.18  13368.87  6.37
527.8  212626.50  14110.22  6.64
529.2  215280.00  14841.60  6.89
530.6  218094.30  15564.48  7.14
532.0  221087.10  16253.34  7.35
533.4  223556.35  16854.55  7.54
534.8  226057.43  17394.41  7.69
536.3  229085.68  17946.00  7.83
537.7  232169.50  18442.93  7.94
539.1  235114.75  18910.41  8.04
540.5  237987.00  19340.90  8.13
541.9  240967.23  19769.58  8.20
543.3  243538.30  20162.17  8.28
544.7  246532.00  20583.20  8.35
546.1  249333.00  20988.24  8.42
547.5  252266.40  21398.40  8.48
549.0  255460.00  21813.39  8.54
550.4  258333.08  22178.52  8.59
551.8  261263.65  22505.25  8.61
553.2  264191.63  22768.16  8.62
554.6  267066.00  22958.59  8.60
556.0  270023.25  23075.50  8.55
557.4  273147.40  23126.45  8.47
558.8  276040.95  23091.75  8.37
560.2  279240.00  23018.67  8.24
561.6  282214.35  22861.41  8.10
563.0  285041.90  22640.54  7.94
564.4  288219.40  22405.79  7.77
565.8  291248.90  22110.54  7.59
567.2  294432.68  21780.42  7.40
568.6  297490.73  21390.93  7.19
570.0  300418.63  20961.63  6.98
571.4  303892.10  20563.00  6.77
572.8  307025.80  20150.24  6.56
574.2  309916.95  19759.95  6.38
575.6  312978.63  19407.72  6.20
577.0  316033.58  19094.83  6.04
578.4  319506.25  18844.58  5.90
579.8  322581.98  18616.58  5.77
581.2  325695.50  18423.00  5.66
582.5  328590.00  18252.00  5.55
583.9  331669.70  18108.55  5.46
585.3  334591.90  17987.19  5.38
586.7  337606.50  17885.56  5.30
588.1  340622.70  17807.41  5.23
589.5  343994.85  17769.26  5.17
590.9  346963.48  17744.86  5.11
592.3  349954.20  17738.46  5.07
593.7  352907.10  17760.49  5.03
595.0  355863.60  17794.00  5.00
596.4  359195.00  17850.30  4.97
597.8  361891.80  17877.89  4.94
599.2  365040.00  17920.76  4.91
600.6  368254.43  17946.83  4.87
602.0  371236.20  17953.36  4.84
603.3  374114.00  17919.20  4.79
604.7  377167.95  17878.46  4.74
606.1  380207.48  17794.73  4.68
607.5  383583.93  17706.20  4.62
608.9  386678.60  17582.18  4.55
610.2  389862.00  17456.67  4.48
611.6  392782.50  17310.33  4.41
613.0  395608.03  17156.23  4.34
614.4  398405.98  17019.36  4.27
615.8  401717.60  16912.45  4.21
617.1  404464.25  16795.76  4.15
618.5  407728.20  16729.06  4.10
619.9  410439.90  16659.02  4.06
621.3  413425.03  16626.09  4.02
622.6  416373.75  16621.80  3.99
624.0  419134.50  16633.45  3.97
625.4  422253.00  16677.59  3.95
626.8  425256.00  16741.40  3.94
628.1  428094.45  16808.54  3.93
629.5  430843.35  16889.11  3.92
630.9  433735.65  16953.77  3.91
632.2  436830.75  17025.87  3.90
633.6  439296.98  17051.49  3.88
635.0  442293.68  17054.67  3.86
636.3  445341.20  17029.83  3.82
637.7  448087.95  16951.32  3.78
639.1  451113.30  16855.52  3.74
640.4  453823.38  16711.67  3.68
641.8  456672.60  16566.48  3.63
643.2  459307.70  16404.34  3.57
644.5  462210.00  16258.67  3.52
645.9  464923.20  16133.74  3.47
647.2  467903.98  16039.36  3.43
648.6  470799.20  15949.39  3.39
650.0  473616.00  15903.12  3.36
651.3  476035.60  15862.01  3.33
652.7  479360.25  15865.10  3.31
654.0  482262.30  15850.31  3.29
655.4  484597.58  15820.63  3.26
656.8  486253.43  15768.34  3.24
658.1  488824.35  15733.48  3.22
659.5  492134.40  15696.00  3.19
660.8  495376.35  15670.20  3.16
662.2  498058.78  15590.36  3.13
663.5  500869.55  15533.21  3.10
664.9  502947.98  15485.31  3.08
666.2  505067.23  15457.56  3.06
667.6  507656.25  15481.20  3.05
668.9  510451.20  15557.76  3.05
670.3  513213.75  15635.08  3.05
671.6  515626.40  15733.23  3.05
673.0  517958.40  15880.21  3.07
674.3  520396.80  16047.83  3.08
675.7  522954.90  16237.56  3.10
677.0  525321.23  16462.12  3.13
678.4  527584.40  16711.20  3.17
679.7  530008.20  17019.49  3.21
681.1  532617.80  17358.89  3.26
682.4  534814.88  17724.05  3.31
683.8  537230.25  18119.55  3.37
685.1  539497.05  18581.78  3.44
686.4  541681.73  19096.31  3.53
687.8  544234.28  19738.61  3.63
689.1  546645.40  20541.55  3.76
690.5  548651.40  21539.27  3.93
691.8  551344.75  22934.56  4.16
693.1  553798.50  24777.60  4.47
694.5  556169.90  27210.53  4.89
695.8  558660.80  30321.97  5.43
697.1  560933.20  34185.05  6.09
698.5  563286.00  38843.70  6.90
699.8  565710.00  44326.67  7.84
701.1  567564.38  50517.95  8.90
702.5  569687.25  57388.02  10.07
703.8  572193.28  64860.41  11.34
705.1  574110.75  72716.38  12.67
706.5  576429.65  81026.95  14.06
707.8  578342.05  89583.79  15.49
709.1  580622.38  98446.94  16.96
710.5  582859.68  107510.87  18.45
711.8  584843.00  116702.00  19.95
713.1  586821.00  126047.33  21.48
714.4  588926.20  135540.22  23.01
715.8  591247.45  145157.01  24.55
717.1  593528.25  154804.94  26.08
718.4  595810.20  164439.23  27.60
719.7  598049.10  174006.87  29.10
721.0  599818.03  183344.71  30.57
722.4  601715.25  192583.80  32.01
723.7  603726.80  201651.53  33.40
725.0  605491.78  210411.58  34.75
726.3  607838.40  219072.88  36.04
727.6  609588.00  227256.20  37.28
729.0  611454.20  235146.43  38.46
730.3  613477.10  242734.17  39.57
731.6  615040.20  249751.76  40.61
732.9  617045.33  256606.05  41.59
734.2  618733.50  262963.25  42.50
735.5  620566.10  269006.32  43.35
736.8  622626.20  274793.80  44.13
738.1  624509.10  280128.45  44.86
739.5  626313.00  285099.18  45.52
740.8  628275.45  289826.90  46.13
742.1  629888.13  294098.74  46.69
743.4  631671.60  298159.63  47.20
744.7  633619.00  302029.47  47.67
746.0  635108.70  305407.25  48.09
747.3  636706.70  308564.11  48.46
748.6  638259.05  311498.37  48.80
749.9  640126.60  314320.13  49.10
751.2  641469.40  316717.87  49.37
752.5  643100.60  319055.92  49.61
753.8  644472.90  321134.70  49.83
755.1  646185.78  323185.88  50.01
756.4  647373.13  324833.51  50.18
757.7  649419.38  326807.43  50.32
759.0  653095.35  329471.47  50.45
760.3  655870.65  331590.22  50.56
761.6  658772.48  333683.90  50.65
762.9  660283.25  334978.23  50.73
764.2  661079.00  335864.57  50.81
765.5  662055.73  336727.68  50.86
766.8  662621.05  337382.03  50.92
768.1  663805.80  338257.50  50.96
769.3  665085.25  339181.77  51.00
770.6  666566.05  340134.31  51.03
771.9  667784.38  340965.65  51.06
773.2  669289.73  341889.99  51.08
774.5  670281.00  342540.82  51.10
775.8  671401.08  343267.13  51.13
777.1  672666.90  344020.42  51.14
778.4  673982.00  344820.32  51.16
779.6  675411.00  345607.12  51.17
780.9  676100.93  346070.34  51.19
782.2  677237.88  346679.46  51.19
783.5  678162.50  347267.00  51.21
784.8  679037.63  347784.15  51.22
786.0  679879.53  348298.15  51.23
787.3  680830.33  348809.13  51.23
788.6  681821.13  349366.53  51.24
789.9  682552.70  349809.57  51.25
791.2  683961.20  350596.09  51.26
792.4  685154.25  351267.03  51.27
793.7  686767.53  352148.82  51.28
795.0  687916.80  352760.83  51.28
796.2  689361.90  353513.41  51.28
797.5  690651.25  354204.58  51.29
798.8  692148.63  355016.78  51.29
800.0  693350.00  355665.33  51.30
801.3  694575.00  356350.05  51.30
802.6  695664.00  356928.00  51.31
803.8  696911.25  357558.04  51.31
805.1  697971.00  358165.70  51.32
806.4  699015.15  358731.00  51.32
807.7  700202.38  359394.39  51.33
808.9  701504.68  360034.82  51.32
810.2  702408.00  360559.08  51.33
811.4  703526.40  361114.13  51.33
812.7  704915.80  361880.20  51.34
814.0  706224.75  362585.30  51.34
815.2  707681.25  363393.98  51.35
816.5  708890.00  364043.17  51.35
817.7  709722.00  364499.20  51.36
819.0  710442.60  364885.73  51.36
820.2  711354.45  365367.94  51.36
821.5  712497.00  365997.23  51.37
822.7  713490.75  366561.44  51.38
824.0  714487.80  367086.03  51.38
825.2  715236.60  367455.40  51.38
826.5  716019.75  367907.29  51.38
827.7  717161.18  368471.05  51.38
829.0  718094.55  368991.50  51.38
830.2  719104.20  369470.67  51.38
831.5  719970.98  369984.81  51.39
832.7  720914.40  370492.20  51.39
834.0  721527.08  370857.51  51.40
835.2  722468.35  371440.75  51.41
836.4  723250.00  371846.93  51.41
837.7  724078.13  372252.75  51.41
838.9  725238.75  372901.29  51.42
840.1  726202.95  373393.68  51.42
841.4  727142.50  373988.95  51.43
842.6  727958.00  374491.41  51.44
843.8  728794.30  374945.13  51.45
845.1  729610.20  375379.84  51.45
846.3  730528.05  375867.38  51.45
847.5  731480.75  376350.43  51.45
848.8  732422.05  376874.13  51.46
850.0  733515.00  377490.96  51.46
851.2  734551.00  377988.75  51.46
852.5  735781.90  378656.32  51.46
853.7  736290.68  379005.12  51.47
854.9  737388.60  379616.64  51.48
856.1  738513.00  380144.49  51.47
857.4  739438.43  380591.86  51.47
858.6  740517.40  381127.23  51.47
859.8  741557.30  381730.61  51.48
861.0  742548.80  382242.19  51.48
862.2  743599.50  382760.28  51.47
863.5  744690.10  383248.97  51.46
864.7  745487.50  383774.17  51.48
865.9  746500.63  384274.58  51.48
867.1  747300.00  384616.67  51.47
868.3  748447.95  385229.69  51.47
869.5  749750.00  385831.35  51.46
870.8  750819.15  386363.76  51.46
872.0  751813.88  386866.10  51.46
873.2  752625.65  387333.16  51.46
874.4  753475.15  387701.29  51.46
875.6  754733.25  388305.25  51.45
876.8  756076.20  389049.54  51.46
878.0  757097.60  389546.59  51.45
879.2  758239.10  390045.28  51.44
880.4  759284.00  390609.07  51.44
881.6  760419.10  391005.52  51.42
882.8  761653.95  391704.51  51.43
884.0  762487.38  392126.54  51.43
885.2  764086.25  392829.20  51.41
886.5  765452.63  393526.82  51.41
887.7  766335.78  393968.99  51.41
888.8  767896.40  394617.46  51.39
890.0  768810.00  395038.00  51.38
891.2  770040.38  395541.90  51.37
892.4  771380.78  396238.70  51.37
893.6  773226.93  397100.82  51.36
894.8  774788.40  397973.64  51.37
896.0  776275.10  398693.21  51.36
897.2  778444.43  399533.31  51.32
898.4  780374.70  400501.36  51.32
899.6  781668.20  401082.55  51.31
900.8  782063.75  401312.43  51.31
902.0  782745.70  401613.45  51.31
903.2  783146.40  401686.68  51.29
904.3  784265.63  402187.50  51.28
905.5  785639.25  402821.10  51.27
906.7  786810.55  403434.58  51.27
907.9  787959.33  403902.79  51.26
909.1  789149.90  404388.86  51.24
910.2  789547.50  404554.50  51.24
911.4  789995.03  404652.21  51.22
912.6  790550.00  404910.33  51.22
913.8  791542.85  405359.17  51.21
915.0  792094.40  405557.65  51.20
916.2  792570.68  405535.79  51.17
917.3  793125.75  405854.51  51.17
918.5  793627.35  406076.56  51.17
919.7  793767.75  406036.33  51.15
920.8  793869.93  406175.07  51.16
922.0  794213.75  406063.09  51.13
923.2  794866.35  406216.53  51.11
924.4  795573.50  406491.22  51.09
925.5  796623.40  406795.17  51.06
926.7  797374.68  407161.16  51.06
927.9  798714.23  407827.01  51.06
929.0  801967.50  409351.68  51.04
930.2  806337.20  411474.13  51.03
931.4  811810.60  413876.25  50.98
932.5  816486.55  416098.32  50.96
933.7  819246.30  417310.22  50.94
934.9  821030.00  417896.50  50.90
936.0  820030.95  417346.95  50.89
937.2  817085.88  415625.45  50.87
938.3  813442.50  413438.57  50.83
939.5  811266.30  412181.64  50.81
940.7  811129.55  411973.87  50.79
941.8  814069.75  413259.08  50.76
943.0  816422.85  414123.37  50.72
944.2  818376.00  414800.00  50.69
945.3  818194.20  414284.32  50.63
946.5  816462.50  413172.67  50.61
947.6  817554.00  413370.00  50.56
948.8  816668.43  412523.25  50.51
949.9  816999.58  412394.03  50.48
951.1  817230.48  412173.08  50.44
952.2  816681.58  411468.74  50.38
953.4  816854.55  410829.38  50.29
954.5  815243.63  409608.15  50.24
955.7  814995.60  408987.95  50.18
956.8  815667.98  408870.17  50.13
958.0  814886.55  407962.50  50.06
959.1  814212.00  407332.80  50.03
960.3  814000.00  407000.00  50.00
961.4  814717.50  407122.60  49.97
962.6  814773.60  406566.72  49.90
963.7  814935.80  406495.97  49.88
964.9  815286.83  406411.96  49.85
966.0  815946.60  406589.17  49.83
967.2  816102.00  406593.04  49.82
968.3  817432.80  407251.47  49.82
969.5  818062.10  407142.63  49.77
970.6  818319.30  407247.51  49.77
971.8  817865.30  407152.92  49.78
972.9  818482.00  407382.73  49.77
974.0  818967.95  407764.01  49.79
975.2  818488.13  407191.50  49.75
976.3  819253.13  407417.61  49.73
977.5  818448.15  407125.49  49.74
978.6  818464.43  407254.46  49.76
979.7  817555.20  406707.84  49.75
980.9  818590.78  407125.92  49.73
982.0  817846.10  407036.21  49.77
983.2  817597.20  407064.93  49.79
984.3  816486.30  406251.72  49.76
985.4  815453.10  405883.05  49.77
986.6  815668.30  406166.12  49.80
987.7  814644.38  405688.48  49.80
988.9  816967.95  406331.60  49.74
990.0  816766.80  406213.25  49.73
993.1  845773.80  417700.80  49.39
996.9  846229.70  418969.82  49.51
1000.7  846202.95  419863.41  49.62
1004.5  845263.07  420138.60  49.71
1008.4  845939.36  421355.67  49.81
1012.2  846899.71  422662.63  49.91
1016.0  846651.85  423339.99  50.00
1019.8  845527.65  423522.42  50.09
1023.7  844694.37  423687.70  50.16
1027.5  842954.13  423406.31  50.23
1031.3  842176.12  423329.96  50.27
1035.1  841727.03  423353.20  50.30
1038.9  841574.23  423479.72  50.32
1042.7  841208.80  423535.73  50.35
1046.5  840489.13  423283.86  50.36
1050.3  838892.45  422578.48  50.37
1054.2  836917.68  421704.02  50.39
1058.0  835916.40  421244.11  50.39
1061.8  834685.75  420690.70  50.40
1065.6  833110.42  419799.64  50.39
1069.4  831325.57  418803.35  50.38
1073.2  829814.38  417966.12  50.37
1077.0  828355.73  417109.99  50.35
1080.8  827295.33  416356.69  50.33
1084.6  826074.33  415464.09  50.29
1088.4  824707.10  414511.91  50.26
1092.2  823255.07  413407.20  50.22
1096.0  821889.00  412399.18  50.18
1099.8  820571.63  411275.03  50.12
1103.6  819003.70  410005.38  50.06
1107.4  817609.95  408858.38  50.01
1111.2  816213.00  407636.19  49.94
1114.9  814998.00  406461.31  49.87
1118.7  814179.75  405301.49  49.78
1122.5  813888.40  404293.00  49.67
1126.3  811386.45  401941.20  49.54
1130.1  810763.45  400096.84  49.35
1133.9  807467.57  396385.01  49.09
1137.7  804922.80  392595.95  48.77
1141.4  801402.98  387902.78  48.40
1145.2  800543.41  384200.72  47.99
1149.0  798630.30  380158.94  47.60
1152.8  795430.25  375866.50  47.25
1156.6  792127.18  372122.96  46.98
1160.3  788976.60  369089.28  46.78
1164.1  784373.87  365868.35  46.64
1167.9  781257.08  363693.84  46.55
1171.7  778752.20  362008.63  46.49
1175.4  776598.33  360585.46  46.43
1179.2  774734.25  359352.13  46.38
1183.0  774884.13  358977.68  46.33
1186.7  774571.00  358408.15  46.27
1190.5  772820.96  357187.99  46.22
1194.3  769877.85  355498.24  46.18
1198.0  766984.18  353960.36  46.15
1201.8  764558.67  352829.48  46.15
1205.6  762897.21  352266.87  46.17
1209.3  761589.00  352085.80  46.23
1213.1  760075.67  351845.01  46.29
1216.8  758112.27  351509.25  46.37
1220.6  755983.67  351105.78  46.44
1224.3  753729.17  350643.92  46.52
1228.1  751724.28  350328.02  46.60
1231.9  749626.15  349863.42  46.67
1235.6  747359.25  349179.53  46.72
1239.4  745157.32  348582.30  46.78
1243.1  742999.50  347898.70  46.82
1246.9  740979.80  347190.82  46.86
1250.6  738989.90  346404.18  46.88
1254.3  737133.60  345614.86  46.89
1258.1  735212.67  344764.90  46.89
1261.8  732776.10  343631.18  46.89
1265.6  730213.38  342365.00  46.89
1269.3  727449.53  340918.42  46.86
1273.1  727790.83  340805.26  46.83
1276.8  728320.00  340691.31  46.78
1280.6  728100.58  340214.49  46.73
1284.3  725741.33  338639.36  46.66
1288.0  723613.69  337058.89  46.58
1291.8  721564.20  335328.60  46.47
1295.5  719542.55  333498.92  46.35
1299.2  717213.90  331411.66  46.21
1302.9  714477.59  328939.65  46.04
1306.7  711531.45  326204.40  45.85
1310.4  708663.93  323213.57  45.61
1314.1  706336.88  320308.33  45.35
1317.9  703958.56  317099.95  45.05
1321.6  701214.15  313514.85  44.71
1325.3  698363.78  309591.74  44.33
1329.0  695633.40  305593.61  43.93
1332.8  691795.00  300858.89  43.49
1336.5  688170.58  296159.68  43.04
1340.2  686226.85  292147.22  42.57
1343.9  685241.23  288566.13  42.11
1347.6  684219.05  285009.22  41.65
1351.4  683348.75  281637.76  41.21
1355.1  683741.76  278830.63  40.78
1358.8  682273.82  275107.64  40.32
1362.5  681863.99  271499.01  39.82
1366.2  679504.17  266557.75  39.23
1369.9  675583.00  260270.92  38.53
1373.6  671562.56  252896.79  37.66
1377.3  668896.83  244448.06  36.54
1381.0  666178.40  234024.54  35.13
1384.8  662526.60  221124.26  33.38
1388.4  658289.05  206679.97  31.40
1392.2  654183.38  191246.80  29.23
1395.9  652253.68  176159.09  27.01
1399.6  648418.66  161252.14  24.87
1403.3  646164.00  148122.13  22.92
1407.0  644044.50  136791.48  21.24
1410.7  642895.15  127653.02  19.86
1414.3  641049.50  120332.97  18.77
1418.1  639041.67  114741.90  17.96
1421.7  637236.83  110562.89  17.35
1425.4  635932.21  107603.94  16.92
1429.1  632504.25  105187.83  16.63
1432.8  631126.28  103832.84  16.45
1436.5  627787.88  102649.55  16.35
1440.2  624325.67  101876.19  16.32
1443.9  622102.10  101591.36  16.33
1447.6  618534.40  101305.73  16.38
1451.2  615587.25  101246.87  16.45
1454.9  613950.28  101557.63  16.54
1458.6  610346.18  101816.88  16.68
1462.3  609490.60  102883.32  16.88
1466.0  609493.75  104521.74  17.15
1469.7  607704.53  106306.77  17.49
1473.3  605548.53  108374.93  17.90
1477.0  601400.96  110392.54  18.36
1480.7  598221.92  112742.61  18.85
1484.4  594567.03  115042.64  19.35
1488.0  591468.00  117570.77  19.88
1491.7  587992.60  119969.87  20.40
1495.4  584497.78  122389.31  20.94
1499.0  581536.80  124829.27  21.47
1502.7  578844.38  127299.05  21.99
1506.4  576147.63  129704.55  22.51
1510.0  573402.92  132037.96  23.03
1513.7  570735.67  134285.63  23.53
1517.4  568207.97  136477.16  24.02
1521.0  565841.01  138614.94  24.50
1524.7  563392.67  140581.10  24.95
1528.3  560985.68  142478.64  25.40
1532.0  558471.25  144230.87  25.83
1535.7  555733.13  145794.11  26.23
1539.3  553176.33  147332.40  26.63
1543.0  551515.42  149013.90  27.02
1546.6  550147.00  150680.94  27.39
1550.3  548601.68  152197.45  27.74
1553.9  546256.07  153388.98  28.08
1557.6  544016.08  154531.07  28.41
1561.2  541569.59  155453.06  28.70
1564.9  538894.33  156272.61  29.00
1568.5  536189.33  156995.43  29.28
1572.2  533808.45  157759.12  29.55
1575.8  531988.90  158640.19  29.82
1579.5  530123.50  159425.55  30.07
1583.1  527889.48  160070.20  30.32
1586.8  525709.37  160656.04  30.56
1590.4  523569.58  161216.66  30.79
1594.0  521148.47  161663.42  31.02
1597.7  518839.97  162105.80  31.24
1601.3  516519.45  162471.88  31.46
1604.9  513867.20  162670.08  31.66
1608.6  511117.43  162744.52  31.84
1612.2  508507.96  162823.54  32.02
1615.8  506220.00  162945.08  32.19
1619.5  504061.77  163023.62  32.34
1623.1  501368.18  162857.28  32.48
1626.7  498618.48  162586.84  32.61
1630.3  496060.20  162349.46  32.73
1634.0  493637.08  162084.72  32.83
1637.6  491418.33  161772.71  32.92
1641.2  489219.85  161309.17  32.97
1644.8  486688.63  160597.74  33.00
1648.5  484043.63  159751.84  33.00
1652.1  481866.98  158931.83  32.98
1655.7  479996.17  158160.83  32.95
1659.3  478206.23  157459.73  32.93
1662.9  474984.85  156344.67  32.92
1666.6  471423.15  155149.95  32.91
1670.2  468108.85  153951.98  32.89
1673.8  464832.98  152689.42  32.85
1677.4  462301.13  151555.08  32.78
1681.0  460652.45  150533.94  32.68
1684.6  459737.21  149528.35  32.52
1688.2  458276.00  148077.51  32.31
1691.8  456647.22  146543.98  32.09
1695.4  455772.74  145252.64  31.87
1699.0  454936.45  143992.03  31.65
1702.6  454353.87  142763.16  31.42
1706.2  452878.13  141095.47  31.16
1709.8  450735.89  139287.97  30.90
1713.4  449157.80  137862.32  30.69
1717.0  447565.90  136677.29  30.54
1720.6  445835.63  135635.20  30.42
1724.2  444379.17  134736.13  30.32
1727.8  443017.64  133916.85  30.23
1731.4  442253.58  133257.22  30.13
1735.0  442151.98  132788.55  30.03
1738.6  441615.75  131999.15  29.89
1742.2  440671.60  130914.15  29.71
1745.8  438976.00  129492.42  29.50
1749.4  436603.27  127830.42  29.28
1753.0  432886.00  125789.57  29.06
1756.6  429145.50  123832.64  28.86
1760.1  425896.80  122106.76  28.67
1763.7  422167.93  120310.14  28.50
1767.3  419109.27  118755.93  28.34
1770.9  416492.38  117328.91  28.17
1774.5  413432.56  115848.22  28.02
1778.0  411295.28  114750.39  27.90
1781.6  408986.36  113846.16  27.84
1785.2  406349.67  112990.47  27.81
1788.8  403606.88  112258.61  27.81
1792.3  401330.14  111689.79  27.83
1795.9  400814.87  111638.25  27.85
1799.5  401021.12  111775.17  27.87
1803.1  401822.46  112076.85  27.89
1806.6  403070.00  112425.55  27.89
1810.2  404806.50  112880.54  27.89
1813.8  404649.73  112816.95  27.88
1817.3  404396.58  112708.52  27.87
1820.9  403562.50  112441.72  27.86
1824.5  402517.75  112078.21  27.84
1828.0  402908.21  112006.78  27.80
1831.6  403460.44  111883.20  27.73
1835.2  402711.67  111242.01  27.62
1838.7  402988.25  110599.63  27.44
1842.3  401252.25  109234.67  27.22
1845.8  399894.37  107597.03  26.91
1849.4  399372.87  105812.20  26.49
1852.9  397742.71  103233.50  25.95
1856.5  396286.69  100073.21  25.25
1860.0  396090.97  96518.95  24.37
1863.6  395269.90  92084.51  23.30
1867.1  394771.19  86926.00  22.02
1870.7  395137.53  80835.12  20.46
1874.2  394155.16  73455.11  18.64
1877.8  391108.45  65291.34  16.69
1881.3  388119.65  56970.75  14.68
1884.9  385780.68  49101.09  12.73
1888.4  383635.03  41752.77  10.88
1891.9  381898.94  35504.41  9.30
1895.5  380155.88  30495.25  8.02
1899.0  378934.10  26811.46  7.08
1901.3  399250.93  18512.80  4.64
1904.1  399313.25  16592.16  4.16
1906.8  397669.95  15050.10  3.78
1909.6  394199.73  13818.60  3.51
1912.4  390582.45  12932.52  3.31
1915.1  386776.87  12249.02  3.17
1917.9  382999.40  11708.03  3.06
1920.6  380073.33  11388.72  3.00
1923.3  377583.27  11178.91  2.96
1926.1  374309.85  11077.65  2.96
1928.8  370650.80  10973.73  2.96
1931.6  369440.32  11013.73  2.98
1934.3  365572.98  11056.14  3.02
1937.0  361636.80  11129.60  3.08
1939.8  358357.17  11251.47  3.14
1942.5  353916.10  11394.36  3.22
1945.2  350412.50  11576.06  3.30
1947.9  347703.63  11808.05  3.40
1950.7  343612.78  12021.09  3.50
1953.4  340216.70  12294.60  3.61
1956.1  337622.77  12617.41  3.74
1958.8  335512.92  12964.39  3.86
1961.5  332654.35  13329.52  4.01
1964.2  329426.40  13708.49  4.16
1966.9  326491.20  14121.69  4.33
1969.6  323851.13  14536.89  4.49
1972.3  321351.90  14984.78  4.66
1975.0  318866.00  15451.78  4.85
1977.7  316672.00  15964.17  5.04
1980.4  314488.53  16481.42  5.24
1983.1  312139.60  16986.91  5.44
1985.8  310039.20  17537.20  5.66
1988.4  308058.30  18091.15  5.87
1991.1  306286.40  18662.47  6.09
1993.8  304824.80  19257.93  6.32
1996.5  303302.30  19860.17  6.55
1999.1  301925.98  20465.65  6.78
2001.8  300694.93  21103.54  7.02
2004.5  299490.25  21704.27  7.25
2007.1  298035.60  22260.91  7.47
2009.8  296102.92  22778.19  7.69
2012.4  294804.15  23345.71  7.92
2015.1  293667.87  23893.38  8.14
2017.8  292542.97  24422.96  8.35
2020.4  291432.95  24969.45  8.57
2023.1  290987.88  25502.22  8.76
2025.7  290736.23  26052.60  8.96
2028.3  289911.57  26540.52  9.15
2031.0  289339.15  27019.33  9.34
2033.6  289047.50  27500.67  9.51
2036.2  288677.43  27938.09  9.68
2038.9  287705.60  28294.93  9.83
2041.5  286770.83  28638.89  9.99
2044.1  286000.00  28965.28  10.13
2046.8  284855.27  29233.54  10.26
2049.4  284016.20  29533.29  10.40
2052.0  283820.57  29880.26  10.53
2054.6  283473.07  30202.58  10.65
2057.2  282406.80  30466.37  10.79
2059.8  280917.00  30702.00  10.93
2062.4  279542.68  30950.55  11.07
2065.0  278196.80  31175.05  11.21
2067.6  276356.97  31367.71  11.35
2070.2  274884.63  31564.02  11.48
2072.8  273977.92  31828.81  11.62
2075.4  272944.17  32074.55  11.75
2078.0  272341.73  32344.49  11.88
2080.6  271100.27  32548.56  12.01
2083.2  269805.05  32721.08  12.13
2085.8  268518.95  32879.00  12.24
2088.4  267409.13  33085.46  12.37
2090.9  265761.50  33181.67  12.49
2093.5  263904.80  33241.33  12.60
2096.1  262140.45  33311.85  12.71
2098.7  260678.77  33406.59  12.82
2101.2  258790.20  33455.33  12.93
2103.8  257321.25  33538.50  13.03
2106.4  255871.13  33621.76  13.14
2108.9  254835.30  33750.32  13.24
2111.5  253906.33  33885.83  13.35
2114.0  253326.67  34060.00  13.45
2116.6  251184.63  33964.33  13.52
2119.1  250092.50  34061.77  13.62
2121.7  249546.22  34167.55  13.69
2124.2  249402.17  34358.39  13.78
2126.8  248276.45  34395.65  13.85
2129.3  247202.58  34425.90  13.93
2131.9  247384.27  34646.04  14.00
2134.4  246565.08  34710.01  14.08
2136.9  246295.57  34868.88  14.16
2139.4  245193.50  34880.33  14.23
2142.0  244798.53  34991.56  14.29
2144.5  244261.33  35102.03  14.37
2147.0  243823.15  35219.65  14.44
2149.5  243443.97  35326.28  14.51
2152.1  243814.13  35560.06  14.58
2154.6  243878.40  35697.07  14.64
2157.1  243784.43  35821.10  14.69
2159.6  242709.57  35813.31  14.76
2162.1  242558.43  35931.11  14.81
2164.6  241892.43  35956.98  14.86
2167.1  240918.20  35954.18  14.92
2169.6  241048.48  36114.00  14.98
2172.1  240266.70  36144.77  15.04
2174.6  239900.73  36226.24  15.10
2177.1  238882.58  36197.25  15.15
2179.5  238383.30  36285.38  15.22
2182.0  238062.50  36413.39  15.30
2184.5  237128.45  36448.57  15.37
2187.0  236323.53  36506.07  15.45
2189.5  235343.00  36533.96  15.52
2191.9  234112.45  36519.63  15.60
2194.4  232476.75  36444.17  15.68
2196.9  231388.67  36432.67  15.75
2199.3  229963.60  36348.37  15.81
2201.8  228790.57  36293.25  15.86
2204.3  228099.90  36311.53  15.92
2206.7  226888.10  36254.13  15.98
2209.2  225701.55  36134.55  16.01
2211.6  223771.03  35918.13  16.05
2214.1  223110.88  35898.29  16.09
2216.5  222766.05  35898.58  16.11
2219.0  221413.87  35715.66  16.13
2221.4  221458.80  35773.15  16.15
2223.9  220360.40  35589.38  16.15
2226.3  219072.28  35351.58  16.14
2228.7  218130.47  35132.64  16.11
2231.1  217456.13  34900.03  16.05
2233.6  216457.60  34571.20  15.97
2236.0  215419.92  34220.42  15.89
2238.4  214583.42  33840.43  15.77
2240.9  213857.00  33482.80  15.66
2243.3  213023.32  33044.13  15.51
2245.7  212196.37  32570.49  15.35
2248.1  211189.33  32050.49  15.18
2250.5  210421.20  31507.91  14.97
2252.9  209750.00  30968.42  14.76
2255.3  209044.57  30444.20  14.56
2257.7  208164.37  29908.51  14.37
2260.1  207263.20  29365.60  14.17
2262.5  206212.40  28807.07  13.97
2264.9  205288.67  28281.69  13.78
2267.3  204404.20  27799.20  13.60
2269.7  203466.63  27347.51  13.44
2272.1  202640.67  26939.94  13.29
2274.5  201893.47  26547.71  13.15
2276.8  201228.53  26179.38  13.01
2279.2  200470.60  25803.53  12.87
2281.6  199906.60  25444.80  12.73
2284.0  199554.30  25116.30  12.59
2286.3  199056.67  24794.78  12.46
2288.7  198485.60  24438.44  12.31
2291.1  197914.50  24084.83  12.17
2293.4  197216.80  23710.63  12.02
2295.8  196527.28  23340.78  11.88
2298.2  195750.20  22953.33  11.73
2300.5  194581.15  22539.17  11.58
2302.9  193180.65  22116.55  11.45
2305.2  191774.00  21708.28  11.32
2307.6  190304.80  21314.22  11.20
2309.9  189314.55  21056.29  11.12
2312.2  188432.33  20844.00  11.06
2314.6  187403.00  20595.99  10.99
2316.9  186313.90  20354.17  10.92
2319.2  185545.43  20182.25  10.88
2321.6  184956.58  19936.23  10.78
2323.9  184167.60  19694.87  10.69
2326.2  183311.68  19452.84  10.61
2328.6  182620.75  19249.37  10.54
2330.9  182332.93  19040.85  10.44
2333.2  181846.75  18846.08  10.36
2335.5  181315.77  18635.43  10.28
2337.8  180861.60  18437.00  10.19
2340.1  180297.27  18273.78  10.14
2342.4  179880.75  18091.35  10.06
2344.8  179142.35  17826.94  9.95
2347.1  178405.90  17568.30  9.85
2349.4  177761.73  17382.49  9.78
2351.6  177004.00  17176.00  9.70
2353.9  175987.40  16935.33  9.62
2356.2  175192.92  16725.60  9.55
2358.5  174339.43  16538.28  9.49
2360.8  173652.08  16347.92  9.41
2363.1  173278.25  16152.95  9.32
2365.4  172773.00  15997.50  9.26
2367.7  172266.40  15836.33  9.19
2369.9  171543.90  15647.86  9.12
2372.2  170358.95  15395.65  9.04
2374.5  169150.00  15130.00  8.94
2376.7  168176.20  14912.60  8.87
2379.0  166978.35  14657.13  8.78
2381.3  165627.00  14386.47  8.69
2383.5  164654.00  14142.33  8.59
2385.8  163990.75  13924.16  8.49
2388.0  163138.53  13670.49  8.38
2390.3  162367.15  13427.13  8.27
2392.5  161956.33  13167.94  8.13
2394.8  161117.17  12958.53  8.04
2397.0  160620.93  12723.25  7.92
2399.3  160034.25  12520.18  7.82
2401.5  159239.00  12325.00  7.74
2403.8  158605.67  12058.04  7.60
2406.0  158149.57  11858.24  7.50
2408.2  157334.10  11662.00  7.41
2410.4  156486.33  11382.39  7.27
2412.7  156011.60  11203.80  7.18
2414.9  155378.87  10990.69  7.07
2417.1  155333.53  10831.36  6.97
2419.3  154896.07  10608.56  6.85
2421.6  154083.30  10335.42  6.71
2423.8  153430.07  10089.63  6.58
2426.0  153061.00  9957.50  6.51
2428.2  152806.50  9817.50  6.42
2430.4  152794.15  9619.71  6.30
2432.6  152625.20  9404.30  6.16
2434.8  152021.65  9193.32  6.05
2437.0  151528.00  9022.43  5.95
2439.2  151074.73  8799.27  5.82
2441.4  150280.40  8624.53  5.74
2443.6  150108.20  8392.73  5.59
2445.7  150202.93  8229.11  5.48
2447.9  150075.90  8074.95  5.38
2450.1  149413.00  7879.03  5.27
2452.3  148561.60  7692.73  5.18
2454.5  147917.47  7471.95  5.05
2456.6  147216.58  7276.78  4.94
2458.8  146020.00  7092.40  4.86
2461.0  145857.83  7016.24  4.81
2463.1  145462.50  6824.17  4.69
2465.3  144752.00  6636.89  4.59
2467.5  144386.67  6531.78  4.52
2469.6  143989.83  6442.84  4.47
2471.8  143626.97  6336.11  4.41
2473.9  142834.25  6230.25  4.36
2476.1  142120.00  6077.50  4.28
2478.2  141258.52  5961.27  4.22
2480.4  140557.15  5906.43  4.20
2482.5  139591.72  5779.19  4.14
2484.6  138580.00  5658.00  4.08
2486.8  137752.30  5507.88  4.00
2488.9  137330.20  5416.87  3.94
2491.1  135946.67  5352.90  3.94
2493.2  134642.17  5219.36  3.88
2495.3  133089.95  5093.25  3.83
2497.4  131800.10  5017.62  3.81
2499.5  131000.07  4963.47  3.79
2501.7  130863.00  4856.83  3.71
2503.8  131168.80  4878.69  3.72
2505.9  131869.05  4831.07  3.66
2508.0  132764.08  4789.61  3.61
2510.1  133654.20  4819.10  3.61
2512.2  134364.25  4780.17  3.56
2514.3  135465.63  4881.64  3.60
2516.4  136843.63  5151.23  3.76
