/*** Spectra Vista SIG Data ***/
name= 47_20220926_ACRU_21_avg.sig
comm= Averaged Ref/Tar of files: HR.092722.0055_moc.sig,HR.092722.0056_moc.sig,HR.092722.0057_moc.sig
data=
337.3  3027.13  218.35  7.21
338.8  3126.50  218.05  6.97
340.3  3279.50  212.39  6.48
341.8  3520.83  207.29  5.89
343.2  3729.60  207.20  5.56
344.7  3881.15  204.72  5.27
346.2  4085.00  206.97  5.07
347.7  4247.10  204.49  4.81
349.2  4422.60  206.64  4.67
350.6  4700.80  210.56  4.48
352.1  4965.78  214.35  4.32
353.6  5274.40  222.08  4.21
355.1  5556.38  233.48  4.20
356.6  5833.95  244.72  4.19
358.0  6092.90  250.95  4.12
359.5  6365.40  251.32  3.95
361.0  6673.28  251.37  3.77
362.5  7026.00  273.23  3.89
364.0  7398.15  279.10  3.77
365.4  7755.60  292.24  3.77
366.9  8121.75  302.03  3.72
368.4  8482.53  312.75  3.69
369.9  8837.18  327.90  3.71
371.3  9238.20  345.32  3.74
372.8  9690.75  357.54  3.69
374.3  10131.88  369.08  3.64
375.8  10537.45  373.71  3.55
377.2  10948.30  380.19  3.47
378.7  11351.80  383.77  3.38
380.2  11755.30  401.71  3.42
381.7  12269.35  414.38  3.38
383.1  12720.40  427.61  3.36
384.6  13244.73  428.00  3.23
386.1  13701.68  432.40  3.16
387.6  14148.75  445.57  3.15
389.0  14632.80  460.96  3.15
390.5  15106.95  474.36  3.14
392.0  15658.40  500.79  3.20
393.4  16237.95  504.48  3.11
394.9  16782.30  515.04  3.07
396.4  17310.38  527.85  3.05
397.9  17860.63  543.25  3.04
399.3  18411.28  557.15  3.03
400.8  18943.00  578.26  3.05
402.2  19590.90  592.47  3.02
403.7  20198.93  613.11  3.04
405.2  20786.65  625.02  3.01
406.6  21367.20  643.41  3.01
408.1  21944.60  656.91  2.99
409.6  22542.65  681.91  3.02
411.0  23207.45  694.59  2.99
412.5  23886.28  713.60  2.99
414.0  24511.13  741.65  3.03
415.4  25221.38  771.15  3.06
416.9  25867.05  786.42  3.04
418.4  26555.85  809.25  3.05
419.8  27281.80  827.49  3.03
421.3  28003.08  855.60  3.06
422.7  28779.60  881.60  3.06
424.2  29531.25  911.25  3.09
425.7  30285.40  938.88  3.10
427.1  31048.65  962.16  3.10
428.6  31837.00  985.80  3.10
430.0  32595.90  1011.67  3.10
431.5  33461.85  1038.78  3.10
432.9  34324.95  1068.47  3.11
434.4  35210.85  1100.16  3.12
435.9  36050.00  1127.47  3.13
437.3  36891.25  1153.17  3.13
438.8  37738.50  1180.12  3.13
440.2  38619.35  1212.75  3.14
441.7  39583.60  1248.88  3.16
443.1  40478.75  1280.83  3.16
444.6  41435.30  1313.49  3.17
446.0  42376.35  1349.40  3.18
447.5  43337.53  1378.67  3.18
448.9  44272.80  1415.56  3.20
450.4  45286.15  1455.58  3.21
451.8  46163.00  1487.20  3.22
453.3  47083.08  1528.90  3.25
454.7  48088.75  1565.19  3.25
456.2  48958.95  1595.82  3.26
457.6  49914.00  1626.63  3.26
459.1  50888.18  1657.63  3.26
460.5  51828.13  1694.17  3.27
462.0  52909.80  1733.00  3.28
463.4  53950.60  1764.56  3.27
464.8  54917.25  1796.35  3.27
466.3  55889.63  1826.99  3.27
467.7  56834.85  1857.90  3.27
469.2  57904.55  1895.43  3.27
470.6  58911.65  1933.28  3.28
472.0  59959.50  1972.38  3.29
473.5  60977.63  2005.75  3.29
474.9  62001.75  2040.60  3.29
476.4  63129.60  2081.28  3.30
477.8  64191.50  2124.73  3.31
479.2  65192.00  2161.47  3.32
480.7  66295.50  2200.20  3.32
482.1  67423.70  2244.57  3.33
483.6  68594.15  2285.03  3.33
485.0  69682.65  2327.58  3.34
486.4  70873.05  2376.50  3.35
487.9  71940.38  2423.85  3.37
489.3  73094.90  2477.73  3.39
490.7  74140.38  2532.70  3.42
492.2  75337.50  2595.04  3.44
493.6  76443.70  2658.49  3.48
495.0  77556.38  2730.00  3.52
496.5  78731.38  2805.86  3.56
497.9  79832.00  2891.95  3.62
499.3  80991.33  2985.87  3.69
500.7  82245.10  3097.99  3.77
502.2  83409.80  3223.68  3.86
503.6  84665.40  3365.79  3.98
505.0  85746.45  3525.77  4.11
506.5  87039.53  3713.45  4.27
507.9  88193.93  3923.68  4.45
509.3  89525.20  4173.60  4.66
510.7  90748.13  4451.85  4.91
512.2  92133.38  4772.89  5.18
513.6  93590.70  5143.04  5.50
515.0  95023.00  5557.23  5.85
516.4  96418.35  6012.09  6.24
517.8  98041.63  6529.52  6.66
519.3  99383.58  7067.53  7.11
520.7  100949.25  7658.19  7.59
522.1  102227.13  8254.57  8.07
523.5  103555.00  8871.91  8.57
524.9  105029.55  9500.88  9.05
526.3  106477.00  10115.79  9.50
527.8  107959.50  10725.66  9.93
529.2  108948.80  11278.31  10.35
530.6  110484.70  11854.78  10.73
532.0  112182.00  12409.60  11.06
533.4  113473.43  12887.20  11.36
534.8  114343.35  13274.37  11.61
536.3  115919.40  13713.56  11.83
537.7  117910.80  14164.08  12.01
539.1  119367.63  14528.71  12.17
540.5  120536.15  14843.99  12.31
541.9  122283.38  15218.01  12.44
543.3  123551.55  15529.02  12.57
544.7  124864.20  15846.00  12.69
546.1  126652.08  16219.46  12.81
547.5  127892.80  16519.25  12.92
549.0  129514.00  16859.33  13.02
550.4  130995.63  17162.92  13.10
551.8  132572.90  17439.22  13.15
553.2  134048.58  17662.25  13.18
554.6  135376.80  17808.96  13.16
556.0  136878.75  17916.54  13.09
557.4  138499.55  17980.64  12.98
558.8  140128.65  17995.20  12.84
560.2  141587.63  17939.07  12.67
561.6  143239.50  17861.50  12.47
563.0  144816.88  17734.87  12.25
564.4  146402.35  17573.49  12.00
565.8  147900.00  17362.67  11.74
567.2  149640.00  17138.37  11.45
568.6  151108.13  16846.10  11.15
570.0  152519.58  16509.33  10.82
571.4  154224.85  16180.15  10.49
572.8  155994.75  15859.80  10.17
574.2  157595.20  15538.13  9.86
575.6  159142.50  15237.00  9.57
577.0  160652.10  14959.69  9.31
578.4  162355.38  14729.87  9.07
579.8  163863.00  14510.52  8.86
581.2  165568.80  14329.85  8.65
582.5  166982.40  14147.64  8.47
583.9  168492.20  13994.80  8.31
585.3  170265.15  13887.06  8.16
586.7  171753.08  13774.24  8.02
588.1  173205.63  13681.85  7.90
589.5  174856.50  13622.00  7.79
590.9  176464.40  13580.48  7.70
592.3  178247.65  13575.75  7.62
593.7  179706.15  13569.01  7.55
595.0  181307.03  13589.37  7.50
596.4  182750.40  13604.41  7.44
597.8  184213.68  13622.41  7.39
599.2  185737.20  13634.72  7.34
600.6  187482.75  13651.91  7.28
602.0  188782.35  13614.74  7.21
603.3  190553.65  13584.33  7.13
604.7  192202.13  13514.55  7.03
606.1  193683.00  13404.40  6.92
607.5  195312.05  13273.31  6.80
608.9  196995.05  13122.70  6.66
610.2  198364.95  12940.83  6.52
611.6  199948.35  12758.80  6.38
613.0  201505.25  12575.35  6.24
614.4  202856.10  12384.96  6.11
615.8  204296.63  12207.00  5.98
617.1  205829.40  12059.88  5.86
618.5  207451.60  11936.69  5.75
619.9  208950.00  11832.54  5.66
621.3  210552.53  11764.53  5.59
622.6  212142.75  11722.17  5.53
624.0  213596.25  11698.74  5.48
625.4  215045.33  11695.64  5.44
626.8  216611.85  11718.68  5.41
628.1  217885.53  11744.74  5.39
629.5  219617.25  11807.66  5.38
630.9  221060.95  11854.33  5.36
632.2  222304.60  11873.45  5.34
633.6  223806.63  11880.18  5.31
635.0  225216.80  11840.48  5.26
636.3  226716.50  11764.00  5.19
637.7  228064.25  11629.67  5.10
639.1  229687.50  11475.33  5.00
640.4  231153.65  11281.36  4.88
641.8  232348.88  11056.25  4.76
643.2  233892.40  10839.03  4.63
644.5  235242.50  10614.20  4.51
645.9  236787.30  10408.26  4.40
647.2  237827.10  10203.85  4.29
648.6  239355.00  10062.90  4.20
650.0  240688.80  9944.64  4.13
651.3  241648.28  9848.23  4.08
652.7  243776.80  9800.86  4.02
654.0  245854.40  9749.29  3.97
655.4  247177.08  9665.71  3.91
656.8  247271.10  9537.03  3.86
658.1  248655.80  9437.15  3.80
659.5  251034.00  9358.09  3.73
660.8  252517.50  9243.00  3.66
662.2  253523.20  9115.31  3.60
663.5  255057.25  9010.62  3.53
664.9  256050.60  8910.72  3.48
666.2  256831.80  8820.80  3.43
667.6  258523.50  8802.00  3.40
668.9  259465.48  8796.76  3.39
670.3  261295.25  8824.70  3.38
671.6  262314.00  8864.75  3.38
673.0  263508.75  8932.60  3.39
674.3  264780.10  9022.69  3.41
675.7  266069.98  9133.16  3.43
677.0  267119.20  9265.18  3.47
678.4  268396.65  9423.76  3.51
679.7  269453.85  9591.15  3.56
681.1  270705.73  9801.30  3.62
682.4  271785.80  10036.35  3.69
683.8  272935.00  10331.01  3.79
685.1  273907.50  10681.95  3.90
686.4  275191.20  11129.60  4.04
687.8  276367.25  11721.30  4.24
689.1  277435.25  12516.37  4.51
690.5  278771.55  13615.62  4.88
691.8  279544.05  15106.20  5.40
693.1  280860.00  17108.30  6.09
694.5  282009.00  19637.80  6.96
695.8  283214.75  22695.40  8.01
697.1  284375.00  26247.43  9.23
698.5  285429.80  30245.48  10.60
699.8  286475.95  34608.10  12.08
701.1  287609.70  39254.96  13.65
702.5  288391.95  43993.55  15.25
703.8  289305.00  48822.00  16.88
705.1  290448.60  53667.51  18.48
706.5  291456.75  58443.50  20.05
707.8  292405.05  63131.30  21.59
709.1  293216.55  67686.42  23.08
710.5  294310.48  72216.91  24.54
711.8  295118.20  76613.88  25.96
713.1  296099.40  80972.79  27.35
714.4  296991.40  85236.55  28.70
715.8  297794.20  89411.11  30.02
717.1  299087.70  93649.48  31.31
718.4  300003.20  97699.84  32.57
719.7  301097.58  101718.85  33.78
721.0  301590.00  105444.00  34.96
722.4  302327.85  109145.01  36.10
723.7  303260.85  112806.06  37.20
725.0  304265.03  116358.06  38.24
726.3  305215.90  119749.08  39.23
727.6  305718.05  122853.28  40.19
729.0  306598.95  125953.01  41.08
730.3  307360.73  128847.90  41.92
731.6  308219.10  131640.16  42.71
732.9  308975.63  134225.37  43.44
734.2  309765.50  136675.18  44.12
735.5  310765.25  139076.66  44.75
736.8  311512.80  141239.36  45.34
738.1  312349.10  143282.09  45.87
739.5  313308.00  145236.95  46.36
740.8  313989.78  146931.58  46.80
742.1  314667.28  148504.65  47.19
743.4  315250.00  149953.33  47.57
744.7  316097.30  151415.88  47.90
746.0  316925.70  152776.00  48.21
747.3  317505.48  153902.14  48.47
748.6  318192.75  154990.97  48.71
749.9  318812.00  155948.00  48.92
751.2  319369.95  156798.89  49.10
752.5  320102.15  157677.53  49.26
753.8  320592.13  158383.03  49.40
755.1  321230.00  159102.67  49.53
756.4  321752.33  159722.01  49.64
757.7  322730.28  160503.79  49.73
759.0  324481.93  161629.92  49.81
760.3  325617.60  162416.32  49.88
761.6  327126.80  163345.28  49.93
762.9  327580.50  163745.67  49.99
764.2  327937.90  164036.20  50.02
765.5  328137.55  164254.35  50.06
766.8  328494.40  164527.36  50.09
768.1  328937.00  164831.09  50.11
769.3  329505.05  165162.67  50.12
770.6  330089.50  165504.99  50.14
771.9  330718.15  165864.35  50.15
773.2  331030.40  166056.69  50.16
774.5  331588.40  166345.23  50.17
775.8  332178.90  166668.37  50.17
777.1  332688.95  166936.22  50.18
778.4  332943.88  167083.00  50.18
779.6  333603.68  167434.98  50.19
780.9  333990.00  167632.00  50.19
782.2  334383.50  167847.17  50.20
783.5  334615.50  167973.67  50.20
784.8  335098.58  168205.86  50.20
786.0  335360.90  168367.83  50.20
787.3  335649.40  168521.35  50.21
788.6  335976.53  168702.20  50.21
789.9  336361.20  168886.85  50.21
791.2  336955.80  169168.49  50.20
792.4  337532.10  169469.52  50.21
793.7  337907.80  169667.55  50.21
795.0  338452.95  169941.31  50.21
796.2  338998.63  170221.46  50.21
797.5  339610.50  170518.27  50.21
798.8  340203.05  170808.37  50.21
800.0  340767.60  171083.03  50.21
801.3  341145.00  171268.03  50.20
802.6  341627.63  171526.53  50.21
803.8  342158.70  171803.02  50.21
805.1  342575.63  171996.42  50.21
806.4  342976.20  172186.60  50.20
807.7  343427.85  172403.91  50.20
808.9  343928.50  172652.37  50.20
810.2  344361.85  172859.87  50.20
811.4  344739.70  173076.95  50.21
812.7  345312.50  173349.58  50.20
814.0  346071.50  173713.35  50.20
815.2  346692.00  174014.00  50.19
816.5  347035.48  174189.91  50.19
817.7  347470.65  174393.79  50.19
819.0  347904.15  174622.65  50.19
820.2  348040.00  174674.13  50.19
821.5  348671.85  175004.19  50.19
822.7  348979.70  175165.96  50.19
824.0  349253.10  175301.28  50.19
825.2  349685.10  175525.65  50.20
826.5  349976.83  175667.60  50.19
827.7  350486.45  175925.18  50.19
829.0  350868.73  176118.14  50.19
830.2  351193.90  176272.77  50.19
831.5  351651.80  176494.57  50.19
832.7  351942.68  176648.64  50.19
834.0  352298.98  176816.74  50.19
835.2  352652.85  176981.24  50.19
836.4  352910.25  177136.23  50.19
837.7  353329.80  177335.17  50.19
838.9  353746.73  177547.11  50.19
840.1  354078.00  177748.65  50.20
841.4  354543.90  177975.61  50.20
842.6  354949.80  178162.72  50.19
843.8  355291.80  178339.33  50.20
845.1  355743.90  178603.93  50.21
846.3  356212.70  178809.52  50.20
847.5  356630.40  179021.64  50.20
848.8  357018.60  179228.24  50.20
850.0  357418.25  179437.95  50.20
851.2  357921.45  179690.40  50.20
852.5  358343.90  179877.11  50.20
853.7  358809.75  180142.20  50.21
854.9  359385.70  180364.87  50.19
856.1  359856.25  180604.32  50.19
857.4  360082.93  180712.93  50.19
858.6  360618.45  180952.25  50.18
859.8  361027.50  181152.00  50.18
861.0  361459.80  181359.36  50.17
862.2  361913.90  181601.36  50.18
863.5  362357.13  181774.71  50.16
864.7  362854.80  182042.08  50.17
865.9  363330.00  182227.73  50.15
867.1  363631.60  182379.34  50.15
868.3  364070.40  182574.12  50.15
869.5  364557.35  182810.75  50.15
870.8  365058.00  183049.20  50.14
872.0  365592.60  183291.18  50.14
873.2  366132.75  183506.62  50.12
874.4  366522.98  183716.91  50.12
875.6  366965.00  183897.33  50.11
876.8  367441.40  184107.82  50.11
878.0  367914.90  184333.04  50.10
879.2  368453.70  184540.92  50.09
880.4  368953.50  184755.50  50.08
881.6  369423.60  184971.16  50.07
882.8  369877.60  185169.92  50.06
884.0  370367.85  185420.56  50.06
885.2  370883.30  185631.67  50.05
886.5  371481.85  185886.05  50.04
887.7  371983.30  186087.68  50.03
888.8  372584.55  186383.55  50.02
890.0  373128.20  186638.06  50.02
891.2  373675.60  186862.79  50.01
892.4  374208.45  187097.89  50.00
893.6  374801.50  187330.09  49.98
894.8  375653.25  187693.03  49.96
896.0  376554.50  188058.90  49.94
897.2  377308.75  188429.37  49.94
898.4  377998.50  188750.32  49.93
899.6  378312.75  188969.40  49.95
900.8  378686.60  189104.34  49.94
902.0  378923.85  189173.16  49.92
903.2  379294.88  189253.13  49.90
904.3  379514.70  189357.32  49.89
905.5  380035.00  189570.40  49.88
906.7  380565.50  189832.53  49.88
907.9  381031.35  190012.85  49.87
909.1  381270.38  190078.56  49.85
910.2  381446.93  190095.81  49.84
911.4  381721.28  190121.10  49.81
912.6  381667.00  190152.82  49.82
913.8  381874.28  190193.68  49.81
915.0  382222.05  190323.84  49.79
916.2  382278.00  190344.70  49.79
917.3  382213.13  190262.91  49.78
918.5  382363.90  190258.24  49.76
919.7  382547.40  190326.54  49.75
920.8  382579.90  190243.49  49.73
922.0  382555.25  190213.10  49.72
923.2  382609.50  190208.20  49.71
924.4  382883.63  190237.95  49.69
925.5  383019.00  190265.51  49.68
926.7  383415.88  190440.80  49.67
927.9  384202.20  190775.60  49.65
929.0  385533.00  191373.48  49.64
930.2  387708.30  192308.12  49.60
931.4  390110.85  193390.38  49.57
932.5  392627.40  194602.09  49.56
933.7  394010.73  195141.26  49.53
934.9  394489.38  195350.75  49.52
936.0  393900.00  195046.15  49.52
937.2  391620.15  193819.16  49.49
938.3  389960.95  192824.24  49.45
939.5  388314.00  191895.36  49.42
940.7  388494.00  191932.08  49.40
941.8  389969.78  192499.70  49.36
943.0  391123.50  193040.30  49.36
944.2  391784.25  193268.05  49.33
945.3  391248.00  192857.60  49.29
946.5  390312.00  192303.72  49.27
947.6  390362.90  192225.60  49.24
948.8  390184.28  192033.01  49.22
949.9  390259.80  191872.80  49.17
951.1  389620.08  191434.53  49.13
952.2  389436.00  191080.00  49.07
953.4  389008.25  190725.27  49.03
954.5  388767.60  190438.56  48.99
955.7  388773.00  190152.48  48.91
956.8  388515.70  189805.43  48.85
958.0  388068.00  189456.33  48.82
959.1  387569.83  189157.55  48.81
960.3  387047.93  188763.48  48.77
961.4  386538.40  188453.11  48.75
962.6  386716.75  188379.57  48.71
963.7  386386.88  188115.21  48.69
964.9  386327.48  187934.05  48.65
966.0  386019.68  187772.04  48.64
967.2  386187.30  187616.94  48.58
968.3  385588.35  187448.58  48.61
969.5  385254.35  187315.25  48.62
970.6  385159.15  187170.79  48.60
971.8  385060.55  187200.51  48.62
972.9  384973.43  187043.59  48.59
974.0  385213.80  187153.51  48.58
975.2  385130.13  186981.98  48.55
976.3  385055.85  186863.23  48.53
977.5  384603.98  186818.45  48.57
978.6  384096.00  186766.68  48.63
979.7  383951.40  186879.00  48.67
980.9  384188.10  186803.20  48.62
982.0  383480.05  186604.56  48.66
983.2  382682.83  186181.07  48.65
984.3  382291.40  185907.09  48.63
985.4  382438.08  185915.43  48.61
986.6  381371.63  185793.28  48.72
987.7  382203.85  186014.57  48.67
988.9  381927.60  185954.16  48.69
990.0  382770.20  186000.12  48.59
993.1  384251.41  184970.39  48.14
996.9  382881.98  184731.32  48.25
1000.7  382827.14  185040.18  48.34
1004.5  382814.00  185336.07  48.41
1008.4  382309.42  185424.44  48.50
1012.2  381944.67  185602.76  48.59
1016.0  381454.20  185680.71  48.68
1019.8  380682.23  185625.83  48.76
1023.7  379492.55  185263.74  48.82
1027.5  377743.85  184630.00  48.88
1031.3  376785.53  184246.79  48.90
1035.1  375795.29  183837.01  48.92
1038.9  375389.85  183670.20  48.93
1042.7  375060.83  183557.06  48.94
1046.5  374934.67  183501.64  48.94
1050.3  374886.15  183486.53  48.94
1054.2  374462.67  183335.83  48.96
1058.0  374060.63  183109.80  48.95
1061.8  373966.09  183060.56  48.95
1065.6  373464.50  182731.38  48.93
1069.4  372651.60  182296.61  48.92
1073.2  371351.99  181610.69  48.91
1077.0  370568.55  181179.43  48.89
1080.8  370626.04  181098.96  48.86
1084.6  370607.42  180950.35  48.83
1088.4  370806.13  180955.61  48.80
1092.2  370334.25  180556.07  48.75
1096.0  369697.77  180077.63  48.71
1099.8  369011.72  179565.13  48.66
1103.6  368110.98  178930.44  48.61
1107.4  366992.93  178180.74  48.55
1111.2  366664.90  177826.09  48.50
1114.9  366094.75  177319.25  48.44
1118.7  365795.10  176888.60  48.36
1122.5  365413.53  176352.80  48.26
1126.3  364526.05  175510.85  48.15
1130.1  364099.43  174773.16  48.00
1133.9  362470.50  173241.40  47.79
1137.7  360930.80  171595.23  47.54
1141.4  358860.78  169569.91  47.25
1145.2  357933.23  167955.27  46.92
1149.0  356628.13  166267.08  46.62
1152.8  354821.15  164446.42  46.35
1156.6  353021.90  162835.38  46.13
1160.3  351251.67  161427.33  45.96
1164.1  348960.00  159929.62  45.83
1167.9  347300.00  158877.98  45.75
1171.7  345964.50  158051.25  45.68
1175.4  344516.87  157210.88  45.63
1179.2  343082.55  156391.99  45.58
1183.0  342717.00  156020.81  45.52
1186.7  342635.77  155812.70  45.47
1190.5  342275.93  155461.22  45.42
1194.3  341354.00  154886.00  45.37
1198.0  339887.08  154117.66  45.34
1201.8  338167.83  153308.37  45.33
1205.6  337077.00  152852.52  45.35
1209.3  336502.73  152695.02  45.38
1213.1  336070.88  152582.71  45.40
1216.8  335467.83  152474.47  45.45
1220.6  334385.33  152146.13  45.50
1224.3  333182.50  151749.67  45.55
1228.1  331701.20  151272.89  45.61
1231.9  330140.83  150697.02  45.65
1235.6  328420.95  150032.56  45.68
1239.4  326850.13  149452.32  45.73
1243.1  325495.72  148906.81  45.75
1246.9  324211.88  148371.23  45.76
1250.6  323140.73  147911.57  45.77
1254.3  321952.95  147396.86  45.78
1258.1  320711.42  146832.40  45.78
1261.8  319255.73  146171.05  45.78
1265.6  318029.13  145572.29  45.77
1269.3  317191.43  145105.28  45.75
1273.1  317534.73  145125.99  45.70
1276.8  317323.60  144886.97  45.66
1280.6  316187.63  144244.11  45.62
1284.3  314174.80  143167.32  45.57
1288.0  312895.71  142372.13  45.50
1291.8  312392.22  141854.72  45.41
1295.5  311663.73  141194.32  45.30
1299.2  310546.58  140316.05  45.18
1302.9  308951.35  139161.67  45.04
1306.7  307198.97  137883.32  44.88
1310.4  305485.62  136533.24  44.69
1314.1  303937.70  135187.04  44.48
1317.9  302524.17  133826.82  44.24
1321.6  300977.30  132332.44  43.97
1325.3  299308.28  130695.75  43.67
1329.0  297994.43  129176.92  43.35
1332.8  296065.00  127289.80  42.99
1336.5  294448.20  125518.17  42.63
1340.2  294324.33  124392.67  42.26
1343.9  294311.67  123313.51  41.90
1347.6  294569.70  122326.48  41.53
1351.4  296096.50  121929.64  41.18
1355.1  298194.97  121763.71  40.83
1358.8  299936.00  121387.43  40.47
1362.5  300224.18  120291.16  40.07
1366.2  298225.90  118088.80  39.60
1369.9  295036.88  115157.25  39.03
1373.6  292201.23  111968.17  38.32
1377.3  290715.60  108715.12  37.40
1381.0  290207.83  105094.88  36.21
1384.8  288275.00  100132.50  34.74
1388.4  285046.77  94187.50  33.04
1392.2  282793.25  88164.24  31.18
1395.9  281286.83  82217.41  29.23
1399.6  279489.30  76394.75  27.33
1403.3  278040.03  71148.88  25.59
1407.0  276335.70  66485.01  24.06
1410.7  274516.28  62549.97  22.79
1414.3  272652.10  59341.57  21.76
1418.1  270968.33  56856.60  20.98
1421.7  269568.43  54956.05  20.39
1425.4  268213.73  53493.05  19.94
1429.1  266956.13  52404.59  19.63
1432.8  265269.87  51523.27  19.42
1436.5  264436.38  50999.11  19.29
1440.2  263808.30  50691.74  19.22
1443.9  262707.68  50405.46  19.19
1447.6  261184.00  50142.40  19.20
1451.2  259961.53  50008.49  19.24
1454.9  258519.60  49904.10  19.30
1458.6  257282.73  49977.13  19.42
1462.3  256107.87  50204.89  19.60
1466.0  254753.60  50564.81  19.85
1469.7  253035.58  51038.37  20.17
1473.3  251959.00  51776.81  20.55
1477.0  249925.83  52421.67  20.97
1480.7  248279.15  53200.57  21.43
1484.4  246289.03  53914.49  21.89
1488.0  244713.33  54761.14  22.38
1491.7  243111.76  55579.66  22.86
1495.4  241420.84  56376.11  23.35
1499.0  239873.50  57169.36  23.83
1502.7  238595.83  58025.02  24.32
1506.4  237185.31  58805.58  24.79
1510.0  235742.63  59547.78  25.26
1513.7  234226.13  60231.21  25.71
1517.4  232888.00  60916.67  26.16
1521.0  231647.87  61599.39  26.59
1524.7  230417.42  62212.12  27.00
1528.3  229121.63  62785.63  27.40
1532.0  227899.47  63331.40  27.79
1535.7  226509.29  63773.70  28.16
1539.3  225244.93  64216.13  28.51
1543.0  224259.41  64718.50  28.86
1546.6  223572.92  65260.16  29.19
1550.3  222580.10  65667.69  29.50
1553.9  221516.17  66018.82  29.80
1557.6  220272.07  66276.88  30.09
1561.2  219001.05  66473.74  30.35
1564.9  217700.56  66636.81  30.61
1568.5  216385.63  66764.95  30.85
1572.2  215246.00  66918.14  31.09
1575.8  214144.00  67062.00  31.32
1579.5  213123.80  67208.12  31.53
1583.1  212060.36  67324.28  31.75
1586.8  210770.00  67326.00  31.94
1590.4  209559.77  67339.95  32.13
1594.0  208220.13  67302.97  32.32
1597.7  207363.05  67410.32  32.51
1601.3  206430.53  67475.03  32.69
1604.9  205470.59  67487.01  32.85
1608.6  204156.67  67347.73  32.99
1612.2  202843.58  67187.76  33.12
1615.8  201449.63  66982.17  33.25
1619.5  200219.08  66815.90  33.37
1623.1  198927.23  66599.06  33.48
1626.7  197718.30  66383.24  33.57
1630.3  196517.25  66151.88  33.66
1634.0  195426.00  65918.00  33.73
1637.6  194443.53  65681.29  33.78
1641.2  193426.35  65380.67  33.80
1644.8  192197.83  64956.78  33.80
1648.5  191097.09  64561.98  33.78
1652.1  190166.70  64197.30  33.76
1655.7  189229.20  63855.37  33.74
1659.3  188404.94  63589.12  33.75
1662.9  187014.17  63146.91  33.77
1666.6  185567.47  62687.09  33.78
1670.2  184164.17  62198.09  33.77
1673.8  182703.18  61627.29  33.73
1677.4  181540.05  61105.46  33.66
1681.0  180708.93  60623.04  33.55
1684.6  180308.92  60222.34  33.40
1688.2  179605.95  59615.97  33.19
1691.8  178948.65  59069.74  33.01
1695.4  178508.20  58585.15  32.82
1699.0  178130.17  58141.13  32.64
1702.6  177790.67  57677.33  32.44
1706.2  177164.87  57065.24  32.21
1709.8  176217.22  56353.45  31.98
1713.4  175460.69  55774.62  31.79
1717.0  174581.00  55247.18  31.65
1720.6  173739.23  54796.25  31.54
1724.2  173010.60  54403.76  31.45
1727.8  172292.40  54048.85  31.37
1731.4  171820.00  53786.66  31.30
1735.0  171659.22  53625.71  31.24
1738.6  171464.10  53390.79  31.14
1742.2  170932.85  52985.33  31.00
1745.8  170323.37  52508.28  30.83
1749.4  169399.73  51902.16  30.64
1753.0  167930.87  51122.42  30.44
1756.6  166300.75  50330.13  30.26
1760.1  164962.14  49653.25  30.10
1763.7  163223.33  48882.67  29.95
1767.3  161780.68  48232.65  29.81
1770.9  160541.15  47636.58  29.67
1774.5  159071.55  47001.66  29.55
1778.0  157932.57  46512.54  29.45
1781.6  156847.95  46112.27  29.40
1785.2  155689.05  45740.39  29.38
1788.8  154533.40  45407.86  29.38
1792.3  153293.03  45066.73  29.40
1795.9  152763.33  44936.90  29.42
1799.5  152530.67  44902.91  29.44
1803.1  153537.42  45213.35  29.45
1806.6  155763.42  45835.95  29.43
1810.2  157634.17  46357.97  29.41
1813.8  158507.90  46604.25  29.40
1817.3  158012.80  46459.72  29.40
1820.9  156770.40  46095.72  29.40
1824.5  155370.23  45665.37  29.39
1828.0  154249.79  45286.61  29.36
1831.6  153748.03  45064.99  29.31
1835.2  153481.67  44841.55  29.22
1838.7  153239.47  44544.67  29.07
1842.3  152985.00  44170.71  28.87
1845.8  151785.08  43408.67  28.60
1849.4  151159.80  42666.79  28.23
1852.9  150305.63  41697.87  27.74
1856.5  149240.33  40482.77  27.13
1860.0  148212.78  39030.49  26.33
1863.6  148160.76  37581.64  25.37
1867.1  148776.25  35990.50  24.19
1870.7  149605.93  34029.24  22.75
1874.2  148577.85  31267.48  21.04
1877.8  145960.53  28011.30  19.19
1881.3  143040.00  24616.93  17.21
1884.9  141174.83  21496.88  15.23
1888.4  139596.90  18567.57  13.30
1891.9  137958.40  15979.82  11.58
1895.5  136485.62  13859.52  10.15
1899.0  135718.00  12284.70  9.05
1901.3  178251.33  11707.50  6.57
1904.1  178116.75  10610.25  5.96
1906.8  176983.20  9700.80  5.48
1909.6  174670.65  8937.72  5.12
1912.4  172517.57  8371.11  4.85
1915.1  170919.65  7956.85  4.66
1917.9  169236.33  7640.06  4.51
1920.6  167763.53  7417.76  4.42
1923.3  166246.50  7228.59  4.35
1926.1  164337.30  7093.21  4.32
1928.8  162550.67  7000.89  4.31
1931.6  161102.33  6958.99  4.32
1934.3  159798.87  6963.39  4.36
1937.0  158544.00  7001.55  4.42
1939.8  157174.25  7058.11  4.49
1942.5  155496.00  7128.00  4.58
1945.2  153437.35  7193.08  4.69
1947.9  151754.17  7294.23  4.81
1950.7  150435.97  7425.92  4.94
1953.4  148550.25  7547.68  5.08
1956.1  147088.33  7696.56  5.23
1958.8  145815.15  7866.37  5.39
1961.5  144265.20  8034.67  5.57
1964.2  142688.00  8211.23  5.75
1966.9  141089.50  8389.35  5.95
1969.6  139824.00  8598.00  6.15
1972.3  138403.90  8805.07  6.36
1975.0  137307.75  9035.85  6.58
1977.7  136182.23  9269.26  6.81
1980.4  135024.20  9511.83  7.04
1983.1  133896.72  9748.14  7.28
1985.8  132962.10  10005.00  7.52
1988.4  131906.67  10255.56  7.77
1991.1  130976.30  10503.89  8.02
1993.8  130103.05  10765.09  8.27
1996.5  129465.42  11043.69  8.53
1999.1  128758.85  11319.43  8.79
2001.8  128075.50  11594.57  9.05
2004.5  127388.55  11856.27  9.31
2007.1  126644.65  12112.88  9.56
2009.8  125891.27  12357.18  9.82
2012.4  125312.18  12600.44  10.06
2015.1  124751.67  12846.40  10.30
2017.8  123966.03  13067.99  10.54
2020.4  123450.98  13307.01  10.78
2023.1  123094.07  13542.82  11.00
2025.7  122876.00  13785.78  11.22
2028.3  122538.00  14002.44  11.43
2031.0  122122.40  14203.04  11.63
2033.6  121834.80  14410.10  11.83
2036.2  121591.20  14604.40  12.01
2038.9  120982.20  14737.80  12.18
2041.5  120621.23  14896.78  12.35
2044.1  120051.30  15027.80  12.52
2046.8  119677.20  15155.40  12.66
2049.4  119033.40  15254.00  12.81
2052.0  118738.40  15391.04  12.96
2054.6  118335.00  15513.75  13.11
2057.2  117769.00  15621.02  13.26
2059.8  117437.13  15752.02  13.41
2062.4  116550.55  15812.03  13.57
2065.0  116031.07  15920.86  13.72
2067.6  115129.73  15983.46  13.88
2070.2  114519.57  16082.25  14.04
2072.8  113883.25  16169.42  14.20
2075.4  113443.75  16277.92  14.35
2078.0  112795.57  16351.64  14.50
2080.6  112217.60  16426.67  14.64
2083.2  111529.53  16487.18  14.78
2085.8  111030.12  16568.30  14.92
2088.4  110363.67  16621.39  15.06
2090.9  109547.08  16639.99  15.19
2093.5  108662.83  16642.06  15.32
2096.1  107894.47  16659.06  15.44
2098.7  107112.75  16667.84  15.56
2101.2  106136.20  16645.73  15.68
2103.8  105455.00  16671.93  15.81
2106.4  104782.53  16686.49  15.92
2108.9  104118.80  16698.13  16.04
2111.5  103262.93  16666.11  16.14
2114.0  102625.40  16671.93  16.25
2116.6  102095.00  16683.33  16.34
2119.1  101544.30  16682.97  16.43
2121.7  101045.00  16689.17  16.52
2124.2  100632.57  16706.34  16.60
2126.8  99822.58  16656.13  16.69
2129.3  99413.60  16658.40  16.76
2131.9  98824.00  16634.93  16.83
2134.4  98385.45  16638.00  16.91
2136.9  97983.17  16647.37  16.99
2139.4  97444.67  16633.87  17.07
2142.0  96992.47  16627.96  17.14
2144.5  96707.40  16637.07  17.20
2147.0  96471.07  16660.67  17.27
2149.5  95961.87  16630.89  17.33
2152.1  95807.25  16652.11  17.38
2154.6  95744.00  16685.69  17.43
2157.1  95211.50  16631.58  17.47
2159.6  94811.83  16589.20  17.50
2162.1  94658.20  16592.33  17.53
2164.6  94402.13  16589.18  17.57
2167.1  94064.88  16551.43  17.60
2169.6  93742.72  16528.56  17.63
2172.1  93275.13  16487.66  17.68
2174.6  92963.20  16473.05  17.72
2177.1  92517.70  16434.59  17.76
2179.5  92104.57  16400.44  17.81
2182.0  91620.65  16365.62  17.86
2184.5  91074.63  16320.75  17.92
2187.0  90456.23  16256.78  17.97
2189.5  89769.23  16184.89  18.03
2191.9  88977.00  16099.33  18.09
2194.4  88318.40  16031.27  18.15
2196.9  87552.00  15939.20  18.21
2199.3  86893.67  15853.34  18.24
2201.8  85994.00  15738.80  18.30
2204.3  85522.80  15677.22  18.33
2206.7  84867.60  15595.83  18.38
2209.2  84383.90  15539.90  18.42
2211.6  83754.00  15457.20  18.46
2214.1  83470.55  15429.13  18.48
2216.5  82883.73  15337.07  18.50
2219.0  82536.07  15290.71  18.53
2221.4  82149.67  15228.69  18.54
2223.9  81653.83  15136.14  18.54
2226.3  81138.17  15017.14  18.51
2228.7  80588.70  14884.30  18.47
2231.1  79992.00  14724.60  18.41
2233.6  79387.20  14549.02  18.33
2236.0  78817.67  14365.94  18.23
2238.4  78302.00  14180.84  18.11
2240.9  77837.60  13996.07  17.98
2243.3  77301.20  13780.85  17.83
2245.7  76704.55  13555.22  17.67
2248.1  76215.10  13345.36  17.51
2250.5  75693.63  13118.10  17.33
2252.9  75068.93  12876.93  17.15
2255.3  74505.60  12656.40  16.99
2257.7  74030.00  12443.33  16.81
2260.1  73514.23  12230.63  16.64
2262.5  72890.00  11996.67  16.46
2264.9  72369.18  11786.99  16.29
2267.3  71750.00  11576.67  16.13
2269.7  71246.70  11384.49  15.98
2272.1  70687.62  11195.29  15.84
2274.5  70122.93  11008.29  15.70
2276.8  69635.87  10848.05  15.58
2279.2  69023.40  10663.05  15.45
2281.6  68594.27  10509.60  15.32
2284.0  68124.50  10345.77  15.19
2286.3  67640.00  10187.38  15.06
2288.7  67220.18  10027.19  14.92
2291.1  66680.40  9834.23  14.75
2293.4  66220.00  9664.35  14.59
2295.8  65600.70  9479.43  14.45
2298.2  64977.30  9301.20  14.31
2300.5  64325.25  9104.55  14.15
2302.9  63550.00  8900.45  14.01
2305.2  62788.80  8717.23  13.88
2307.6  62106.33  8552.52  13.77
2309.9  61328.33  8380.33  13.66
2312.2  60718.67  8256.33  13.60
2314.6  60123.15  8145.45  13.55
2316.9  59429.70  8014.35  13.49
2319.2  58841.20  7895.94  13.42
2321.6  58208.97  7763.27  13.34
2323.9  57645.83  7635.42  13.25
2326.2  57101.63  7512.00  13.16
2328.6  56576.30  7395.12  13.07
2330.9  56070.00  7273.00  12.97
2333.2  55594.25  7171.97  12.90
2335.5  55137.10  7062.00  12.81
2337.8  54682.28  6958.85  12.73
2340.1  54110.77  6843.82  12.65
2342.4  53646.67  6738.33  12.56
2344.8  53207.83  6630.06  12.46
2347.1  52618.07  6510.54  12.37
2349.4  52075.78  6400.68  12.29
2351.6  51491.90  6290.52  12.22
2353.9  50996.07  6189.70  12.14
2356.2  50458.55  6095.64  12.08
2358.5  49884.80  5992.00  12.01
2360.8  49291.20  5883.73  11.94
2363.1  48848.58  5795.28  11.86
2365.4  48364.00  5710.27  11.81
2367.7  47880.00  5608.80  11.71
2369.9  47334.30  5507.45  11.64
2372.2  46703.73  5393.16  11.55
2374.5  46096.05  5286.05  11.47
2376.7  45479.25  5169.42  11.37
2379.0  44846.50  5052.74  11.27
2381.3  44228.33  4935.00  11.16
2383.5  43706.67  4830.22  11.05
2385.8  43077.77  4718.44  10.95
2388.0  42550.80  4609.87  10.83
2390.3  42043.60  4505.38  10.72
2392.5  41544.00  4400.00  10.59
2394.8  41067.40  4307.60  10.49
2397.0  40573.87  4206.22  10.37
2399.3  40119.72  4117.96  10.26
2401.5  39677.75  4022.08  10.14
2403.8  39142.37  3904.38  9.97
2406.0  38615.83  3807.78  9.86
2408.2  38210.33  3740.00  9.79
2410.4  37787.05  3653.46  9.67
2412.7  37373.27  3568.93  9.55
2414.9  37001.25  3487.18  9.42
2417.1  36588.70  3407.83  9.31
2419.3  36160.00  3315.20  9.17
2421.6  35779.17  3242.08  9.06
2423.8  35399.00  3168.19  8.95
2426.0  35016.05  3090.03  8.82
2428.2  34665.87  3009.69  8.68
2430.4  34353.73  2942.21  8.56
2432.6  34093.33  2866.67  8.41
2434.8  33790.93  2802.54  8.29
2437.0  33408.70  2718.01  8.14
2439.2  33034.73  2644.76  8.01
2441.4  32706.37  2576.70  7.88
2443.6  32469.17  2519.24  7.76
2445.7  32195.45  2457.35  7.63
2447.9  31938.75  2389.03  7.48
2450.1  31626.55  2327.62  7.36
2452.3  31254.30  2277.49  7.29
2454.5  30891.30  2207.87  7.15
2456.6  30516.40  2140.00  7.01
2458.8  30144.40  2078.27  6.89
2461.0  29828.08  2023.14  6.78
2463.1  29536.50  1973.95  6.68
2465.3  29252.03  1931.60  6.60
2467.5  28998.50  1892.92  6.53
2469.6  28744.42  1849.67  6.43
2471.8  28441.57  1812.01  6.37
2473.9  28145.50  1764.75  6.27
2476.1  27770.17  1713.83  6.17
2478.2  27435.23  1660.43  6.05
2480.4  27123.45  1627.10  6.00
2482.5  26786.17  1610.26  6.01
2484.6  26444.92  1563.53  5.91
2486.8  26156.20  1533.37  5.86
2488.9  25853.10  1499.42  5.80
2491.1  25529.47  1465.02  5.74
2493.2  25115.57  1426.35  5.68
2495.3  24691.33  1384.21  5.61
2497.4  24375.40  1352.40  5.55
2499.5  24048.43  1337.82  5.56
2501.7  23910.50  1314.67  5.50
2503.8  23821.25  1298.33  5.45
2505.9  23762.92  1281.25  5.39
2508.0  23770.12  1272.88  5.35
2510.1  23766.95  1269.72  5.34
2512.2  23891.70  1278.38  5.35
2514.3  24089.85  1271.88  5.28
2516.4  24329.50  1319.90  5.43
