/*** Spectra Vista SIG Data ***/
name= 26_20220824_QURU_56_avg.sig
comm= Averaged Ref/Tar of files: HR.082422.0076_moc.sig,HR.082422.0077_moc.sig,HR.082422.0078_moc.sig
data=
337.3  3473.75  284.52  8.19
338.8  3607.50  282.19  7.82
340.3  3794.85  281.10  7.41
341.8  3932.35  268.25  6.82
343.2  4129.20  266.40  6.45
344.7  4307.65  250.21  5.81
346.2  4493.50  239.65  5.33
347.7  4719.00  241.19  5.11
349.2  4876.20  257.04  5.27
350.6  5141.50  244.83  4.76
352.1  5430.20  242.93  4.47
353.6  5725.50  235.96  4.12
355.1  6027.83  233.48  3.87
356.6  6325.58  249.09  3.94
358.0  6635.20  246.69  3.72
359.5  6921.60  251.32  3.63
361.0  7241.85  247.38  3.42
362.5  7611.50  253.72  3.33
364.0  8000.33  263.81  3.30
365.4  8373.80  266.01  3.18
366.9  8757.13  272.57  3.11
368.4  9109.85  280.02  3.07
369.9  9485.78  291.87  3.08
371.3  9932.40  306.16  3.08
372.8  10354.50  318.60  3.08
374.3  10803.75  322.50  2.99
375.8  11211.20  326.99  2.92
377.2  11647.70  329.97  2.83
378.7  12078.10  333.56  2.76
380.2  12508.50  337.15  2.70
381.7  13053.08  342.32  2.62
383.1  13555.85  348.55  2.57
384.6  14107.93  359.67  2.55
386.1  14593.50  363.94  2.49
387.6  15065.05  370.11  2.46
389.0  15570.80  378.77  2.43
390.5  16089.30  385.86  2.40
392.0  16663.50  398.51  2.39
393.4  17262.68  409.89  2.37
394.9  17826.30  424.56  2.38
396.4  18371.25  431.25  2.35
397.9  18962.50  437.33  2.31
399.3  19550.90  452.47  2.31
400.8  20114.48  461.94  2.30
402.2  20769.30  481.18  2.32
403.7  21402.68  494.34  2.31
405.2  22041.43  508.22  2.31
406.6  22620.00  519.68  2.30
408.1  23255.40  527.33  2.27
409.6  23881.60  532.65  2.23
411.0  24573.85  552.25  2.25
412.5  25260.73  569.22  2.25
414.0  25937.38  584.08  2.25
415.4  26652.38  596.25  2.24
416.9  27370.50  611.66  2.23
418.4  28087.20  622.50  2.22
419.8  28847.00  647.92  2.25
421.3  29607.33  665.47  2.25
422.7  30432.60  686.72  2.26
424.2  31235.63  708.75  2.27
425.7  32013.20  730.24  2.28
427.1  32805.23  746.94  2.28
428.6  33619.50  779.13  2.32
430.0  34416.90  805.29  2.34
431.5  35312.55  837.79  2.37
432.9  36229.45  871.19  2.40
434.4  37144.73  905.34  2.44
435.9  37996.00  933.33  2.46
437.3  38885.00  969.83  2.49
438.8  39761.18  1009.98  2.54
440.2  40667.55  1047.46  2.58
441.7  41674.00  1089.87  2.62
443.1  42612.00  1128.90  2.65
444.6  43609.90  1170.27  2.68
446.0  44582.10  1212.73  2.72
447.5  45586.48  1254.59  2.75
448.9  46569.00  1298.60  2.79
450.4  47617.15  1346.80  2.83
451.8  48529.00  1384.93  2.85
453.3  49488.88  1426.05  2.88
454.7  50552.48  1466.82  2.90
456.2  51471.70  1502.36  2.92
457.6  52476.08  1545.21  2.94
459.1  53499.88  1583.01  2.96
460.5  54463.00  1619.27  2.97
462.0  55574.23  1662.67  2.99
463.4  56663.20  1700.63  3.00
464.8  57706.13  1739.00  3.01
466.3  58722.68  1772.76  3.02
467.7  59762.45  1812.86  3.03
469.2  60860.30  1850.39  3.04
470.6  61890.25  1880.83  3.04
472.0  62971.55  1923.58  3.05
473.5  64028.63  1960.55  3.06
474.9  65108.25  2002.60  3.08
476.4  66297.60  2046.72  3.09
477.8  67410.50  2089.93  3.10
479.2  68483.50  2124.73  3.10
480.7  69653.70  2165.46  3.11
482.1  70848.35  2209.89  3.12
483.6  72105.50  2252.27  3.12
485.0  73257.98  2300.56  3.14
486.4  74525.10  2349.34  3.15
487.9  75684.38  2396.55  3.17
489.3  76908.68  2444.35  3.18
490.7  78027.78  2495.40  3.20
492.2  79321.20  2551.92  3.22
493.6  80487.10  2615.51  3.25
495.0  81666.00  2679.30  3.28
496.5  82899.08  2743.25  3.31
497.9  84073.08  2819.56  3.35
499.3  85305.78  2893.91  3.39
500.7  86640.10  2978.83  3.44
502.2  87833.60  3071.84  3.50
503.6  89162.20  3176.96  3.56
505.0  90302.60  3289.41  3.64
506.5  91664.10  3423.86  3.74
507.9  92937.93  3561.95  3.83
509.3  94379.60  3721.71  3.94
510.7  95706.00  3894.15  4.07
512.2  97170.68  4093.53  4.21
513.6  98713.65  4326.05  4.38
515.0  100200.90  4572.86  4.56
516.4  101634.75  4855.41  4.78
517.8  103324.38  5169.75  5.00
519.3  104689.85  5494.88  5.25
520.7  106330.40  5857.91  5.51
522.1  107691.35  6229.12  5.78
523.5  109101.10  6618.25  6.07
524.9  110567.70  7019.64  6.35
526.3  112001.75  7410.34  6.62
527.8  113572.80  7811.10  6.88
529.2  114834.30  8189.04  7.13
530.6  116510.35  8587.15  7.37
532.0  118300.00  8976.80  7.59
533.4  119677.20  9299.78  7.77
534.8  120664.90  9562.56  7.92
536.3  122459.70  9867.64  8.06
537.7  124576.20  10192.56  8.18
539.1  126097.08  10454.89  8.29
540.5  127344.40  10682.73  8.39
541.9  129171.75  10955.46  8.48
543.3  130519.70  11186.08  8.57
544.7  131886.60  11412.16  8.65
546.1  133755.33  11680.90  8.73
547.5  135072.00  11901.87  8.81
549.0  136939.00  12149.87  8.87
550.4  138528.75  12350.50  8.92
551.8  140140.38  12534.57  8.94
553.2  141737.23  12684.53  8.95
554.6  143145.60  12782.29  8.93
556.0  144755.10  12861.60  8.89
557.4  146439.48  12913.13  8.82
558.8  148149.90  12933.36  8.73
560.2  149669.75  12912.03  8.63
561.6  151423.13  12876.96  8.50
563.0  153081.65  12807.43  8.37
564.4  154736.85  12720.49  8.22
565.8  156325.63  12605.50  8.06
567.2  158143.25  12481.47  7.89
568.6  159721.13  12317.75  7.71
570.0  161233.73  12132.50  7.52
571.4  163042.75  11957.57  7.33
572.8  164883.63  11786.57  7.15
574.2  166577.60  11619.63  6.98
575.6  168187.50  11463.00  6.82
577.0  169771.20  11324.11  6.67
578.4  171591.88  11220.30  6.54
579.8  173169.23  11121.57  6.42
581.2  174967.70  11050.27  6.32
582.5  176447.70  10974.60  6.22
583.9  178038.40  10922.08  6.13
585.3  179912.48  10899.45  6.06
586.7  181469.28  10867.39  5.99
588.1  183026.88  10849.45  5.93
589.5  184742.25  10855.13  5.88
590.9  186446.40  10878.93  5.83
592.3  188325.30  10920.17  5.80
593.7  189833.48  10954.58  5.77
595.0  191541.38  11003.85  5.74
596.4  193045.65  11042.03  5.72
597.8  194595.23  11077.14  5.69
599.2  196231.20  11116.16  5.66
600.6  198049.48  11148.58  5.63
602.0  199401.53  11146.33  5.59
603.3  201258.15  11147.13  5.54
604.7  203005.38  11127.80  5.48
606.1  204571.20  11078.64  5.42
607.5  206271.03  11024.89  5.34
608.9  208038.35  10957.13  5.27
610.2  209478.15  10867.50  5.19
611.6  211136.18  10791.50  5.11
613.0  212761.80  10716.12  5.04
614.4  214205.10  10638.96  4.97
615.8  215718.75  10567.05  4.90
617.1  217339.50  10519.32  4.84
618.5  219040.00  10484.32  4.79
619.9  220636.28  10463.42  4.74
621.3  222356.25  10464.06  4.71
622.6  224037.75  10479.80  4.68
624.0  225585.45  10499.82  4.65
625.4  227146.43  10527.33  4.63
626.8  228858.18  10576.32  4.62
628.1  230265.20  10630.62  4.62
629.5  232242.35  10717.01  4.61
630.9  233944.15  10789.68  4.61
632.2  235409.30  10841.37  4.61
633.6  237095.63  10898.35  4.60
635.0  238736.00  10932.32  4.58
636.3  240366.20  10954.36  4.56
637.7  241842.63  10950.88  4.53
639.1  243600.00  10931.67  4.49
640.4  245169.93  10887.80  4.44
641.8  246466.28  10809.08  4.39
643.2  248150.18  10745.30  4.33
644.5  249568.75  10660.43  4.27
645.9  251418.15  10597.68  4.22
647.2  253754.73  10552.29  4.16
648.6  255879.00  10527.30  4.11
650.0  257472.00  10474.56  4.07
651.3  257694.25  10396.03  4.03
652.7  258229.15  10314.11  3.99
654.0  260441.70  10292.79  3.95
655.4  262094.70  10251.79  3.91
656.8  262502.80  10124.20  3.86
658.1  263705.90  10024.32  3.80
659.5  266181.83  9978.15  3.75
660.8  268200.00  9921.00  3.70
662.2  269091.20  9808.21  3.64
663.5  270783.75  9740.09  3.60
664.9  272338.30  9697.48  3.56
666.2  273171.00  9646.64  3.53
667.6  274977.03  9632.49  3.50
668.9  276314.18  9637.70  3.49
670.3  277092.00  9642.13  3.48
671.6  279040.50  9702.55  3.48
673.0  280323.75  9770.40  3.49
674.3  281642.40  9856.60  3.50
675.7  283067.73  9969.07  3.52
677.0  284320.73  10102.13  3.55
678.4  285818.43  10254.84  3.59
679.7  287029.80  10419.29  3.63
681.1  288431.95  10616.60  3.68
682.4  289664.70  10849.63  3.75
683.8  291079.10  11129.56  3.82
685.1  292204.88  11440.10  3.92
686.4  293572.80  11831.12  4.03
687.8  294946.00  12290.90  4.17
689.1  296125.25  12848.63  4.34
690.5  297590.25  13547.08  4.55
691.8  298490.48  14401.98  4.82
693.1  299886.00  15522.80  5.18
694.5  301141.75  16926.00  5.62
695.8  302461.25  18651.97  6.17
697.1  303712.50  20720.70  6.82
698.5  304883.70  23172.16  7.60
699.8  306112.50  26009.74  8.50
701.1  307336.95  29226.56  9.51
702.5  308213.40  32748.61  10.63
703.8  309285.00  36573.00  11.83
705.1  310563.83  40655.03  13.09
706.5  311706.13  44911.10  14.41
707.8  312788.25  49307.08  15.76
709.1  313800.20  53794.32  17.14
710.5  315050.40  58399.22  18.54
711.8  316035.60  63001.96  19.94
713.1  317172.90  67667.12  21.33
714.4  318176.40  72311.47  22.73
715.8  319113.00  76908.24  24.10
717.1  320566.05  81601.34  25.46
718.4  321619.20  86141.44  26.78
719.7  322875.85  90658.16  28.08
721.0  323482.50  94917.00  29.34
722.4  324381.75  99144.83  30.56
723.7  325435.20  103302.12  31.74
725.0  326626.43  107365.02  32.87
726.3  327698.53  111236.88  33.94
727.6  328337.63  114821.92  34.97
729.0  329386.40  118372.47  35.94
730.3  330270.60  121707.08  36.85
731.6  331299.65  124923.57  37.71
732.9  332227.35  127941.12  38.51
734.2  333163.88  130818.97  39.27
735.5  334313.78  133615.73  39.97
736.8  335236.50  136158.08  40.62
738.1  336201.30  138572.20  41.22
739.5  337313.78  140914.46  41.78
740.8  338097.65  142973.16  42.29
742.1  338922.00  144943.66  42.77
743.4  339750.00  146790.00  43.21
744.7  340894.68  148649.98  43.61
746.0  341920.80  150335.64  43.97
747.3  342622.08  151768.25  44.30
748.6  343479.25  153181.60  44.60
749.9  344344.00  154492.00  44.87
751.2  345153.85  155697.10  45.11
752.5  346173.70  156910.46  45.33
753.8  346875.73  157934.54  45.53
755.1  347724.00  158936.27  45.71
756.4  348480.60  159818.98  45.86
757.7  349613.60  160837.55  46.00
759.0  351624.80  162192.88  46.13
760.3  352994.40  163197.76  46.23
761.6  354790.80  164352.53  46.32
762.9  355454.00  164972.60  46.41
764.2  355967.70  165460.11  46.48
765.5  356378.68  165890.26  46.55
766.8  356972.80  166366.08  46.60
768.1  357652.20  166862.35  46.65
769.3  358371.65  167348.86  46.70
770.6  359157.50  167863.97  46.74
771.9  360048.33  168403.85  46.77
773.2  360594.80  168752.80  46.80
774.5  361361.00  169205.23  46.82
775.8  362211.75  169703.39  46.85
777.1  362975.80  170119.40  46.87
778.4  363428.18  170413.91  46.89
779.6  364369.05  170922.71  46.91
780.9  364980.00  171272.00  46.93
782.2  365571.25  171606.23  46.94
783.5  366061.00  171881.73  46.95
784.8  366755.85  172258.32  46.97
786.0  367320.80  172562.69  46.98
787.3  367879.80  172860.70  46.99
788.6  368469.85  173178.92  47.00
789.9  369076.40  173506.48  47.01
791.2  369856.55  173920.10  47.02
792.4  370770.90  174358.61  47.03
793.7  371408.00  174690.91  47.03
795.0  372210.30  175091.73  47.04
796.2  373052.50  175519.49  47.05
797.5  373988.25  175981.67  47.06
798.8  374794.00  176392.71  47.06
800.0  375622.08  176805.30  47.07
801.3  376270.30  177135.48  47.08
802.6  377019.00  177516.78  47.08
803.8  377809.53  177929.46  47.10
805.1  378507.50  178262.23  47.10
806.4  379095.00  178546.76  47.10
807.7  379786.73  178903.62  47.11
808.9  380502.55  179263.48  47.11
810.2  381182.90  179609.73  47.12
811.4  381832.20  179952.76  47.13
812.7  382606.25  180326.25  47.13
814.0  383600.30  180829.56  47.14
815.2  384392.25  181200.57  47.14
816.5  384913.88  181466.85  47.14
817.7  385478.60  181786.84  47.16
819.0  386096.70  182096.05  47.16
820.2  386364.00  182248.00  47.17
821.5  387204.80  182660.17  47.17
822.7  387644.55  182911.00  47.19
824.0  388084.50  183122.64  47.19
825.2  388714.95  183443.40  47.19
826.5  389120.53  183647.62  47.20
827.7  389722.88  183980.57  47.21
829.0  390189.80  184219.48  47.21
830.2  390556.10  184395.75  47.21
831.5  391119.85  184685.73  47.22
832.7  391562.33  184884.91  47.22
834.0  391920.33  185092.74  47.23
835.2  392361.75  185308.20  47.23
836.4  392656.00  185508.62  47.24
837.7  393058.40  185739.79  47.26
838.9  393565.95  186006.63  47.26
840.1  393967.80  186234.57  47.27
841.4  394544.60  186510.61  47.27
842.6  394831.80  186732.53  47.29
843.8  395198.40  186949.63  47.31
845.1  395686.45  187221.55  47.32
846.3  396179.20  187455.91  47.32
847.5  396641.70  187701.92  47.32
848.8  397003.20  187937.92  47.34
850.0  397388.95  188117.07  47.34
851.2  397894.95  188429.58  47.36
852.5  398338.50  188681.92  47.37
853.7  398808.00  188929.20  47.37
854.9  399310.10  189178.20  47.38
856.1  399825.40  189441.72  47.38
857.4  400031.85  189548.27  47.38
858.6  400504.10  189794.37  47.39
859.8  400848.75  190004.25  47.40
861.0  401333.40  190270.08  47.41
862.2  401786.98  190518.91  47.42
863.5  402148.18  190700.16  47.42
864.7  402712.20  190986.40  47.43
865.9  403186.20  191221.68  47.43
867.1  403524.30  191386.09  47.43
868.3  403965.45  191616.00  47.43
869.5  404424.90  191878.66  47.44
870.8  405067.50  192168.00  47.44
872.0  405569.63  192425.84  47.45
873.2  406067.40  192665.80  47.45
874.4  406563.30  192888.54  47.44
875.6  406932.28  193098.05  47.45
876.8  407443.80  193334.18  47.45
878.0  408005.05  193619.37  47.46
879.2  408621.60  193874.86  47.45
880.4  409177.13  194154.95  47.45
881.6  409681.30  194387.18  47.45
882.8  410195.20  194608.75  47.44
884.0  410798.38  194909.18  47.45
885.2  411400.70  195196.81  47.45
886.5  412086.30  195529.23  47.45
887.7  412674.60  195774.37  47.44
888.8  413384.48  196143.89  47.45
890.0  413991.10  196413.11  47.44
891.2  414716.20  196707.53  47.43
892.4  415449.30  197018.50  47.42
893.6  416135.65  197311.95  47.42
894.8  417197.00  197819.93  47.42
896.0  418239.50  198288.27  47.41
897.2  419019.25  198692.43  47.42
898.4  419941.50  199116.72  47.42
899.6  420589.88  199398.45  47.41
900.8  421172.88  199632.78  47.40
902.0  421489.95  199768.34  47.40
903.2  421945.20  199975.40  47.39
904.3  422343.60  200147.12  47.39
905.5  423068.38  200479.64  47.39
906.7  423809.00  200819.33  47.38
907.9  424442.90  201128.67  47.39
909.1  424944.23  201273.39  47.36
910.2  425264.18  201417.24  47.36
911.4  425733.75  201569.94  47.35
912.6  426032.75  201708.17  47.35
913.8  426358.50  201891.84  47.35
915.0  426954.15  202102.46  47.34
916.2  427274.25  202242.30  47.33
917.3  427436.33  202288.17  47.33
918.5  427768.80  202452.95  47.33
919.7  428326.80  202587.00  47.30
920.8  428473.53  202641.42  47.29
922.0  428909.25  202717.90  47.26
923.2  429156.00  202857.20  47.27
924.4  429377.63  202986.90  47.27
925.5  429738.90  203135.69  47.27
926.7  430684.38  203482.35  47.25
927.9  431775.60  203866.72  47.22
929.0  433503.90  204558.12  47.19
930.2  436040.50  205637.00  47.16
931.4  438836.40  206812.89  47.13
932.5  441784.10  208211.50  47.13
933.7  443401.48  208885.70  47.11
934.9  444346.88  209207.25  47.08
936.0  443958.13  208963.95  47.07
937.2  442247.85  207849.32  47.00
938.3  440440.25  207020.85  47.00
939.5  439074.00  206266.08  46.98
940.7  439548.30  206371.68  46.95
941.8  441369.30  207095.06  46.92
943.0  442926.75  207762.70  46.91
944.2  444022.15  208099.23  46.87
945.3  443859.00  207776.40  46.81
946.5  443229.30  207265.68  46.76
947.6  443568.20  207252.76  46.72
948.8  443735.18  207089.35  46.67
949.9  443952.60  207006.80  46.63
951.1  443761.83  206701.17  46.58
952.2  443700.00  206420.80  46.52
953.4  443515.00  206034.13  46.45
954.5  443734.20  205798.32  46.38
955.7  444036.60  205546.32  46.29
956.8  443862.30  205232.75  46.24
958.0  443886.00  204961.33  46.17
959.1  444001.08  204777.72  46.12
960.3  443851.75  204463.11  46.07
961.4  443534.05  204339.96  46.07
962.6  444256.75  204362.90  46.00
963.7  444038.25  204208.53  45.99
964.9  444314.25  204200.47  45.96
966.0  444398.40  204162.66  45.94
967.2  444564.45  204276.00  45.95
968.3  444742.65  204236.10  45.92
969.5  444524.25  204127.03  45.92
970.6  445213.95  204186.32  45.86
971.8  445544.40  204287.70  45.85
972.9  445857.30  204361.67  45.84
974.0  446157.10  204578.29  45.85
975.2  446532.63  204629.52  45.83
976.3  446363.63  204693.87  45.86
977.5  446624.68  204769.16  45.85
978.6  446511.60  204691.16  45.84
979.7  447235.43  204887.34  45.81
980.9  447768.53  204960.44  45.77
982.0  448273.30  205290.61  45.80
983.2  448081.23  205119.36  45.78
984.3  447547.40  205121.36  45.83
985.4  447817.05  205046.98  45.79
986.6  448311.25  205199.63  45.77
987.7  449383.03  205755.25  45.79
988.9  449488.80  205716.96  45.77
990.0  450446.30  206472.75  45.84
993.1  362925.97  165668.44  45.65
996.9  364857.48  167023.73  45.78
1000.7  366621.15  168311.70  45.91
1004.5  367612.00  169179.83  46.02
1008.4  367605.21  169592.00  46.13
1012.2  367897.00  170104.23  46.24
1016.0  368401.80  170694.86  46.33
1019.8  369080.25  171367.35  46.43
1023.7  369855.37  172022.10  46.51
1027.5  370459.53  172609.08  46.59
1031.3  371499.48  173336.35  46.66
1035.1  372025.56  173782.79  46.71
1038.9  372337.90  174115.86  46.76
1042.7  372305.42  174272.00  46.81
1046.5  372232.67  174357.12  46.84
1050.3  372365.48  174533.66  46.87
1054.2  372174.83  174555.50  46.90
1058.0  371690.08  174387.39  46.92
1061.8  371566.76  174401.54  46.94
1065.6  371452.27  174386.41  46.95
1069.4  372031.40  174672.79  46.95
1073.2  372241.74  174780.80  46.95
1077.0  372099.83  174681.16  46.94
1080.8  371351.04  174241.66  46.92
1084.6  369700.92  173353.02  46.89
1088.4  368474.58  172705.51  46.87
1092.2  367438.50  172094.47  46.84
1096.0  366895.28  171723.81  46.80
1099.8  366570.75  171423.17  46.76
1103.6  366121.80  171041.75  46.72
1107.4  365355.18  170495.65  46.67
1111.2  365224.50  170228.37  46.61
1114.9  364559.42  169693.50  46.55
1118.7  363834.90  169063.36  46.47
1122.5  363022.40  168277.45  46.35
1126.3  361780.24  167223.92  46.22
1130.1  361275.53  166278.81  46.03
1133.9  359725.10  164564.90  45.75
1137.7  358386.50  162717.71  45.40
1141.4  356790.96  160500.94  44.98
1145.2  356204.21  158587.03  44.52
1149.0  355165.42  156548.75  44.08
1152.8  353642.75  154465.09  43.68
1156.6  352070.95  152695.40  43.37
1160.3  350424.33  151224.72  43.15
1164.1  347942.20  149675.45  43.02
1167.9  346054.17  148572.47  42.93
1171.7  344759.63  147838.50  42.88
1175.4  343790.43  147288.55  42.84
1179.2  343012.28  146811.17  42.80
1183.0  342835.33  146557.52  42.75
1186.7  342070.17  146059.47  42.70
1190.5  340577.47  145283.71  42.66
1194.3  339188.87  144606.56  42.63
1198.0  338152.38  144149.66  42.63
1201.8  336816.33  143619.40  42.64
1205.6  335558.33  143169.43  42.67
1209.3  334455.18  142875.58  42.72
1213.1  333253.13  142556.48  42.78
1216.8  332046.18  142341.49  42.87
1220.6  330935.73  142202.13  42.97
1224.3  329688.00  141983.43  43.07
1228.1  328577.80  141874.97  43.18
1231.9  327515.38  141722.66  43.27
1235.6  326218.43  141429.53  43.35
1239.4  325006.25  141177.50  43.44
1243.1  323877.25  140872.28  43.50
1246.9  322720.17  140533.22  43.55
1250.6  321813.67  140251.48  43.58
1254.3  320820.68  139913.28  43.61
1258.1  319953.90  139596.98  43.63
1261.8  318784.13  139126.99  43.64
1265.6  317290.25  138455.93  43.64
1269.3  315498.93  137612.34  43.62
1273.1  315209.56  137381.76  43.58
1276.8  315700.00  137474.17  43.55
1280.6  316171.27  137552.48  43.51
1284.3  315273.60  136975.14  43.45
1288.0  313789.00  136091.25  43.37
1291.8  312034.90  134986.81  43.26
1295.5  310211.73  133809.87  43.14
1299.2  308812.57  132773.22  42.99
1302.9  307452.95  131660.75  42.82
1306.7  306004.18  130437.53  42.63
1310.4  304638.16  129115.23  42.38
1314.1  303374.68  127765.65  42.11
1317.9  302296.04  126333.45  41.79
1321.6  300992.49  124712.73  41.43
1325.3  299399.63  122839.65  41.03
1329.0  298040.28  120993.78  40.60
1332.8  295864.80  118690.00  40.12
1336.5  293959.67  116471.58  39.62
1340.2  293505.33  114822.50  39.12
1343.9  292942.92  113134.79  38.62
1347.6  292097.70  111359.18  38.12
1351.4  291911.50  109897.21  37.65
1355.1  291841.00  108526.47  37.19
1358.8  291360.00  106944.00  36.71
1362.5  290632.40  105165.23  36.18
1366.2  288762.00  102753.22  35.58
1369.9  287274.00  100232.48  34.89
1373.6  285751.43  97313.84  34.06
1377.3  283926.30  93755.49  33.02
1381.0  282415.50  89528.69  31.70
1384.8  280117.50  84161.07  30.04
1388.4  277998.12  78368.57  28.19
1392.2  276392.08  72331.35  26.17
1395.9  274796.70  66174.09  24.08
1399.6  273112.63  60259.50  22.06
1403.3  271988.83  55021.35  20.23
1407.0  271013.40  50511.39  18.64
1410.7  269939.18  46780.92  17.33
1414.3  268985.44  43853.06  16.30
1418.1  268047.63  41654.50  15.54
1421.7  267389.91  40054.90  14.98
1425.4  266655.68  38922.88  14.60
1429.1  265926.00  38169.54  14.35
1432.8  264576.49  37622.75  14.22
1436.5  263749.62  37355.20  14.16
1440.2  262812.03  37251.03  14.17
1443.9  261421.88  37188.85  14.23
1447.6  259782.60  37180.00  14.31
1451.2  258789.85  37293.87  14.41
1454.9  257610.60  37420.50  14.53
1458.6  256663.98  37662.33  14.67
1462.3  255581.70  37995.68  14.87
1466.0  254231.81  38437.94  15.12
1469.7  252545.80  38993.30  15.44
1473.3  251528.83  39783.00  15.82
1477.0  249689.57  40547.16  16.24
1480.7  248146.48  41428.29  16.70
1484.4  246289.03  42262.25  17.16
1488.0  244757.33  43182.86  17.64
1491.7  243111.76  44068.92  18.13
1495.4  241348.05  44937.42  18.62
1499.0  239728.50  45791.00  19.10
1502.7  238394.00  46703.82  19.59
1506.4  236984.29  47563.00  20.07
1510.0  235598.97  48403.35  20.54
1513.7  234211.83  49200.08  21.01
1517.4  232945.33  49986.48  21.46
1521.0  231804.80  50768.95  21.90
1524.7  230600.50  51476.60  22.32
1528.3  229305.25  52133.36  22.74
1532.0  228040.63  52749.95  23.13
1535.7  226664.48  53285.16  23.51
1539.3  225414.83  53817.85  23.88
1543.0  224441.52  54394.36  24.24
1546.6  223756.00  55003.47  24.58
1550.3  222776.80  55503.52  24.91
1553.9  221726.67  55944.88  25.23
1557.6  220481.07  56304.60  25.54
1561.2  219224.25  56609.10  25.82
1564.9  217922.29  56888.46  26.10
1568.5  216621.65  57131.90  26.37
1572.2  215498.90  57396.26  26.63
1575.8  214410.00  57668.00  26.90
1579.5  213456.20  57938.51  27.14
1583.1  212463.70  58198.43  27.39
1586.8  211302.00  58382.00  27.63
1590.4  210359.67  58609.21  27.86
1594.0  209071.63  58731.20  28.09
1597.7  207793.80  58846.60  28.32
1601.3  206246.25  58868.78  28.54
1604.9  204737.83  58868.95  28.75
1608.6  203345.63  58881.82  28.96
1612.2  202450.88  58999.17  29.14
1615.8  201463.60  59064.34  29.32
1619.5  200441.75  59096.13  29.48
1623.1  199066.90  59005.17  29.64
1626.7  197676.38  58872.68  29.78
1630.3  196294.58  58724.36  29.92
1634.0  195062.00  58594.00  30.04
1637.6  193979.33  58491.21  30.15
1641.2  192990.80  58355.67  30.24
1644.8  191774.58  58108.19  30.30
1648.5  190702.53  57872.46  30.35
1652.1  189743.70  57616.63  30.37
1655.7  188845.80  57319.32  30.35
1659.3  188036.83  57021.68  30.32
1662.9  186674.17  56522.98  30.28
1666.6  185258.00  55997.39  30.23
1670.2  183840.83  55450.08  30.16
1673.8  182353.39  54853.33  30.08
1677.4  181160.70  54321.32  29.99
1681.0  180342.98  53848.94  29.86
1684.6  179956.83  53456.31  29.71
1688.2  179337.10  52927.06  29.51
1691.8  178722.38  52441.34  29.34
1695.4  178352.00  52000.40  29.16
1699.0  178044.77  51579.57  28.97
1702.6  177762.00  51141.34  28.77
1706.2  177179.28  50608.24  28.56
1709.8  176289.43  49988.80  28.36
1713.4  175592.17  49415.82  28.14
1717.0  174713.75  48809.86  27.94
1720.6  173931.30  48242.49  27.74
1724.2  173234.48  47710.96  27.54
1727.8  172533.20  47216.15  27.37
1731.4  172092.25  46846.45  27.22
1735.0  171902.68  46604.30  27.11
1738.6  171649.50  46330.13  26.99
1742.2  171025.90  45922.39  26.85
1745.8  170323.37  45438.57  26.68
1749.4  169274.33  44839.46  26.49
1753.0  167713.40  44074.72  26.28
1756.6  166037.96  43292.17  26.07
1760.1  164667.48  42612.47  25.88
1763.7  162947.33  41870.95  25.70
1767.3  161522.70  41254.32  25.54
1770.9  160314.53  40723.44  25.40
1774.5  158889.65  40165.25  25.28
1778.0  157750.27  39693.66  25.16
1781.6  156635.85  39262.31  25.07
1785.2  155478.70  38846.06  24.98
1788.8  154291.80  38457.55  24.93
1792.3  153095.00  38087.69  24.88
1795.9  152639.39  37925.81  24.85
1799.5  152076.33  37770.09  24.84
1803.1  150697.87  37419.55  24.83
1806.6  150201.51  37288.56  24.83
1810.2  150901.80  37456.03  24.82
1813.8  152003.90  37734.81  24.82
1817.3  152331.20  37816.72  24.83
1820.9  151943.47  37716.04  24.82
1824.5  150924.73  37431.86  24.80
1828.0  150328.75  37222.37  24.76
1831.6  149590.83  36949.85  24.70
1835.2  148806.67  36610.72  24.60
1838.7  148370.80  36266.90  24.44
1842.3  147945.00  35862.86  24.24
1845.8  147258.75  35277.87  23.96
1849.4  146904.18  34639.68  23.58
1852.9  146258.70  33762.09  23.08
1856.5  145452.92  32647.76  22.45
1860.0  144749.48  31328.41  21.64
1863.6  144516.23  29895.57  20.69
1867.1  144231.50  28199.50  19.55
1870.7  143871.90  26120.24  18.16
1874.2  142987.50  23579.10  16.49
1877.8  142119.47  20917.46  14.72
1881.3  141233.38  18223.23  12.90
1884.9  140749.31  15705.43  11.16
1888.4  139978.64  13309.29  9.51
1891.9  139353.20  11267.09  8.09
1895.5  138481.75  9620.97  6.95
1899.0  138230.38  8439.73  6.11
1901.3  163310.33  6293.56  3.85
1904.1  163346.25  5686.75  3.48
1906.8  162826.80  5179.40  3.18
1909.6  161375.90  4796.05  2.97
1912.4  160016.62  4508.66  2.82
1915.1  158994.55  4320.98  2.72
1917.9  157842.17  4174.72  2.64
1920.6  156901.40  4079.18  2.60
1923.3  155991.73  4020.18  2.58
1926.1  154794.93  3995.44  2.58
1928.8  153692.00  3984.44  2.59
1931.6  152826.15  4002.23  2.62
1934.3  151982.90  4029.16  2.65
1937.0  151179.53  4073.70  2.69
1939.8  150305.33  4146.83  2.76
1942.5  149204.00  4209.33  2.82
1945.2  147731.65  4284.50  2.90
1947.9  146556.90  4367.84  2.98
1950.7  145640.53  4492.67  3.08
1953.4  144052.20  4593.55  3.19
1956.1  142803.75  4717.75  3.30
1958.8  141687.87  4841.56  3.42
1961.5  140309.20  4977.20  3.55
1964.2  138884.20  5105.10  3.68
1966.9  137369.95  5249.00  3.82
1969.6  136197.00  5409.00  3.97
1972.3  134843.90  5568.43  4.13
1975.0  133820.85  5746.60  4.29
1977.7  132752.55  5930.68  4.47
1980.4  131622.73  6110.37  4.64
1983.1  130540.80  6305.06  4.83
1985.8  129630.00  6504.70  5.02
1988.4  128639.33  6702.22  5.21
1991.1  127730.17  6906.67  5.41
1993.8  126871.80  7117.37  5.61
1996.5  126251.40  7344.27  5.82
1999.1  125596.53  7565.43  6.02
2001.8  124907.07  7778.63  6.23
2004.5  124231.30  7986.83  6.43
2007.1  123522.00  8188.67  6.63
2009.8  122783.27  8380.09  6.83
2012.4  122210.18  8579.33  7.02
2015.1  121660.93  8777.22  7.21
2017.8  120866.67  8941.25  7.40
2020.4  120366.22  9110.69  7.57
2023.1  120029.23  9283.71  7.73
2025.7  119790.67  9461.11  7.90
2028.3  119444.00  9614.22  8.05
2031.0  119039.82  9751.38  8.19
2033.6  118763.70  9889.00  8.33
2036.2  118520.10  10013.70  8.45
2038.9  117937.20  10106.50  8.57
2041.5  117579.12  10207.22  8.68
2044.1  117032.40  10271.80  8.78
2046.8  116667.00  10353.00  8.87
2049.4  116049.30  10408.10  8.97
2052.0  115751.60  10485.82  9.06
2054.6  115351.25  10564.17  9.16
2057.2  114808.40  10634.29  9.26
2059.8  114511.47  10733.26  9.37
2062.4  113647.90  10773.80  9.48
2065.0  113140.33  10846.80  9.59
2067.6  112253.23  10890.02  9.70
2070.2  111669.22  10959.76  9.81
2072.8  111032.90  11023.68  9.93
2075.4  110600.00  11103.75  10.04
2078.0  109993.68  11157.76  10.14
2080.6  109436.80  11222.93  10.26
2083.2  108750.50  11271.01  10.36
2085.8  108263.37  11336.35  10.47
2088.4  107590.00  11377.33  10.57
2090.9  106787.47  11399.95  10.68
2093.5  105927.63  11422.97  10.78
2096.1  105171.63  11447.61  10.88
2098.7  104398.70  11473.96  10.99
2101.2  103437.60  11463.96  11.08
2103.8  102765.13  11484.33  11.18
2106.4  102118.87  11516.36  11.28
2108.9  101481.33  11551.29  11.38
2111.5  100642.93  11548.38  11.47
2114.0  100014.13  11565.85  11.56
2116.6  99496.25  11599.58  11.66
2119.1  98958.13  11627.52  11.75
2121.7  98481.25  11660.83  11.84
2124.2  98099.00  11697.66  11.92
2126.8  97292.98  11687.69  12.01
2129.3  96905.60  11712.80  12.09
2131.9  96324.80  11704.00  12.15
2134.4  95880.90  11708.55  12.21
2136.9  95504.72  11720.08  12.27
2139.4  94979.73  11715.82  12.34
2142.0  94536.40  11715.82  12.39
2144.5  94268.80  11739.10  12.45
2147.0  94032.27  11762.22  12.51
2149.5  93532.00  11741.38  12.55
2152.1  93363.78  11777.15  12.61
2154.6  93296.00  11816.89  12.67
2157.1  92759.00  11781.08  12.70
2159.6  92341.17  11756.86  12.73
2162.1  92173.90  11766.30  12.77
2164.6  91917.87  11772.87  12.81
2167.1  91594.57  11769.97  12.85
2169.6  91281.87  11769.68  12.89
2172.1  90819.07  11754.03  12.94
2174.6  90489.00  11756.31  12.99
2177.1  90048.33  11752.70  13.05
2179.5  89644.97  11748.32  13.11
2182.0  89170.95  11728.02  13.15
2184.5  88644.35  11716.66  13.22
2187.0  88041.30  11691.05  13.28
2189.5  87379.43  11655.02  13.34
2191.9  86621.00  11615.33  13.41
2194.4  86016.85  11587.33  13.47
2196.9  85276.80  11545.60  13.54
2199.3  84641.33  11496.89  13.58
2201.8  83774.80  11426.93  13.64
2204.3  83323.87  11403.69  13.69
2206.7  82690.75  11350.48  13.73
2209.2  82219.45  11319.71  13.77
2211.6  81615.60  11256.30  13.79
2214.1  81331.30  11233.55  13.81
2216.5  80748.07  11175.00  13.84
2219.0  80430.20  11135.27  13.84
2221.4  80057.25  11070.31  13.83
2223.9  79591.17  10987.67  13.81
2226.3  79095.33  10888.50  13.77
2228.7  78552.73  10759.66  13.70
2231.1  77972.40  10626.00  13.63
2233.6  77390.60  10479.67  13.54
2236.0  76864.08  10329.86  13.44
2238.4  76388.08  10167.89  13.31
2240.9  75960.20  9999.56  13.16
2243.3  75433.73  9820.76  13.02
2245.7  74863.80  9631.60  12.87
2248.1  74401.17  9445.08  12.69
2250.5  73906.62  9254.55  12.52
2252.9  73284.90  9046.41  12.34
2255.3  72734.50  8855.50  12.18
2257.7  72300.00  8670.00  11.99
2260.1  71818.60  8484.86  11.81
2262.5  71240.00  8296.67  11.65
2264.9  70711.95  8129.76  11.50
2267.3  70100.00  7946.67  11.34
2269.7  69621.30  7795.90  11.20
2272.1  69084.95  7646.06  11.07
2274.5  68525.60  7484.17  10.92
2276.8  68063.25  7352.23  10.80
2279.2  67475.70  7229.30  10.71
2281.6  67054.07  7103.71  10.59
2284.0  66599.40  6975.73  10.47
2286.3  66160.53  6856.89  10.36
2288.7  65763.97  6754.94  10.27
2291.1  65227.27  6631.20  10.17
2293.4  64782.67  6502.22  10.04
2295.8  64189.60  6372.27  9.93
2298.2  63621.45  6241.05  9.81
2300.5  62948.70  6106.50  9.70
2302.9  62206.67  5958.89  9.58
2305.2  61521.90  5829.80  9.48
2307.6  60858.02  5708.56  9.38
2309.9  60119.33  5590.33  9.30
2312.2  59530.33  5497.33  9.23
2314.6  58912.20  5423.40  9.21
2316.9  58208.40  5344.05  9.18
2319.2  57649.03  5273.18  9.15
2321.6  57014.88  5181.28  9.09
2323.9  56468.75  5093.75  9.02
2326.2  55922.67  5001.04  8.94
2328.6  55405.90  4914.98  8.87
2330.9  54915.00  4830.00  8.80
2333.2  54440.67  4744.86  8.72
2335.5  53992.20  4650.93  8.61
2337.8  53550.03  4564.95  8.52
2340.1  53000.08  4471.49  8.44
2342.4  52552.50  4383.89  8.34
2344.8  52127.08  4293.89  8.24
2347.1  51576.23  4211.20  8.17
2349.4  51062.25  4134.92  8.10
2351.6  50500.40  4054.13  8.03
2353.9  50003.07  3983.03  7.97
2356.2  49491.40  3920.48  7.92
2358.5  48899.20  3845.33  7.86
2360.8  48339.20  3774.40  7.81
2363.1  47895.17  3701.50  7.73
2365.4  47437.40  3634.83  7.66
2367.7  46956.60  3572.00  7.61
2369.9  46429.75  3492.25  7.52
2372.2  45809.33  3401.78  7.43
2374.5  45229.80  3322.55  7.35
2376.7  44619.62  3252.67  7.29
2379.0  44008.90  3168.14  7.20
2381.3  43376.67  3087.78  7.12
2383.5  42861.87  3015.46  7.04
2385.8  42277.63  2933.82  6.94
2388.0  41736.60  2867.40  6.87
2390.3  41224.80  2792.62  6.77
2392.5  40740.00  2724.00  6.69
2394.8  40280.90  2653.93  6.59
2397.0  39809.47  2596.53  6.52
2399.3  39352.17  2530.07  6.43
2401.5  38893.75  2462.25  6.33
2403.8  38366.42  2377.12  6.20
2406.0  37870.83  2321.92  6.13
2408.2  37462.33  2268.93  6.06
2410.4  37038.05  2205.39  5.95
2412.7  36619.27  2132.14  5.82
2414.9  36254.90  2078.82  5.73
2417.1  35852.10  2027.77  5.66
2419.3  35443.20  1971.20  5.56
2421.6  35068.75  1915.97  5.46
2423.8  34672.87  1862.88  5.37
2426.0  34314.95  1804.68  5.26
2428.2  33960.27  1750.93  5.16
2430.4  33625.90  1711.51  5.09
2432.6  33346.67  1653.33  4.96
2434.8  33055.77  1612.91  4.88
2437.0  32696.73  1562.74  4.78
2439.2  32358.90  1518.37  4.69
2441.4  32024.70  1476.94  4.61
2443.6  31750.70  1436.93  4.53
2445.7  31459.63  1402.22  4.46
2447.9  31187.25  1368.47  4.39
2450.1  30895.95  1320.70  4.27
2452.3  30548.47  1284.62  4.21
2454.5  30182.13  1243.40  4.12
2456.6  29803.07  1193.64  4.01
2458.8  29429.40  1163.07  3.95
2461.0  29136.08  1134.11  3.89
2463.1  28852.65  1100.95  3.82
2465.3  28564.27  1073.11  3.76
2467.5  28305.25  1042.33  3.68
2469.6  28073.17  1034.22  3.68
2471.8  27750.80  1011.12  3.64
2473.9  27406.42  970.36  3.54
2476.1  27042.17  945.39  3.50
2478.2  26719.27  924.16  3.46
2480.4  26417.35  895.42  3.39
2482.5  26058.45  856.75  3.29
2484.6  25712.50  846.70  3.29
2486.8  25449.70  832.10  3.27
2488.9  25127.07  815.47  3.25
2491.1  24767.87  788.04  3.18
2493.2  24365.13  771.72  3.17
2495.3  23985.87  742.88  3.10
2497.4  23650.90  724.50  3.06
2499.5  23304.00  712.07  3.06
2501.7  23138.13  701.16  3.03
2503.8  23018.85  685.38  2.98
2505.9  22960.00  683.33  2.98
2508.0  22946.83  683.15  2.98
2510.1  22944.32  685.53  2.99
2512.2  23029.25  685.07  2.97
2514.3  23178.65  696.06  3.00
2516.4  23265.70  682.93  2.94
