/*** Spectra Vista SIG Data ***/
name= 51_20220926_ACRU_29_avg.sig
comm= Averaged Ref/Tar of files: HR.092722.0066_moc.sig,HR.092722.0067_moc.sig
data=
337.3  3076.75  238.20  7.74
338.8  3174.60  240.50  7.58
340.3  3326.35  234.25  7.04
341.8  3566.55  219.48  6.15
343.2  3729.60  213.12  5.71
344.7  3881.15  196.19  5.05
346.2  4085.00  212.42  5.20
347.7  4286.43  220.22  5.14
349.2  4460.40  226.80  5.08
350.6  4737.53  213.01  4.50
352.1  5001.50  200.06  4.00
353.6  5274.40  194.32  3.68
355.1  5556.38  202.05  3.64
356.6  5866.73  216.32  3.69
358.0  6124.80  223.30  3.65
359.5  6427.20  222.48  3.46
361.0  6733.13  227.43  3.38
362.5  7113.83  228.35  3.21
364.0  7455.50  235.14  3.15
365.4  7839.90  247.28  3.15
366.9  8204.63  259.68  3.16
368.4  8564.35  267.30  3.12
369.9  8945.28  270.25  3.02
371.3  9345.00  288.36  3.09
372.8  9796.95  297.36  3.04
374.3  10185.63  301.00  2.96
375.8  10645.25  296.45  2.78
377.2  11055.90  312.04  2.82
378.7  11486.30  317.42  2.76
380.2  11862.90  322.80  2.72
381.7  12377.45  329.71  2.66
383.1  12855.15  328.79  2.56
384.6  13406.58  334.49  2.49
386.1  13863.83  351.33  2.53
387.6  14310.45  355.74  2.49
389.0  14766.80  364.48  2.47
390.5  15266.25  366.39  2.40
392.0  15870.00  380.88  2.40
393.4  16421.88  394.13  2.40
394.9  16965.00  396.72  2.34
396.4  17491.50  414.00  2.37
397.9  18040.00  430.50  2.39
399.3  18613.88  445.72  2.39
400.8  19167.33  448.65  2.34
402.2  19811.85  461.54  2.33
403.7  20415.60  467.06  2.29
405.2  21047.08  482.97  2.29
406.6  21622.40  496.48  2.30
408.1  22193.20  515.28  2.32
409.6  22806.05  539.97  2.37
411.0  23485.00  550.83  2.35
412.5  24157.00  566.44  2.34
414.0  24837.13  586.80  2.36
415.4  25539.38  608.18  2.38
416.9  26175.45  628.37  2.40
418.4  26873.33  646.16  2.40
419.8  27627.60  669.76  2.42
421.3  28359.58  698.74  2.46
422.7  29127.60  720.36  2.47
424.2  29902.50  749.25  2.51
425.7  30660.30  772.62  2.52
427.1  31428.45  797.58  2.54
428.6  32240.00  824.60  2.56
430.0  32990.45  843.73  2.56
431.5  33864.83  868.64  2.57
432.9  34749.80  890.72  2.56
434.4  35640.60  919.67  2.58
435.9  36484.00  943.60  2.59
437.3  37358.75  973.50  2.61
438.8  38213.63  999.12  2.61
440.2  39090.98  1026.80  2.63
441.7  40066.00  1055.92  2.64
443.1  40969.00  1081.20  2.64
444.6  41946.20  1116.12  2.66
446.0  42895.35  1149.59  2.68
447.5  43880.38  1181.35  2.69
448.9  44827.50  1215.18  2.71
450.4  45830.05  1245.79  2.72
451.8  46722.00  1274.00  2.73
453.3  47658.38  1310.12  2.75
454.7  48681.63  1343.85  2.76
456.2  49554.08  1372.76  2.77
457.6  50524.65  1401.84  2.77
459.1  51514.45  1431.11  2.78
460.5  52470.13  1457.88  2.78
462.0  53559.00  1493.16  2.79
463.4  54594.50  1526.18  2.80
464.8  55597.13  1556.78  2.80
466.3  56562.83  1584.83  2.80
467.7  57538.60  1610.18  2.80
469.2  58608.30  1641.15  2.80
470.6  59628.20  1671.95  2.80
472.0  60691.40  1703.08  2.81
473.5  61726.25  1740.20  2.82
474.9  62771.25  1772.70  2.82
476.4  63936.00  1811.52  2.83
477.8  65003.50  1844.40  2.84
479.2  66004.00  1873.40  2.84
480.7  67091.63  1907.81  2.84
482.1  68261.80  1950.75  2.86
483.6  69461.15  1994.10  2.87
485.0  70565.63  2035.19  2.88
486.4  71775.15  2083.56  2.90
487.9  72847.13  2120.63  2.91
489.3  73993.13  2164.58  2.93
490.7  75053.33  2214.64  2.95
492.2  76293.00  2275.56  2.98
493.6  77425.25  2335.21  3.02
495.0  78550.88  2395.58  3.05
496.5  79729.28  2462.47  3.09
497.9  80829.90  2529.97  3.13
499.3  82003.90  2609.22  3.18
500.7  83285.25  2710.25  3.25
502.2  84461.00  2817.80  3.34
503.6  85731.20  2940.44  3.43
505.0  86830.55  3067.71  3.53
506.5  88147.65  3223.91  3.66
507.9  89305.80  3400.86  3.81
509.3  90650.00  3608.24  3.98
510.7  91903.50  3840.53  4.18
512.2  93305.85  4105.11  4.40
513.6  94810.45  4414.06  4.66
515.0  96246.35  4762.53  4.95
516.4  97651.58  5151.20  5.28
517.8  99298.75  5593.50  5.63
519.3  100650.33  6057.88  6.02
520.7  102227.80  6569.78  6.43
522.1  103540.78  7090.92  6.85
523.5  104889.40  7633.88  7.28
524.9  106382.70  8194.23  7.70
526.3  107840.25  8747.76  8.11
527.8  109340.55  9290.16  8.50
529.2  110379.20  9792.28  8.87
530.6  111886.35  10320.19  9.22
532.0  113568.00  10827.60  9.53
533.4  114925.95  11261.82  9.80
534.8  115864.23  11619.49  10.03
536.3  117467.40  12015.06  10.23
537.7  119397.60  12423.60  10.41
539.1  120834.30  12753.91  10.55
540.5  122054.45  13040.51  10.68
541.9  123790.58  13383.47  10.81
543.3  125114.18  13663.13  10.92
544.7  126448.80  13946.76  11.03
546.1  128264.40  14287.68  11.14
547.5  129494.40  14551.04  11.24
549.0  131142.00  14850.00  11.32
550.4  132653.13  15115.13  11.39
551.8  134235.85  15355.98  11.44
553.2  135745.53  15551.19  11.46
554.6  137082.40  15683.20  11.44
556.0  138607.20  15787.89  11.39
557.4  140213.50  15853.01  11.31
558.8  141867.45  15874.83  11.19
560.2  143341.00  15819.80  11.04
561.6  145022.18  15743.84  10.86
563.0  146618.58  15614.04  10.65
564.4  148216.95  15451.53  10.42
565.8  149748.75  15246.88  10.18
567.2  151499.75  15032.80  9.92
568.6  152989.50  14755.20  9.64
570.0  154418.25  14445.30  9.35
571.4  156136.50  14148.42  9.06
572.8  157908.25  13857.30  8.78
574.2  159532.80  13567.68  8.50
575.6  161100.00  13297.50  8.25
577.0  162618.30  13046.98  8.02
578.4  164346.00  12842.38  7.81
579.8  165882.60  12645.45  7.62
581.2  167594.43  12484.80  7.45
582.5  169029.90  12324.78  7.29
583.9  170545.40  12189.40  7.15
585.3  172340.10  12089.57  7.01
586.7  173833.40  11988.93  6.90
588.1  175327.50  11904.33  6.79
589.5  176975.75  11848.20  6.69
590.9  178609.60  11799.84  6.61
592.3  180418.80  11791.98  6.54
593.7  181886.25  11780.15  6.48
595.0  183500.10  11796.44  6.43
596.4  184951.90  11805.22  6.38
597.8  186449.50  11811.96  6.34
599.2  187994.40  11814.00  6.28
600.6  189761.33  11816.61  6.23
602.0  191064.60  11784.47  6.17
603.3  192857.15  11761.40  6.10
604.7  194540.55  11705.80  6.02
606.1  196029.00  11616.84  5.93
607.5  197679.30  11510.41  5.82
608.9  199383.55  11386.12  5.71
610.2  200760.53  11235.11  5.60
611.6  202369.28  11090.42  5.48
613.0  203947.30  10941.54  5.36
614.4  205315.05  10787.37  5.25
615.8  206782.88  10649.93  5.15
617.1  208328.40  10528.14  5.05
618.5  209967.60  10425.12  4.97
619.9  211487.25  10340.04  4.89
621.3  213115.28  10287.18  4.83
622.6  214704.75  10251.05  4.77
624.0  216176.40  10237.17  4.74
625.4  217647.38  10235.78  4.70
626.8  219207.63  10262.07  4.68
628.1  220481.53  10276.92  4.66
629.5  222277.78  10328.13  4.65
630.9  223778.50  10363.60  4.63
632.2  225037.58  10378.52  4.61
633.6  226563.75  10384.60  4.58
635.0  228003.20  10344.08  4.54
636.3  229501.80  10279.66  4.48
637.7  230879.00  10160.90  4.40
639.1  232540.00  10027.50  4.31
640.4  234017.00  9859.12  4.21
641.8  235218.70  9668.28  4.11
643.2  236794.43  9481.15  4.00
644.5  238162.50  9289.25  3.90
645.9  239739.30  9110.61  3.80
647.2  240802.80  8946.18  3.72
648.6  242352.00  8829.00  3.64
650.0  243756.00  8726.40  3.58
651.3  244706.83  8641.55  3.53
652.7  246796.35  8606.87  3.49
654.0  248808.50  8564.60  3.44
655.4  250228.93  8508.74  3.40
656.8  250494.50  8385.38  3.35
658.1  251970.00  8303.66  3.30
659.5  254239.65  8230.85  3.24
660.8  255622.50  8136.00  3.18
662.2  256614.40  8019.20  3.13
663.5  258158.25  7929.70  3.07
664.9  259233.00  7845.50  3.03
666.2  260050.80  7765.56  2.99
667.6  261782.95  7742.31  2.96
668.9  262709.08  7730.58  2.94
670.3  264517.25  7746.23  2.93
671.6  265588.50  7779.15  2.93
673.0  266783.25  7836.68  2.94
674.3  268050.90  7916.22  2.95
675.7  269381.23  8013.23  2.97
677.0  270444.98  8114.01  3.00
678.4  271722.43  8250.57  3.04
679.7  272757.60  8400.34  3.08
681.1  274016.98  8587.18  3.13
682.4  275122.90  8800.22  3.20
683.8  276294.20  9061.00  3.28
685.1  277314.75  9372.15  3.38
686.4  278632.20  9772.44  3.51
687.8  279838.25  10283.95  3.67
689.1  280861.75  10969.25  3.91
690.5  282235.80  11908.08  4.22
691.8  283027.68  13152.37  4.65
693.1  284370.75  14831.22  5.22
694.5  285535.25  16939.65  5.93
695.8  286763.75  19533.15  6.81
697.1  287924.00  22608.95  7.85
698.5  288971.00  26159.48  9.05
699.8  290035.93  30144.15  10.39
701.1  291192.35  34506.82  11.85
702.5  291977.40  39106.21  13.39
703.8  292882.50  43924.50  15.00
705.1  294036.60  48899.96  16.63
706.5  295059.13  53946.13  18.28
707.8  296025.75  59030.82  19.94
709.1  296855.53  64126.33  21.60
710.5  297971.78  69305.73  23.26
711.8  298775.40  74428.48  24.91
713.1  299756.60  79611.00  26.56
714.4  300670.90  84775.68  28.20
715.8  301496.00  89935.90  29.83
717.1  302797.80  95246.76  31.46
718.4  303766.40  100437.12  33.06
719.7  304828.43  105659.47  34.66
721.0  305325.00  110650.50  36.24
722.4  306048.60  115667.97  37.79
723.7  306998.10  120692.79  39.31
725.0  308060.10  125660.16  40.79
726.3  309004.85  130495.09  42.23
727.6  309529.83  135041.83  43.63
729.0  310404.50  139613.25  44.98
730.3  311182.88  143970.72  46.27
731.6  312062.00  148206.30  47.49
732.9  312839.28  152213.85  48.66
734.2  313669.13  156051.50  49.75
735.5  314670.40  159847.67  50.80
736.8  315447.00  163316.70  51.77
738.1  316292.60  166640.36  52.69
739.5  317248.53  169829.38  53.53
740.8  317930.25  172690.71  54.32
742.1  318606.50  175387.18  55.05
743.4  319225.00  177915.00  55.73
744.7  320125.30  180419.16  56.36
746.0  320981.70  182738.01  56.93
747.3  321589.48  184729.53  57.44
748.6  322338.50  186661.75  57.91
749.9  322998.00  188416.80  58.33
751.2  323580.10  190000.67  58.72
752.5  324338.45  191580.13  59.07
753.8  324842.35  192908.07  59.39
755.1  325442.00  194199.20  59.67
756.4  326012.23  195347.59  59.92
757.7  327032.65  196662.87  60.14
759.0  328809.05  198365.90  60.33
760.3  329973.60  199620.96  60.50
761.6  331489.20  201053.44  60.65
762.9  331967.50  201802.00  60.79
764.2  332322.60  202400.98  60.90
765.5  332569.65  202876.68  61.00
766.8  332928.00  203412.48  61.10
768.1  333403.20  203960.12  61.18
769.3  333956.70  204543.64  61.25
770.6  334589.45  205136.23  61.31
771.9  335254.33  205733.85  61.37
773.2  335602.80  206115.84  61.42
774.5  336135.80  206594.96  61.46
775.8  336766.05  207102.61  61.50
777.1  337294.65  207548.00  61.53
778.4  337563.60  207817.01  61.56
779.6  338300.23  208354.42  61.59
780.9  338700.00  208722.00  61.62
782.2  339132.75  209069.85  61.65
783.5  339373.50  209303.20  61.67
784.8  339814.80  209659.32  61.70
786.0  340158.00  209926.08  61.71
787.3  340465.08  210196.35  61.74
788.6  340845.75  210477.82  61.75
789.9  341223.40  210781.20  61.77
791.2  341842.05  211196.76  61.78
792.4  342445.38  211613.77  61.79
793.7  342884.40  211916.32  61.80
795.0  343425.23  212312.76  61.82
796.2  343995.48  212722.07  61.84
797.5  344645.63  213149.00  61.85
798.8  345240.23  213562.13  61.86
800.0  345833.45  213964.38  61.87
801.3  346199.00  214231.84  61.88
802.6  346762.13  214607.43  61.89
803.8  347363.20  215012.77  61.90
805.1  347805.50  215305.30  61.90
806.4  348195.90  215592.66  61.92
807.7  348660.45  215937.09  61.93
808.9  349147.80  216265.98  61.94
810.2  349622.00  216575.80  61.95
811.4  350032.90  216892.88  61.96
812.7  350634.38  217295.00  61.97
814.0  351379.85  217823.41  61.99
815.2  351952.50  218227.25  62.00
816.5  352319.85  218519.48  62.02
817.7  352741.20  218826.38  62.04
819.0  353248.50  219135.73  62.03
820.2  353364.00  219260.80  62.05
821.5  353985.20  219713.72  62.07
822.7  354276.88  219973.12  62.09
824.0  354531.60  220191.48  62.11
825.2  354994.65  220532.63  62.12
826.5  355271.63  220726.98  62.13
827.7  355865.25  221097.50  62.13
829.0  356179.75  221386.91  62.16
830.2  356485.05  221625.01  62.17
831.5  356967.70  221943.84  62.17
832.7  357238.88  222165.41  62.19
834.0  357574.93  222396.81  62.20
835.2  357905.35  222674.49  62.22
836.4  358191.90  222906.97  62.23
837.7  358587.20  223217.28  62.25
838.9  358978.85  223549.43  62.27
840.1  359288.33  223819.88  62.30
841.4  359721.80  224117.72  62.30
842.6  360094.00  224414.28  62.32
843.8  360448.60  224684.12  62.33
845.1  360907.35  225078.94  62.36
846.3  361321.20  225362.98  62.37
847.5  361685.10  225658.86  62.39
848.8  362086.20  225953.16  62.40
850.0  362430.25  226241.68  62.42
851.2  362934.00  226618.02  62.44
852.5  363295.00  226901.84  62.46
853.7  363768.75  227265.75  62.48
854.9  364211.00  227555.86  62.48
856.1  364609.70  227911.19  62.51
857.4  364762.85  228054.78  62.52
858.6  365286.65  228412.28  62.53
859.8  365675.63  228729.38  62.55
861.0  366093.00  229006.44  62.55
862.2  366604.85  229316.38  62.55
863.5  366882.10  229581.43  62.58
864.7  367356.00  229880.64  62.58
865.9  367660.60  230182.40  62.61
867.1  368006.45  230369.22  62.60
868.3  368411.70  230642.79  62.60
869.5  368869.40  230974.58  62.62
870.8  369342.00  231336.00  62.63
872.0  369845.48  231650.24  62.63
873.2  370352.85  231933.57  62.63
874.4  370708.65  232218.09  62.64
875.6  371113.30  232432.44  62.63
876.8  371554.55  232755.90  62.64
878.0  371997.40  233012.77  62.64
879.2  372420.90  233304.42  62.65
880.4  372883.88  233614.80  62.65
881.6  373398.63  233917.54  62.65
882.8  373815.20  234184.48  62.65
884.0  374350.30  234531.68  62.65
885.2  374654.40  234790.44  62.67
886.5  375213.55  235132.64  62.67
887.7  375674.33  235379.37  62.66
888.8  376326.83  235726.82  62.64
890.0  376826.20  236080.32  62.65
891.2  377329.90  236367.62  62.64
892.4  377914.43  236726.28  62.64
893.6  378366.45  237040.27  62.65
894.8  379270.00  237512.95  62.62
896.0  380028.25  238021.35  62.63
897.2  380835.00  238475.25  62.62
898.4  381476.70  238870.50  62.62
899.6  381948.38  239141.03  62.61
900.8  382271.05  239335.84  62.61
902.0  382453.20  239418.27  62.60
903.2  382659.15  239514.68  62.59
904.3  382817.70  239687.70  62.61
905.5  383388.25  240003.28  62.60
906.7  383970.50  240347.60  62.60
907.9  384370.70  240617.44  62.60
909.1  384656.85  240696.63  62.57
910.2  384762.83  240710.66  62.56
911.4  384839.33  240833.39  62.58
912.6  384948.85  240863.48  62.57
913.8  385201.35  240904.88  62.54
915.0  385345.80  241053.54  62.56
916.2  385573.50  241103.85  62.53
917.3  385425.00  240967.71  62.52
918.5  385486.30  241049.28  62.53
919.7  385573.05  241157.46  62.55
920.8  385639.48  241067.91  62.51
922.0  385789.25  241013.85  62.47
923.2  385749.00  241059.00  62.49
924.4  386066.25  241049.25  62.44
925.5  386245.90  241119.58  62.43
926.7  386548.13  241325.63  62.43
927.9  387383.40  241713.36  62.40
929.0  388623.15  242473.77  62.39
930.2  390710.30  243672.34  62.37
931.4  393175.35  245037.42  62.32
932.5  395758.40  246534.94  62.29
933.7  397037.90  247208.67  62.26
934.9  397565.00  247474.50  62.25
936.0  396854.25  246942.48  62.22
937.2  394598.25  245461.62  62.21
938.3  392969.65  244172.72  62.14
939.5  391359.60  243005.04  62.09
940.7  391416.30  242963.46  62.07
941.8  392776.58  243630.24  62.03
943.0  394170.75  244246.05  61.96
944.2  394706.65  244531.82  61.95
945.3  394026.75  244048.35  61.94
946.5  393314.40  243306.99  61.86
947.6  393414.10  243104.36  61.79
948.8  393288.68  242725.28  61.72
949.9  393220.80  242407.20  61.65
951.1  392828.48  241712.84  61.53
952.2  392292.00  241250.40  61.50
953.4  391909.75  240700.15  61.42
954.5  391716.00  240210.36  61.32
955.7  391557.60  239861.16  61.26
956.8  391348.40  239297.78  61.15
958.0  390726.00  238599.80  61.07
959.1  390504.25  238139.88  60.98
960.3  390037.60  237610.17  60.92
961.4  389822.10  237223.87  60.85
962.6  389833.50  237112.75  60.82
963.7  389330.78  236787.69  60.82
964.9  389339.78  236565.96  60.76
966.0  389105.78  236240.96  60.71
967.2  389092.95  236150.10  60.69
968.3  388573.20  235803.15  60.68
969.5  388329.68  235625.81  60.68
970.6  388335.13  235541.86  60.65
971.8  388354.23  235587.59  60.66
972.9  388407.90  235417.65  60.61
974.0  388798.70  235560.52  60.59
975.2  388541.38  235444.48  60.60
976.3  388282.58  235264.11  60.59
977.5  388385.73  235149.22  60.55
978.6  388497.10  235178.78  60.54
979.7  388198.65  235212.71  60.59
980.9  388246.43  235112.30  60.56
982.0  387799.60  234983.52  60.59
983.2  387281.15  234923.32  60.66
984.3  386641.80  234595.32  60.68
985.4  386488.10  234554.31  60.69
986.6  386898.75  234227.28  60.54
987.7  387421.65  234670.56  60.57
988.9  386064.00  234671.76  60.79
990.0  386408.70  234756.02  60.75
993.1  388658.14  231117.43  59.47
996.9  387457.43  231106.44  59.65
1000.7  387556.52  231739.38  59.79
1004.5  387651.00  232387.14  59.95
1008.4  387245.46  232721.38  60.10
1012.2  387022.71  233178.61  60.25
1016.0  386754.00  233468.60  60.37
1019.8  386180.03  233589.13  60.49
1023.7  385069.98  233341.25  60.60
1027.5  383449.30  232739.30  60.70
1031.3  382483.48  232460.35  60.78
1035.1  381449.89  232119.09  60.85
1038.9  381001.50  232068.53  60.91
1042.7  380636.50  232092.53  60.97
1046.5  380531.67  232168.28  61.01
1050.3  380494.63  232300.44  61.05
1054.2  380120.42  232215.09  61.09
1058.0  379713.48  232030.25  61.11
1061.8  379634.52  232055.52  61.13
1065.6  379020.67  231677.13  61.13
1069.4  378292.47  231246.00  61.13
1073.2  377046.39  230445.25  61.12
1077.0  376273.30  229921.44  61.10
1080.8  376395.83  229865.28  61.07
1084.6  376378.80  229717.18  61.03
1088.4  376605.11  229707.50  60.99
1092.2  376125.75  229232.25  60.95
1096.0  375476.10  228610.13  60.89
1099.8  374745.15  227927.63  60.82
1103.6  373826.38  227093.76  60.75
1107.4  372683.38  226110.13  60.67
1111.2  372371.10  225625.74  60.59
1114.9  371770.00  224926.34  60.50
1118.7  371457.90  224279.55  60.38
1122.5  371082.40  223441.11  60.21
1126.3  370124.30  222099.47  60.01
1130.1  369747.25  220757.50  59.70
1133.9  368064.90  218276.57  59.30
1137.7  366507.70  215477.37  58.79
1141.4  364439.18  212046.83  58.18
1145.2  363496.18  209136.85  57.53
1149.0  362181.46  206150.97  56.92
1152.8  360344.90  203216.72  56.40
1156.6  358508.15  200764.24  56.00
1160.3  356653.67  198738.45  55.72
1164.1  354291.33  196766.59  55.54
1167.9  352666.67  195428.13  55.41
1171.7  351351.00  194425.88  55.34
1175.4  349906.53  193395.30  55.27
1179.2  348517.15  192381.72  55.20
1183.0  348136.67  191913.00  55.13
1186.7  348103.23  191651.99  55.06
1190.5  347673.80  191220.98  55.00
1194.3  346720.77  190531.74  54.95
1198.0  345250.95  189637.71  54.93
1201.8  343551.30  188752.00  54.94
1205.6  342459.33  188366.78  55.00
1209.3  341830.77  188367.26  55.11
1213.1  341337.90  188500.25  55.22
1216.8  340631.78  188617.12  55.37
1220.6  339518.67  188489.16  55.52
1224.3  338243.50  188254.47  55.66
1228.1  336745.20  187908.40  55.80
1231.9  335163.43  187408.93  55.92
1235.6  333409.58  186769.10  56.02
1239.4  331860.25  186212.75  56.11
1243.1  330443.08  185694.53  56.20
1246.9  329160.02  185179.04  56.26
1250.6  328090.33  184725.29  56.30
1254.3  326924.31  184176.15  56.34
1258.1  325679.32  183565.67  56.36
1261.8  324233.73  182782.85  56.37
1265.6  323029.48  182074.60  56.36
1269.3  322201.23  181514.99  56.34
1273.1  322533.83  181551.23  56.29
1276.8  322325.60  181236.40  56.23
1280.6  321212.20  180349.76  56.15
1284.3  319226.00  178907.60  56.04
1288.0  317963.11  177765.05  55.91
1291.8  317459.62  176974.62  55.75
1295.5  316697.33  175955.51  55.56
1299.2  315525.88  174625.78  55.34
1302.9  313899.19  172914.32  55.09
1306.7  312117.75  170983.32  54.78
1310.4  310416.28  168936.97  54.42
1314.1  308837.47  166815.25  54.01
1317.9  307406.04  164604.86  53.55
1321.6  305853.83  162186.24  53.03
1325.3  304165.05  159527.55  52.45
1329.0  302839.25  156964.93  51.83
1332.8  300900.60  153943.53  51.16
1336.5  299226.67  151038.22  50.48
1340.2  299056.33  148911.39  49.79
1343.9  299011.04  146871.95  49.12
1347.6  299189.25  144987.95  48.46
1351.4  300669.00  143772.84  47.82
1355.1  302735.77  142835.49  47.18
1358.8  304464.00  141632.00  46.52
1362.5  304720.83  139547.12  45.80
1366.2  302731.75  136063.75  44.95
1369.9  299529.50  131619.63  43.94
1373.6  296690.80  126645.83  42.69
1377.3  295151.70  121343.50  41.11
1381.0  294621.33  115370.72  39.16
1384.8  292662.50  107715.84  36.81
1388.4  289426.20  99032.74  34.22
1392.2  287167.92  90399.06  31.48
1395.9  285677.68  82133.47  28.75
1399.6  283841.38  74389.13  26.21
1403.3  282373.58  67687.30  23.97
1407.0  280668.90  61988.84  22.09
1410.7  278858.25  57391.40  20.58
1414.3  276963.11  53793.00  19.42
1418.1  275265.29  51114.95  18.57
1421.7  273894.78  49154.70  17.95
1425.4  272551.83  47734.38  17.51
1429.1  271322.63  46745.13  17.23
1432.8  269630.43  46004.15  17.06
1436.5  268822.33  45623.16  16.97
1440.2  268198.10  45459.86  16.95
1443.9  267076.33  45344.11  16.98
1447.6  265496.00  45240.07  17.04
1451.2  264267.85  45254.37  17.12
1454.9  262822.20  45298.50  17.24
1458.6  261583.86  45511.44  17.40
1462.3  260377.33  45896.77  17.63
1466.0  259002.48  46459.34  17.94
1469.7  257280.29  47156.92  18.33
1473.3  256216.17  48139.11  18.79
1477.0  254193.40  49074.56  19.31
1480.7  252510.01  50151.15  19.86
1484.4  250475.66  51187.98  20.44
1488.0  248878.67  52335.56  21.03
1491.7  247284.98  53488.19  21.63
1495.4  245584.53  54622.87  22.24
1499.0  244035.00  55752.50  22.85
1502.7  242733.42  56941.03  23.46
1506.4  241306.15  58055.53  24.06
1510.0  239865.87  59137.99  24.65
1513.7  238342.13  60167.92  25.24
1517.4  236958.67  61184.22  25.82
1521.0  235685.33  62207.42  26.39
1524.7  234445.25  63163.75  26.94
1528.3  233133.13  64056.88  27.48
1532.0  231894.48  64922.55  28.00
1535.7  230487.84  65664.89  28.49
1539.3  229195.10  66430.90  28.98
1543.0  228209.76  67221.32  29.46
1546.6  227516.25  68060.06  29.91
1550.3  226500.05  68751.33  30.35
1553.9  225445.50  69371.45  30.77
1557.6  224173.40  69884.96  31.17
1561.2  222907.05  70335.90  31.55
1564.9  221567.03  70732.94  31.92
1568.5  220217.43  71087.30  32.28
1572.2  219081.65  71462.99  32.62
1575.8  217966.00  71834.00  32.96
1579.5  216946.40  72195.44  33.28
1583.1  215857.33  72518.05  33.60
1586.8  214522.00  72711.34  33.89
1590.4  213306.67  72921.88  34.19
1594.0  211966.73  73068.16  34.47
1597.7  211124.93  73366.30  34.75
1601.3  210172.73  73596.60  35.02
1604.9  209176.70  73783.97  35.27
1608.6  207806.32  73794.71  35.51
1612.2  206448.00  73780.85  35.74
1615.8  205027.23  73699.49  35.95
1619.5  203767.83  73642.36  36.14
1623.1  202432.87  73525.19  36.32
1626.7  201198.08  73415.34  36.49
1630.3  199982.50  73285.17  36.65
1634.0  198856.00  73145.33  36.78
1637.6  197847.67  73006.00  36.90
1641.2  196812.40  72788.37  36.98
1644.8  195569.72  72432.18  37.04
1648.5  194479.09  72064.79  37.06
1652.1  193508.40  71689.10  37.05
1655.7  192566.20  71279.27  37.02
1659.3  191732.15  70919.09  36.99
1662.9  190300.83  70342.22  36.96
1666.6  188830.93  69756.60  36.94
1670.2  187397.58  69134.20  36.89
1673.8  185921.27  68428.58  36.81
1677.4  184743.45  67758.47  36.68
1681.0  183918.03  67104.91  36.49
1684.6  183477.67  66492.12  36.24
1688.2  182775.55  65665.44  35.93
1691.8  182116.38  64839.54  35.60
1695.4  181660.60  64113.00  35.29
1699.0  181275.73  63461.69  35.01
1702.6  180929.67  62794.34  34.71
1706.2  180305.88  61989.46  34.38
1709.8  179351.06  61097.88  34.07
1713.4  178586.88  60371.38  33.81
1717.0  177693.25  59717.83  33.61
1720.6  176856.75  59168.95  33.46
1724.2  176129.93  58675.15  33.31
1727.8  175407.75  58208.38  33.18
1731.4  174935.75  57832.96  33.06
1735.0  174763.42  57544.36  32.93
1738.6  174569.55  57180.45  32.76
1742.2  174019.01  56605.42  32.53
1745.8  173379.33  55948.10  32.27
1749.4  172425.00  55155.10  31.99
1753.0  170913.27  54195.80  31.71
1756.6  169253.29  53212.74  31.44
1760.1  167924.23  52387.15  31.20
1763.7  166167.33  51463.78  30.97
1767.3  164694.28  50669.33  30.77
1770.9  163426.84  49943.12  30.56
1774.5  161936.48  49188.79  30.38
1778.0  160773.41  48608.27  30.23
1781.6  159681.00  48131.55  30.14
1785.2  158528.78  47714.40  30.10
1788.8  157342.00  47348.57  30.09
1792.3  156095.97  46984.68  30.10
1795.9  155567.32  46857.13  30.12
1799.5  155335.00  46817.23  30.14
1803.1  156237.32  47129.29  30.17
1806.6  158267.03  47788.44  30.19
1810.2  160025.37  48336.40  30.21
1813.8  160892.70  48585.79  30.20
1817.3  160438.20  48418.67  30.18
1820.9  159223.22  48020.12  30.16
1824.5  157828.33  47545.06  30.12
1828.0  156695.46  47105.67  30.06
1831.6  156209.53  46804.97  29.96
1835.2  155932.50  46490.28  29.81
1838.7  155710.13  46080.36  29.59
1842.3  155490.00  45540.00  29.29
1845.8  154292.92  44559.92  28.88
1849.4  153666.75  43551.81  28.34
1852.9  152803.35  42250.41  27.65
1856.5  151754.53  40640.86  26.78
1860.0  150725.68  38729.80  25.70
1863.6  150690.29  36761.44  24.40
1867.1  151297.30  34591.55  22.86
1870.7  152122.43  32037.44  21.06
1874.2  151142.40  28738.95  19.01
1877.8  148564.33  25096.20  16.89
1881.3  145647.50  21456.00  14.73
1884.9  143824.63  18245.64  12.69
1888.4  142289.18  15370.13  10.80
1891.9  140705.73  12968.82  9.22
1895.5  139321.03  11107.27  7.97
1899.0  138678.13  9809.05  7.07
1901.3  177247.83  8325.34  4.70
1904.1  177149.25  7482.00  4.22
1906.8  176024.40  6796.20  3.86
1909.6  173776.05  6237.35  3.59
1912.4  171670.80  5827.09  3.39
1915.1  170166.70  5555.55  3.26
1917.9  168614.83  5329.84  3.16
1920.6  167305.07  5184.20  3.10
1923.3  165964.87  5077.68  3.06
1926.1  164243.90  4996.90  3.04
1928.8  162638.67  4942.67  3.04
1931.6  161420.12  4932.55  3.06
1934.3  160318.20  4953.14  3.09
1937.0  159241.30  4991.20  3.13
1939.8  158031.42  5056.13  3.20
1942.5  156464.00  5120.50  3.27
1945.2  154471.90  5183.20  3.36
1947.9  152837.77  5262.48  3.44
1950.7  151539.60  5381.44  3.55
1953.4  149638.95  5481.70  3.66
1956.1  148161.83  5607.63  3.78
1958.8  146877.25  5748.38  3.91
1961.5  145323.20  5897.20  4.06
1964.2  143725.40  6056.05  4.21
1966.9  142075.95  6226.40  4.38
1969.6  140778.00  6408.00  4.55
1972.3  139365.10  6590.45  4.73
1975.0  138290.10  6792.38  4.91
1977.7  137160.88  7009.25  5.11
1980.4  135988.53  7219.35  5.31
1983.1  134855.55  7439.68  5.52
1985.8  133910.40  7669.05  5.73
1988.4  132860.00  7904.00  5.95
1991.1  131908.70  8145.55  6.18
1993.8  131025.03  8379.71  6.40
1996.5  130361.55  8642.52  6.63
1999.1  129672.22  8892.40  6.86
2001.8  128973.37  9151.34  7.10
2004.5  128262.20  9389.58  7.32
2007.1  127518.30  9636.10  7.56
2009.8  126754.60  9872.22  7.79
2012.4  126139.38  10124.58  8.03
2015.1  125580.47  10360.00  8.25
2017.8  124768.93  10584.47  8.48
2020.4  124252.33  10818.23  8.71
2023.1  123888.33  11059.30  8.93
2025.7  123638.67  11284.00  9.13
2028.3  123292.00  11509.34  9.34
2031.0  122895.22  11718.16  9.54
2033.6  122591.70  11919.00  9.72
2036.2  122313.30  12123.45  9.91
2038.9  121713.00  12267.00  10.08
2041.5  121362.15  12429.97  10.24
2044.1  120799.50  12558.45  10.40
2046.8  120408.00  12706.35  10.55
2049.4  119746.80  12823.80  10.71
2052.0  119445.80  12960.27  10.85
2054.6  119043.75  13081.25  10.99
2057.2  118476.40  13200.43  11.14
2059.8  118127.07  13348.90  11.30
2062.4  117239.17  13423.67  11.45
2065.0  116703.53  13532.30  11.60
2067.6  115792.20  13598.00  11.74
2070.2  115182.03  13693.89  11.89
2072.8  114519.57  13794.13  12.05
2075.4  114065.00  13916.88  12.20
2078.0  113410.40  13987.46  12.33
2080.6  112833.60  14080.00  12.48
2083.2  112125.67  14140.63  12.61
2085.8  111627.38  14237.78  12.75
2088.4  110946.67  14292.33  12.88
2090.9  110128.98  14344.72  13.03
2093.5  109223.90  14368.57  13.16
2096.1  108439.03  14404.67  13.28
2098.7  107657.32  14452.98  13.42
2101.2  106668.93  14453.67  13.55
2103.8  105987.73  14501.70  13.68
2106.4  105306.53  14541.00  13.81
2108.9  104642.80  14580.30  13.93
2111.5  103769.47  14584.67  14.05
2114.0  103105.73  14628.34  14.19
2116.6  102585.00  14656.25  14.29
2119.1  102017.70  14697.32  14.41
2121.7  101526.25  14735.00  14.51
2124.2  101114.73  14789.37  14.63
2126.8  100296.88  14769.18  14.73
2129.3  99897.60  14806.00  14.82
2131.9  99299.20  14806.00  14.91
2134.4  98854.50  14832.60  15.00
2136.9  98453.98  14866.26  15.10
2139.4  97905.73  14864.97  15.18
2142.0  97435.80  14869.40  15.26
2144.5  97143.50  14903.05  15.34
2147.0  96899.87  14932.07  15.41
2149.5  96381.73  14923.14  15.48
2152.1  96220.48  14961.74  15.55
2154.6  96152.00  15005.34  15.61
2157.1  95611.17  14969.34  15.66
2159.6  95184.25  14955.71  15.71
2162.1  95013.10  14969.50  15.76
2164.6  94758.33  14983.24  15.81
2167.1  94432.22  14968.83  15.85
2169.6  94083.73  14977.08  15.92
2172.1  93616.77  14953.39  15.97
2174.6  93278.27  14951.77  16.03
2177.1  92833.33  14927.60  16.08
2179.5  92402.70  14925.30  16.15
2182.0  91910.50  14908.58  16.22
2184.5  91356.13  14872.58  16.28
2187.0  90739.23  14829.20  16.34
2189.5  90044.25  14775.03  16.41
2191.9  89243.00  14701.25  16.47
2194.4  88604.90  14654.48  16.54
2196.9  87849.60  14577.60  16.59
2199.3  87164.33  14514.50  16.65
2201.8  86266.53  14405.34  16.70
2204.3  85797.67  14356.88  16.73
2206.7  85133.55  14282.50  16.78
2209.2  84640.87  14232.00  16.81
2211.6  84011.40  14161.95  16.86
2214.1  83709.35  14129.00  16.88
2216.5  83122.13  14040.77  16.89
2219.0  82784.40  13976.20  16.88
2221.4  82397.58  13913.08  16.89
2223.9  81891.83  13823.84  16.88
2226.3  81386.08  13709.79  16.85
2228.7  80825.90  13574.76  16.80
2231.1  80209.80  13419.45  16.73
2233.6  79605.73  13236.17  16.63
2236.0  79045.75  13060.25  16.52
2238.4  78540.00  12886.71  16.41
2240.9  78056.13  12694.80  16.26
2243.3  77509.80  12476.27  16.10
2245.7  76933.40  12253.43  15.93
2248.1  76454.30  12029.77  15.73
2250.5  75923.25  11800.30  15.54
2252.9  75288.20  11546.39  15.34
2255.3  74714.55  11298.23  15.12
2257.7  74250.00  11060.00  14.90
2260.1  73745.00  10830.99  14.69
2262.5  73110.00  10580.00  14.47
2264.9  72568.85  10347.73  14.26
2267.3  71950.00  10125.00  14.07
2269.7  71447.37  9917.95  13.88
2272.1  70867.92  9706.15  13.70
2274.5  70292.65  9504.14  13.52
2276.8  69806.15  9330.53  13.37
2279.2  69214.35  9150.53  13.22
2281.6  68775.47  8994.57  13.08
2284.0  68286.10  8832.45  12.93
2286.3  67822.40  8669.07  12.78
2288.7  67403.48  8508.18  12.62
2291.1  66844.13  8340.17  12.48
2293.4  66394.53  8187.67  12.33
2295.8  65755.20  8018.55  12.19
2298.2  65132.55  7845.30  12.05
2300.5  64470.15  7674.53  11.90
2302.9  63715.33  7491.67  11.76
2305.2  62994.80  7328.45  11.63
2307.6  62292.03  7180.40  11.53
2309.9  61514.33  7031.84  11.43
2312.2  60915.00  6913.00  11.35
2314.6  60299.10  6810.30  11.29
2316.9  59584.95  6691.28  11.23
2319.2  58996.70  6588.02  11.17
2321.6  58354.33  6463.63  11.08
2323.9  57791.67  6343.75  10.98
2326.2  57237.27  6239.14  10.90
2328.6  56722.60  6128.93  10.81
2330.9  56185.50  6021.75  10.72
2333.2  55700.08  5916.08  10.62
2335.5  55254.80  5826.15  10.54
2337.8  54779.33  5742.13  10.48
2340.1  54186.25  5634.30  10.40
2342.4  53744.17  5535.84  10.30
2344.8  53317.00  5447.42  10.22
2347.1  52749.67  5340.77  10.12
2349.4  52207.98  5249.44  10.05
2351.6  51624.10  5133.77  9.94
2353.9  51106.40  5042.24  9.87
2356.2  50558.60  4946.92  9.78
2358.5  49963.20  4855.20  9.72
2360.8  49392.00  4760.00  9.64
2363.1  48938.32  4682.96  9.57
2365.4  48454.40  4604.75  9.50
2367.7  47971.20  4525.80  9.43
2369.9  47437.35  4431.15  9.34
2372.2  46806.93  4340.14  9.27
2374.5  46211.55  4256.18  9.21
2376.7  45560.57  4141.34  9.09
2379.0  44939.57  4030.95  8.97
2381.3  44333.33  3943.34  8.89
2383.5  43812.27  3848.54  8.78
2385.8  43183.67  3747.69  8.68
2388.0  42621.60  3640.30  8.54
2390.3  42114.80  3554.07  8.44
2392.5  41616.00  3468.00  8.33
2394.8  41140.00  3400.10  8.26
2397.0  40634.53  3306.34  8.14
2399.3  40168.45  3216.40  8.01
2401.5  39714.50  3136.00  7.90
2403.8  39179.32  3054.53  7.80
2406.0  38653.08  2973.79  7.69
2408.2  38260.20  2898.50  7.58
2410.4  37824.50  2815.00  7.44
2412.7  37398.40  2745.82  7.34
2414.9  37026.55  2681.80  7.24
2417.1  36614.10  2609.85  7.13
2419.3  36185.60  2528.00  6.99
2421.6  35792.08  2454.17  6.86
2423.8  35399.00  2379.39  6.72
2426.0  35029.03  2311.04  6.60
2428.2  34678.93  2247.47  6.48
2430.4  34353.73  2190.12  6.38
2432.6  34093.33  2146.67  6.30
2434.8  33764.20  2078.52  6.16
2437.0  33408.70  2021.72  6.05
2439.2  33034.73  1953.16  5.91
2441.4  32706.37  1901.85  5.81
2443.6  32469.17  1858.34  5.72
2445.7  32223.22  1811.78  5.62
2447.9  31952.67  1753.50  5.49
2450.1  31612.50  1707.08  5.40
2452.3  31240.18  1651.65  5.29
2454.5  30862.93  1609.81  5.22
2456.6  30473.60  1555.07  5.10
2458.8  30115.80  1515.80  5.03
2461.0  29799.25  1477.71  4.96
2463.1  29507.40  1433.18  4.86
2465.3  29222.77  1375.53  4.71
2467.5  28983.75  1349.63  4.66
2469.6  28744.42  1335.04  4.64
2471.8  28426.55  1291.44  4.54
2473.9  28085.17  1251.92  4.46
2476.1  27724.67  1205.75  4.35
2478.2  27359.07  1188.20  4.34
2480.4  27077.40  1166.60  4.31
2482.5  26739.72  1122.55  4.20
2484.6  26398.17  1098.63  4.16
2486.8  26140.50  1091.15  4.17
2488.9  25821.53  1065.38  4.13
2491.1  25466.00  1039.27  4.08
2493.2  25099.60  1013.88  4.04
2495.3  24675.30  986.05  4.00
2497.4  24311.00  966.00  3.97
2499.5  23967.52  946.73  3.95
2501.7  23844.77  953.14  4.00
2503.8  23754.38  919.42  3.87
2505.9  23694.58  905.42  3.82
2508.0  23717.57  902.11  3.80
2510.1  23731.18  894.17  3.77
2512.2  23855.00  899.15  3.77
2514.3  24013.92  901.71  3.75
2516.4  24231.00  906.20  3.74
