/*** Spectra Vista SIG Data ***/
name= 13_20220926_ACSA_19_avg.sig
comm= Averaged Ref/Tar of files: HR.092622.0035_moc.sig,HR.092622.0036_moc.sig,HR.092622.0037_moc.sig
data=
337.3  6217.05  471.77  7.59
338.8  6445.40  465.42  7.22
340.3  6711.28  478.93  7.14
341.8  6985.83  489.05  7.00
343.2  7372.48  487.27  6.61
344.7  7814.63  459.63  5.88
346.2  8060.50  455.90  5.66
347.7  8469.05  449.27  5.30
349.2  8769.60  460.80  5.25
350.6  9131.25  445.26  4.88
352.1  9692.75  431.24  4.45
353.6  10182.40  457.36  4.49
355.1  10644.00  457.44  4.30
356.6  11323.05  478.46  4.23
358.0  11841.78  483.68  4.08
359.5  12316.95  493.61  4.01
361.0  12986.70  499.25  3.84
362.5  13611.30  517.43  3.80
364.0  14256.90  538.81  3.78
365.4  14937.75  542.71  3.63
366.9  15656.58  571.67  3.65
368.4  16248.80  574.21  3.53
369.9  17013.00  591.58  3.48
371.3  17911.03  620.30  3.46
372.8  18650.05  652.10  3.50
374.3  19462.00  682.30  3.51
375.8  20284.80  685.22  3.38
377.2  21060.00  687.96  3.27
378.7  21912.80  690.29  3.15
380.2  22724.48  711.03  3.13
381.7  23632.00  728.45  3.08
383.1  24622.58  757.23  3.08
384.6  25551.45  765.09  2.99
386.1  26520.68  789.37  2.98
387.6  27444.15  799.14  2.91
389.0  28466.78  823.82  2.89
390.5  29446.15  854.20  2.90
392.0  30532.50  878.27  2.88
393.4  31647.00  900.29  2.84
394.9  32626.90  913.29  2.80
396.4  33800.80  940.68  2.78
397.9  34919.70  957.15  2.74
399.3  35859.28  972.41  2.71
400.8  37090.35  1000.39  2.70
402.2  38232.15  1025.36  2.68
403.7  39438.00  1060.62  2.69
405.2  40568.00  1080.06  2.66
406.6  41857.20  1109.64  2.65
408.1  42924.38  1136.26  2.65
409.6  44143.80  1163.48  2.64
411.0  45386.83  1195.13  2.63
412.5  46713.60  1227.31  2.63
414.0  48067.25  1274.23  2.65
415.4  49381.20  1298.85  2.63
416.9  50696.28  1334.46  2.63
418.4  52017.40  1366.51  2.63
419.8  53378.50  1408.61  2.64
421.3  54850.95  1457.94  2.66
422.7  56344.60  1516.17  2.69
424.2  57815.10  1560.09  2.70
425.7  59233.63  1595.10  2.69
427.1  60724.60  1642.60  2.70
428.6  62211.80  1687.69  2.71
430.0  63734.55  1735.80  2.72
431.5  65428.35  1797.76  2.75
432.9  67106.88  1857.08  2.77
434.4  68813.45  1911.18  2.78
435.9  70432.90  1962.55  2.79
437.3  72100.50  2023.50  2.81
438.8  73727.65  2074.97  2.81
440.2  75408.90  2128.22  2.82
441.7  77308.35  2193.01  2.84
443.1  79130.25  2253.29  2.85
444.6  80913.38  2313.98  2.86
446.0  82697.35  2380.93  2.88
447.5  84650.00  2448.10  2.89
448.9  86390.05  2511.49  2.91
450.4  88300.00  2577.14  2.92
451.8  90098.25  2635.49  2.93
453.3  91925.18  2699.37  2.94
454.7  93741.98  2758.01  2.94
456.2  95531.45  2826.07  2.96
457.6  97444.35  2890.88  2.97
459.1  99272.78  2956.66  2.98
460.5  101130.70  3008.98  2.98
462.0  103173.30  3072.34  2.98
463.4  105145.08  3135.26  2.98
464.8  107100.00  3195.66  2.98
466.3  109031.03  3260.35  2.99
467.7  111057.60  3328.24  3.00
469.2  112944.00  3387.80  3.00
470.6  114982.88  3448.75  3.00
472.0  117042.73  3518.26  3.01
473.5  119028.10  3576.92  3.01
474.9  121192.45  3647.62  3.01
476.4  123293.00  3719.38  3.02
477.8  125384.00  3790.40  3.02
479.2  127457.70  3864.25  3.03
480.7  129608.18  3938.88  3.04
482.1  131833.93  4019.07  3.05
483.6  134031.60  4090.94  3.05
485.0  136322.18  4168.01  3.06
486.4  138409.75  4242.80  3.07
487.9  140685.00  4331.13  3.08
489.3  142864.05  4427.80  3.10
490.7  145066.55  4527.07  3.12
492.2  147323.00  4635.13  3.15
493.6  149565.50  4746.31  3.17
495.0  151893.30  4865.45  3.20
496.5  154082.25  4991.76  3.24
497.9  156403.00  5130.74  3.28
499.3  158673.00  5277.21  3.33
500.7  160998.70  5442.23  3.38
502.2  163366.30  5627.26  3.44
503.6  165675.00  5834.44  3.52
505.0  167967.25  6066.95  3.61
506.5  170414.95  6329.94  3.71
507.9  172910.25  6630.75  3.83
509.3  175250.48  6963.59  3.97
510.7  177906.30  7345.04  4.13
512.2  180550.65  7781.85  4.31
513.6  183400.88  8284.23  4.52
515.0  186143.13  8843.81  4.75
516.4  188977.80  9472.57  5.01
517.8  191785.50  10165.03  5.30
519.3  194724.80  10933.36  5.61
520.7  197369.30  11745.40  5.95
522.1  200019.63  12599.64  6.30
523.5  202609.23  13479.95  6.65
524.9  205518.53  14386.67  7.00
526.3  208143.68  15269.22  7.34
527.8  210994.88  16157.04  7.66
529.2  213609.60  17043.02  7.98
530.6  216336.60  17910.20  8.28
532.0  219225.83  18716.54  8.54
533.4  221725.85  19429.20  8.76
534.8  224318.33  20078.57  8.95
536.3  227390.78  20734.28  9.12
537.7  230375.00  21347.39  9.27
539.1  233240.48  21924.16  9.40
540.5  236127.00  22462.16  9.51
541.9  239062.53  22991.15  9.62
543.3  241598.20  23471.49  9.72
544.7  244574.00  23995.51  9.81
546.1  247380.00  24488.76  9.90
547.5  250279.20  24982.77  9.98
549.0  253424.80  25488.86  10.06
550.4  256306.05  25924.86  10.11
551.8  259195.60  26317.72  10.15
553.2  262073.25  26652.90  10.17
554.6  264940.70  26902.52  10.15
556.0  267848.70  27078.04  10.11
557.4  270958.40  27188.71  10.03
558.8  273829.28  27207.30  9.94
560.2  277020.00  27182.86  9.81
561.6  279945.88  27056.51  9.66
563.0  282724.65  26852.08  9.50
564.4  285884.90  26620.45  9.31
565.8  288897.15  26322.85  9.11
567.2  292055.05  25984.73  8.90
568.6  295084.35  25586.29  8.67
570.0  297968.13  25136.34  8.44
571.4  301402.93  24706.96  8.20
572.8  304543.40  24252.93  7.96
574.2  307398.53  23810.75  7.75
575.6  310448.50  23405.25  7.54
577.0  313491.75  23054.57  7.35
578.4  316903.13  22772.92  7.19
579.8  319955.05  22504.73  7.03
581.2  323003.25  22276.28  6.90
582.5  325890.00  22054.71  6.77
583.9  328945.70  21879.77  6.65
585.3  331866.80  21726.21  6.55
586.7  334857.60  21604.88  6.45
588.1  337873.30  21508.78  6.37
589.5  341215.95  21461.00  6.29
590.9  344175.95  21416.63  6.22
592.3  347113.35  21401.07  6.17
593.7  350061.08  21417.12  6.12
595.0  353010.00  21450.26  6.08
596.4  356309.50  21518.06  6.04
597.8  359005.30  21535.80  6.00
599.2  362124.75  21579.85  5.96
600.6  365313.30  21601.86  5.91
602.0  368295.00  21595.83  5.86
603.3  371202.00  21549.79  5.81
604.7  374178.30  21471.53  5.74
606.1  377215.80  21360.53  5.66
607.5  380564.00  21227.79  5.58
608.9  383633.25  21060.01  5.49
610.2  386840.03  20882.35  5.40
611.6  389757.50  20676.33  5.30
613.0  392558.28  20459.99  5.21
614.4  395362.15  20261.85  5.12
615.8  398598.50  20094.44  5.04
617.1  401331.28  19922.01  4.96
618.5  404601.45  19810.33  4.90
619.9  407345.70  19705.74  4.84
621.3  410330.05  19650.82  4.79
622.6  413244.00  19619.23  4.75
624.0  415964.63  19615.14  4.72
625.4  419065.05  19666.18  4.69
626.8  422078.80  19730.06  4.67
628.1  424917.15  19808.43  4.66
629.5  427707.53  19896.73  4.65
630.9  430584.95  19993.62  4.64
632.2  433670.98  20077.99  4.63
633.6  436178.60  20096.40  4.61
635.0  439161.05  20072.04  4.57
636.3  442222.75  19990.94  4.52
637.7  444922.08  19831.23  4.46
639.1  447926.05  19623.24  4.38
640.4  450673.00  19366.17  4.30
641.8  453526.20  19089.46  4.21
643.2  456129.10  18791.91  4.12
644.5  459025.00  18522.67  4.04
645.9  461741.70  18250.70  3.95
647.2  464758.53  18045.06  3.88
648.6  467772.80  17886.43  3.82
650.0  470676.60  17764.94  3.77
651.3  473009.95  17674.47  3.74
652.7  476041.50  17608.13  3.70
654.0  478885.85  17563.39  3.67
655.4  481242.30  17462.37  3.63
656.8  482985.30  17356.13  3.59
658.1  485686.95  17241.59  3.55
659.5  488894.40  17134.35  3.50
660.8  492061.50  17021.56  3.46
662.2  494796.48  16901.00  3.42
663.5  497602.83  16795.45  3.38
664.9  499731.28  16685.72  3.34
666.2  501916.68  16614.79  3.31
667.6  504492.75  16622.01  3.29
668.9  507340.80  16671.09  3.29
670.3  509955.25  16749.83  3.28
671.6  512488.80  16860.66  3.29
673.0  514778.40  17036.72  3.31
674.3  517220.55  17233.63  3.33
675.7  519782.40  17471.11  3.36
677.0  522112.13  17732.89  3.40
678.4  524419.40  18039.09  3.44
679.7  526799.10  18401.25  3.49
681.1  529401.10  18826.97  3.56
682.4  531636.75  19292.33  3.63
683.8  534009.75  19816.16  3.71
685.1  536270.85  20426.94  3.81
686.4  538531.18  21162.61  3.93
687.8  541076.33  22110.53  4.09
689.1  543485.60  23323.15  4.29
690.5  545437.65  24910.13  4.57
691.8  548192.98  27075.25  4.94
693.1  550623.00  29907.29  5.43
694.5  552979.80  33540.79  6.07
695.8  555470.70  38046.47  6.85
697.1  557786.80  43445.29  7.79
698.5  560145.00  49753.27  8.88
699.8  562527.20  56871.84  10.11
701.1  564426.98  64632.10  11.45
702.5  566564.25  72931.96  12.87
703.8  569030.55  81624.30  14.34
705.1  570960.80  90406.24  15.83
706.5  573285.18  99333.41  17.33
707.8  575201.23  108174.68  18.81
709.1  577481.55  117029.64  20.27
710.5  579718.85  125788.71  21.70
711.8  581704.00  134391.79  23.10
713.1  583682.00  142876.31  24.48
714.4  585828.40  151266.89  25.82
715.8  588146.05  159577.70  27.13
717.1  590464.60  167729.39  28.41
718.4  592694.40  175707.22  29.65
719.7  594965.93  183510.74  30.84
721.0  596727.75  190987.70  32.01
722.4  598659.75  198284.91  33.12
723.7  600657.30  205372.52  34.19
725.0  602457.50  212130.38  35.21
726.3  604744.40  218817.78  36.18
727.6  606534.75  225049.60  37.10
729.0  608387.15  231046.87  37.98
730.3  610394.53  236801.33  38.79
731.6  611987.00  242098.23  39.56
732.9  614063.78  247292.25  40.27
734.2  615693.38  252084.49  40.94
735.5  617553.20  256670.39  41.56
736.8  619588.55  261060.81  42.13
738.1  621445.05  265123.01  42.66
739.5  623308.20  268911.71  43.14
740.8  625278.23  272536.79  43.59
742.1  626949.45  275817.93  43.99
743.4  628752.60  278994.31  44.37
744.7  630728.00  282023.47  44.71
746.0  632247.85  284662.56  45.02
747.3  633824.10  287125.89  45.30
748.6  635400.50  289430.46  45.55
749.9  637288.80  291685.30  45.77
751.2  638665.78  293592.70  45.97
752.5  640398.93  295477.31  46.14
753.8  641777.85  297131.56  46.30
755.1  643395.90  298782.81  46.44
756.4  644636.68  300106.04  46.55
757.7  646723.00  301754.65  46.66
759.0  650434.25  304062.35  46.75
760.3  653241.60  305881.99  46.83
761.6  656124.30  307714.47  46.90
762.9  657618.50  308815.41  46.96
764.2  658504.05  309557.53  47.01
765.5  659467.30  310308.14  47.05
766.8  660069.85  310857.65  47.09
768.1  661235.40  311630.40  47.13
769.3  662544.90  312432.68  47.16
770.6  664052.15  313304.81  47.18
771.9  665306.00  314050.24  47.20
773.2  666844.43  314884.77  47.22
774.5  667875.15  315479.14  47.24
775.8  669031.23  316127.24  47.25
777.1  670328.88  316837.42  47.27
778.4  671677.00  317573.02  47.28
779.6  673024.80  318322.96  47.30
780.9  673869.38  318770.49  47.30
782.2  674987.33  319335.56  47.31
783.5  675951.75  319908.33  47.33
784.8  676864.13  320396.90  47.34
786.0  677804.68  320892.70  47.34
787.3  678795.05  321371.39  47.34
788.6  679700.38  321895.39  47.36
789.9  680533.50  322342.44  47.37
791.2  681981.85  323077.35  47.37
792.4  683150.88  323720.78  47.39
793.7  684867.30  324563.42  47.39
795.0  686059.00  325136.49  47.39
796.2  687481.70  325841.22  47.40
797.5  688880.00  326510.80  47.40
798.8  690351.38  327269.35  47.41
800.0  691530.00  327906.67  47.42
801.3  692874.00  328564.35  47.42
802.6  694008.00  329136.00  47.43
803.8  695232.83  329731.63  47.43
805.1  696345.75  330298.64  47.43
806.4  697369.00  330830.54  47.44
807.7  698615.30  331431.64  47.44
808.9  699821.13  332042.70  47.45
810.2  700854.00  332530.84  47.45
811.4  701950.40  333119.87  47.46
812.7  703318.80  333786.69  47.46
814.0  704688.60  334467.98  47.46
815.2  706122.30  335182.85  47.47
816.5  707393.75  335798.08  47.47
817.7  708289.75  336261.81  47.48
819.0  708990.80  336638.67  47.48
820.2  709883.10  337099.89  47.49
821.5  711004.40  337685.49  47.49
822.7  712065.55  338266.13  47.50
824.0  713042.20  338752.27  47.51
825.2  713770.20  339139.91  47.51
826.5  714624.00  339540.34  47.51
827.7  715648.78  340091.95  47.52
829.0  716559.75  340544.71  47.52
830.2  717545.80  341048.42  47.53
831.5  718489.35  341515.03  47.53
832.7  719308.80  342048.23  47.55
834.0  719998.20  342384.52  47.55
835.2  721018.65  342937.88  47.56
836.4  721777.20  343326.71  47.57
837.7  722475.00  343758.86  47.58
838.9  723717.65  344356.34  47.58
840.1  724544.70  344842.30  47.59
841.4  725570.30  345357.80  47.60
842.6  726474.70  345849.05  47.61
843.8  727174.50  346273.57  47.62
845.1  727970.10  346726.07  47.63
846.3  728866.95  347174.42  47.63
847.5  729677.00  347625.57  47.64
848.8  730591.30  348137.75  47.65
850.0  731781.80  348738.70  47.66
851.2  732670.75  349196.45  47.66
852.5  733748.30  349771.94  47.67
853.7  734356.80  350145.57  47.68
854.9  735559.50  350701.93  47.68
856.1  736527.75  351181.27  47.68
857.4  737291.63  351653.51  47.70
858.6  738208.80  352089.31  47.70
859.8  739360.50  352706.70  47.70
861.0  740325.60  353157.97  47.70
862.2  741348.30  353617.96  47.70
863.5  742272.28  354088.78  47.70
864.7  743187.50  354534.05  47.70
865.9  744174.63  355030.67  47.71
867.1  744803.13  355350.77  47.71
868.3  745926.43  355960.22  47.72
869.5  747050.90  356475.42  47.72
870.8  748241.10  357024.54  47.72
872.0  749054.93  357484.01  47.72
873.2  749991.93  357885.60  47.72
874.4  750970.35  358252.00  47.71
875.6  751885.20  358784.98  47.72
876.8  753195.30  359408.28  47.72
878.0  754342.75  359902.25  47.71
879.2  755450.25  360391.29  47.71
880.4  756462.00  360921.94  47.71
881.6  757396.90  361387.96  47.71
882.8  758593.05  361924.70  47.71
884.0  759564.65  362306.56  47.70
885.2  760775.50  362947.82  47.71
886.5  762097.70  363623.42  47.71
887.7  763294.05  364059.55  47.70
888.8  764630.30  364683.39  47.69
890.0  765502.50  365064.00  47.69
891.2  766688.33  365508.24  47.67
892.4  767980.13  366172.64  47.68
893.6  769967.60  367012.78  47.67
894.8  771287.85  367768.89  47.68
896.0  772918.88  368462.74  47.67
897.2  774835.88  369305.50  47.66
898.4  776708.10  370167.52  47.66
899.6  778150.90  370733.27  47.64
900.8  778704.55  371007.64  47.64
902.0  779336.90  371271.07  47.64
903.2  779472.70  371428.56  47.65
904.3  780755.63  371913.75  47.64
905.5  782075.25  372535.59  47.63
906.7  783190.95  373021.33  47.63
907.9  784286.93  373378.15  47.61
909.1  785656.03  373900.08  47.59
910.2  786003.75  374080.50  47.59
911.4  786168.23  374206.37  47.60
912.6  786670.00  374420.00  47.60
913.8  787852.10  374886.47  47.58
915.0  788353.40  374931.33  47.56
916.2  788523.08  375019.78  47.56
917.3  789532.30  375356.63  47.54
918.5  789728.10  375560.91  47.56
919.7  789826.50  375582.36  47.55
920.8  790414.85  375628.67  47.52
922.0  790713.83  375591.95  47.50
923.2  791047.50  375759.25  47.50
924.4  791700.75  375978.16  47.49
925.5  792414.40  376314.00  47.49
926.7  793673.90  376665.69  47.46
927.9  794956.25  377322.72  47.46
929.0  798141.60  378694.03  47.45
930.2  802734.80  380596.42  47.41
931.4  807825.13  382915.10  47.40
932.5  812418.20  384964.27  47.38
933.7  815424.00  386131.17  47.35
934.9  816821.25  386742.50  47.35
936.0  815763.38  386157.70  47.34
937.2  813108.18  384618.33  47.30
938.3  809090.75  382590.56  47.29
939.5  807194.70  381411.98  47.25
940.7  807339.23  381264.03  47.22
941.8  810553.25  382494.73  47.19
943.0  812832.60  383301.93  47.16
944.2  814716.00  384035.08  47.14
945.3  814108.80  383497.03  47.11
946.5  812323.75  382449.17  47.08
947.6  813343.75  382626.06  47.04
948.8  812777.68  381960.49  46.99
949.9  813039.33  381911.42  46.97
951.1  813605.50  381654.25  46.91
952.2  812993.60  380864.40  46.85
953.4  812689.05  380417.26  46.81
954.5  811440.00  379356.25  46.75
955.7  811126.95  378800.20  46.70
956.8  811727.55  378697.78  46.65
958.0  810881.10  377970.37  46.61
959.1  810583.20  377464.32  46.57
960.3  810762.50  377012.38  46.50
961.4  811411.40  377021.35  46.46
962.6  810914.40  376639.54  46.45
963.7  810982.20  376608.64  46.44
964.9  811238.23  376712.59  46.44
966.0  811794.20  376830.30  46.42
967.2  812368.20  376976.64  46.40
968.3  814136.70  377586.57  46.38
969.5  814096.43  377629.38  46.39
970.6  814807.20  377701.27  46.35
971.8  814831.68  377567.86  46.34
972.9  815314.50  378048.67  46.37
974.0  815660.33  378581.31  46.41
975.2  815028.75  378053.68  46.39
976.3  814883.78  378330.23  46.43
977.5  815377.05  378052.41  46.37
978.6  816026.10  378304.19  46.36
979.7  815830.40  378240.43  46.36
980.9  815840.75  378543.12  46.40
982.0  814918.25  378445.53  46.44
983.2  814476.60  378771.49  46.50
984.3  813167.25  377992.38  46.48
985.4  813099.70  377821.56  46.47
986.6  814417.28  378452.93  46.47
987.7  813319.75  378035.36  46.48
988.9  814160.50  378872.06  46.54
990.0  813807.50  378846.77  46.55
993.1  837862.80  385052.23  45.96
996.9  838775.30  386630.44  46.09
1000.7  838861.85  387666.55  46.21
1004.5  838182.73  388149.39  46.31
1008.4  838954.86  389402.51  46.42
1012.2  840081.04  390810.05  46.52
1016.0  840057.38  391717.44  46.63
1019.8  839167.57  392144.57  46.73
1023.7  838631.56  392569.89  46.81
1027.5  837293.47  392538.35  46.88
1031.3  836758.70  392618.98  46.92
1035.1  836332.80  392736.48  46.96
1038.9  836238.43  392901.21  46.98
1042.7  835936.60  392998.58  47.01
1046.5  835260.13  392776.75  47.02
1050.3  833708.84  392138.45  47.04
1054.2  831769.13  391399.13  47.06
1058.0  830786.40  390984.17  47.06
1061.8  829562.08  390496.60  47.07
1065.6  828051.04  389726.07  47.07
1069.4  826486.88  388931.66  47.06
1073.2  825217.25  388319.05  47.06
1077.0  823835.47  387624.91  47.05
1080.8  822750.50  386921.33  47.03
1084.6  821393.83  386049.19  47.00
1088.4  820015.93  385173.51  46.97
1092.2  818468.70  384173.83  46.94
1096.0  817225.80  383252.12  46.90
1099.8  815927.00  382249.91  46.85
1103.6  814355.27  381117.69  46.80
1107.4  813061.44  380045.23  46.74
1111.2  811678.48  378956.03  46.69
1114.9  810385.50  377899.93  46.63
1118.7  809537.42  376866.72  46.55
1122.5  809302.43  375902.72  46.45
1126.3  806778.00  373729.05  46.32
1130.1  806140.00  372026.84  46.15
1133.9  802870.43  368619.27  45.91
1137.7  800356.60  365130.86  45.62
1141.4  796856.98  360838.75  45.28
1145.2  796193.55  357455.06  44.90
1149.0  794322.15  353739.88  44.53
1152.8  791160.60  349826.13  44.22
1156.6  787883.84  346466.09  43.97
1160.3  784792.80  343771.52  43.80
1164.1  780204.00  340902.28  43.69
1167.9  777022.33  339028.19  43.63
1171.7  774574.00  337646.00  43.59
1175.4  772449.38  336536.08  43.57
1179.2  770687.25  335573.89  43.54
1183.0  770843.50  335379.57  43.51
1186.7  770546.00  334949.00  43.47
1190.5  768690.21  333872.03  43.43
1194.3  765739.57  332379.73  43.41
1198.0  762934.03  331096.06  43.40
1201.8  760554.67  330124.67  43.41
1205.6  758922.46  329598.50  43.43
1209.3  757518.75  329360.04  43.48
1213.1  755921.17  329010.96  43.52
1216.8  753852.13  328584.15  43.59
1220.6  751675.00  328100.95  43.65
1224.3  749466.67  327570.83  43.71
1228.1  747556.16  327254.17  43.78
1231.9  745488.90  326774.31  43.83
1235.6  743257.63  326162.46  43.88
1239.4  741092.90  325605.61  43.94
1243.1  739023.30  324960.68  43.97
1246.9  737125.77  324301.34  44.00
1250.6  735147.45  323556.72  44.01
1254.3  733257.60  322832.91  44.03
1258.1  731308.67  322062.57  44.04
1261.8  728941.27  321047.63  44.04
1265.6  726437.93  319869.32  44.03
1269.3  723653.60  318472.65  44.01
1273.1  723913.27  318305.31  43.97
1276.8  724450.80  318211.90  43.92
1280.6  724534.07  317902.38  43.88
1284.3  722272.72  316558.92  43.83
1288.0  720173.13  315105.45  43.75
1291.8  718011.00  313416.00  43.65
1295.5  715899.39  311669.78  43.54
1299.2  713545.95  309695.66  43.40
1302.9  710874.82  307416.01  43.24
1306.7  707945.18  304874.78  43.06
1310.4  705098.28  302102.65  42.85
1314.1  702845.63  299433.22  42.60
1317.9  700536.96  296467.38  42.32
1321.6  697863.83  293162.90  42.01
1325.3  695108.25  289547.52  41.66
1329.0  692435.33  285849.67  41.28
1332.8  688568.75  281403.57  40.87
1336.5  684898.38  277028.14  40.45
1340.2  682911.40  273303.09  40.02
1343.9  681847.35  269938.10  39.59
1347.6  680772.93  266569.43  39.16
1351.4  679687.50  263361.43  38.75
1355.1  679918.89  260653.34  38.34
1358.8  678303.23  257107.74  37.90
1362.5  677813.09  253727.80  37.43
1366.2  675562.29  249137.23  36.88
1369.9  671809.00  243343.72  36.22
1373.6  667942.28  236516.38  35.41
1377.3  665247.97  228676.50  34.37
1381.0  662434.55  218974.71  33.06
1384.8  658759.65  207030.05  31.43
1388.4  654684.25  193704.36  29.59
1392.2  650665.65  179452.61  27.58
1395.9  648777.62  165480.20  25.51
1399.6  644960.23  151693.12  23.52
1403.3  642741.60  139585.03  21.72
1407.0  640666.13  129200.30  20.17
1410.7  639547.90  120888.86  18.90
1414.3  637801.00  114328.43  17.93
1418.1  635906.25  109427.08  17.21
1421.7  634196.27  105870.33  16.69
1425.4  632970.98  103486.20  16.35
1429.1  629601.00  101603.25  16.14
1432.8  628316.18  100704.05  16.03
1436.5  625022.13  99924.73  15.99
1440.2  621538.17  99473.93  16.00
1443.9  619288.83  99442.63  16.06
1447.6  615774.40  99386.29  16.14
1451.2  612861.00  99510.72  16.24
1454.9  611265.32  99934.67  16.35
1458.6  607675.39  100283.27  16.50
1462.3  606821.67  101404.01  16.71
1466.0  606796.88  103046.31  16.98
1469.7  605009.53  104832.93  17.33
1473.3  602889.47  106891.40  17.73
1477.0  598822.76  108867.56  18.18
1480.7  595680.71  111143.35  18.66
1484.4  592092.80  113368.68  19.15
1488.0  589003.55  115773.02  19.66
1491.7  585503.52  118033.35  20.16
1495.4  582011.62  120300.03  20.67
1499.0  579092.48  122575.56  21.17
1502.7  576342.22  124866.26  21.67
1506.4  573652.57  127072.27  22.15
1510.0  570973.54  129194.46  22.63
1513.7  568314.92  131251.76  23.09
1517.4  565776.87  133257.50  23.55
1521.0  563418.53  135192.16  23.99
1524.7  560964.25  136972.61  24.42
1528.3  558581.60  138689.74  24.83
1532.0  556066.60  140266.27  25.22
1535.7  553396.50  141667.23  25.60
1539.3  550829.10  143036.09  25.97
1543.0  549189.96  144550.29  26.32
1546.6  547877.42  146051.43  26.66
1550.3  546333.72  147402.34  26.98
1553.9  543989.73  148437.36  27.29
1557.6  541796.88  149444.30  27.58
1561.2  539310.30  150220.55  27.85
1564.9  536647.50  150918.07  28.12
1568.5  533936.00  151518.09  28.38
1572.2  531631.22  152145.47  28.62
1575.8  529780.75  152873.08  28.86
1579.5  527971.07  153512.14  29.08
1583.1  525691.83  154029.85  29.30
1586.8  523528.00  154490.02  29.51
1590.4  521415.27  154914.04  29.71
1594.0  519108.82  155228.10  29.90
1597.7  516811.83  155524.71  30.09
1601.3  514372.95  155738.80  30.28
1604.9  511662.07  155771.84  30.44
1608.6  508891.95  155712.60  30.60
1612.2  506309.54  155657.02  30.74
1615.8  504131.40  155663.91  30.88
1619.5  501978.58  155644.18  31.01
1623.1  499275.15  155375.43  31.12
1626.7  496523.00  155009.96  31.22
1630.3  494007.00  154667.66  31.31
1634.0  491569.87  154333.51  31.40
1637.6  489375.83  153965.60  31.46
1641.2  487142.48  153459.07  31.50
1644.8  484636.16  152731.92  31.51
1648.5  482029.03  151891.59  31.51
1652.1  479922.08  151069.34  31.48
1655.7  478071.83  150290.57  31.44
1659.3  476250.08  149541.98  31.40
1662.9  473026.00  148406.21  31.37
1666.6  469441.78  147198.15  31.36
1670.2  466163.50  145999.03  31.32
1673.8  463002.50  144751.09  31.26
1677.4  460461.30  143645.50  31.20
1681.0  458807.53  142669.03  31.10
1684.6  457926.79  141734.94  30.95
1688.2  456456.00  140384.40  30.76
1691.8  454828.05  139010.32  30.56
1695.4  453981.38  137866.70  30.37
1699.0  453140.60  136751.62  30.18
1702.6  452581.07  135656.13  29.97
1706.2  451095.73  134168.04  29.74
1709.8  448948.29  132511.17  29.52
1713.4  447385.90  131163.68  29.32
1717.0  445698.18  130010.50  29.17
1720.6  444039.45  129014.00  29.05
1724.2  442678.93  128146.81  28.95
1727.8  441340.28  127356.64  28.86
1731.4  440605.43  126722.55  28.76
1735.0  440531.80  126267.04  28.66
1738.6  439930.50  125511.00  28.53
1742.2  438977.95  124517.84  28.37
1745.8  437273.60  123175.01  28.17
1749.4  434891.42  121599.57  27.96
1753.0  431189.20  119635.94  27.75
1756.6  427374.50  117737.00  27.55
1760.1  424159.60  116069.20  27.36
1763.7  420407.57  114320.95  27.19
1767.3  417364.30  112833.62  27.03
1770.9  414752.54  111456.66  26.87
1774.5  411723.67  110050.35  26.73
1778.0  409619.13  108972.56  26.60
1781.6  407352.17  108055.94  26.53
1785.2  404767.00  107169.14  26.48
1788.8  402055.00  106363.13  26.45
1792.3  399800.96  105732.11  26.45
1795.9  399297.25  105600.34  26.45
1799.5  399398.39  105655.45  26.45
1803.1  399885.67  105775.91  26.45
1806.6  400699.00  105882.09  26.42
1810.2  402234.53  106164.53  26.39
1813.8  402075.27  106026.72  26.37
1817.3  401916.90  105917.55  26.35
1820.9  401259.38  105678.57  26.34
1824.5  400310.28  105312.92  26.31
1828.0  400822.07  105226.40  26.25
1831.6  401337.16  105097.30  26.19
1835.2  400546.14  104439.09  26.07
1838.7  400799.58  103822.08  25.90
1842.3  399159.25  102499.50  25.68
1845.8  397836.45  100979.03  25.38
1849.4  397368.07  99285.33  24.99
1852.9  395820.83  96874.70  24.47
1856.5  394409.38  93940.26  23.82
1860.0  394247.87  90656.70  22.99
1863.6  393412.26  86538.92  22.00
1867.1  392814.34  81761.72  20.81
1870.7  393089.68  76132.65  19.37
1874.2  392247.88  69321.86  17.67
1877.8  389391.73  61823.44  15.88
1881.3  386733.88  54191.87  14.01
1884.9  384548.83  46963.01  12.21
1888.4  382517.87  40186.08  10.51
1891.9  381012.32  34426.38  9.04
1895.5  379453.90  29820.62  7.86
1899.0  378512.75  26434.70  6.98
1901.3  395362.40  18738.22  4.74
1904.1  395348.75  16983.72  4.30
1906.8  393810.95  15628.95  3.97
1909.6  390389.67  14519.96  3.72
1912.4  386850.93  13716.31  3.55
1915.1  383186.10  13150.60  3.43
1917.9  379461.10  12743.63  3.36
1920.6  376717.37  12466.94  3.31
1923.3  374347.60  12333.60  3.29
1926.1  371262.60  12212.90  3.29
1928.8  367811.60  12156.73  3.31
1931.6  366878.98  12251.71  3.34
1934.3  363201.67  12306.83  3.39
1937.0  359437.20  12379.80  3.44
1939.8  356275.87  12496.69  3.51
1942.5  351944.00  12624.81  3.59
1945.2  348558.08  12820.36  3.68
1947.9  345941.70  13067.67  3.78
1950.7  341949.02  13280.15  3.88
1953.4  338586.23  13543.16  4.00
1956.1  335990.27  13843.60  4.12
1958.8  333894.17  14209.03  4.26
1961.5  331053.10  14567.82  4.40
1964.2  327778.00  14913.09  4.55
1966.9  324890.13  15294.40  4.71
1969.6  322257.67  15718.01  4.88
1972.3  319813.93  16162.50  5.05
1975.0  317378.00  16616.00  5.24
1977.7  315166.98  17118.70  5.43
1980.4  312989.60  17610.76  5.63
1983.1  310688.83  18117.56  5.83
1985.8  308611.20  18625.20  6.04
1988.4  306593.10  19149.35  6.25
1991.1  304824.80  19691.00  6.46
1993.8  303322.60  20245.87  6.67
1996.5  301820.40  20800.73  6.89
1999.1  300442.87  21386.68  7.12
2001.8  299268.10  21980.03  7.34
2004.5  298058.75  22556.35  7.57
2007.1  296582.47  23079.58  7.78
2009.8  294673.75  23581.25  8.00
2012.4  293377.32  24127.07  8.22
2015.1  292237.53  24649.41  8.43
2017.8  291088.65  25167.19  8.65
2020.4  289981.00  25671.57  8.85
2023.1  289551.72  26227.14  9.06
2025.7  289272.45  26753.56  9.25
2028.3  288468.40  27234.62  9.44
2031.0  287891.32  27694.98  9.62
2033.6  287615.75  28171.58  9.79
2036.2  287223.77  28602.62  9.96
2038.9  286249.60  28953.60  10.11
2041.5  285312.50  29305.56  10.27
2044.1  284541.67  29625.00  10.41
2046.8  283418.92  29906.61  10.55
2049.4  282576.40  30194.07  10.69
2052.0  282372.72  30509.77  10.80
2054.6  281956.27  30813.51  10.93
2057.2  280891.20  31062.78  11.06
2059.8  279426.00  31297.00  11.20
2062.4  278092.53  31503.98  11.33
2065.0  276744.35  31708.32  11.46
2067.6  274905.67  31872.51  11.59
2070.2  273433.33  32047.79  11.72
2072.8  272565.33  32306.70  11.85
2075.4  271547.17  32512.00  11.97
2078.0  270892.20  32770.82  12.10
2080.6  269668.70  32933.16  12.21
2083.2  268398.15  33104.78  12.33
2085.8  267109.85  33241.95  12.45
2088.4  266010.55  33429.73  12.57
2090.9  264385.50  33511.33  12.68
2093.5  262535.20  33569.47  12.79
2096.1  260767.65  33619.30  12.89
2098.7  259282.35  33707.35  13.00
2101.2  257399.20  33726.40  13.10
2103.8  255950.58  33795.50  13.20
2106.4  254520.83  33857.52  13.30
2108.9  253546.30  33972.31  13.40
2111.5  252611.33  34087.28  13.49
2114.0  252026.67  34240.56  13.59
2116.6  249886.63  34166.24  13.67
2119.1  248812.20  34235.37  13.76
2121.7  248264.93  34355.77  13.84
2124.2  248092.17  34518.50  13.91
2126.8  246981.40  34534.67  13.98
2129.3  245861.60  34572.45  14.06
2131.9  246034.13  34764.09  14.13
2134.4  245228.08  34813.99  14.20
2136.9  244972.00  34936.18  14.26
2139.4  243893.33  34947.58  14.33
2142.0  243449.53  34999.06  14.38
2144.5  242928.92  35071.92  14.44
2147.0  242462.15  35166.73  14.50
2149.5  242077.97  35250.39  14.56
2152.1  242413.17  35429.91  14.62
2154.6  242486.40  35542.40  14.66
2157.1  242405.80  35649.74  14.71
2159.6  241330.93  35595.22  14.75
2162.1  241105.57  35688.97  14.80
2164.6  240434.40  35674.78  14.84
2167.1  239500.20  35646.95  14.88
2169.6  239619.48  35756.76  14.92
2172.1  238856.60  35754.40  14.97
2174.6  238482.77  35801.66  15.01
2177.1  237413.50  35755.72  15.06
2179.5  236929.30  35792.63  15.11
2182.0  236621.92  35859.94  15.15
2184.5  235630.90  35851.18  15.21
2187.0  234837.53  35829.11  15.26
2189.5  233844.00  35826.10  15.32
2191.9  232655.68  35774.51  15.38
2194.4  231012.25  35627.75  15.42
2196.9  229936.12  35583.23  15.48
2199.3  228550.10  35457.43  15.51
2201.8  227411.68  35347.98  15.54
2204.3  226706.00  35312.13  15.58
2206.7  225539.15  35187.32  15.60
2209.2  224347.50  35072.55  15.63
2211.6  222442.70  34820.04  15.65
2214.1  221775.05  34758.38  15.67
2216.5  221425.22  34727.58  15.68
2219.0  220075.53  34537.92  15.69
2221.4  220143.15  34529.10  15.68
2223.9  219017.07  34317.69  15.67
2226.3  217728.12  34061.18  15.64
2228.7  216840.87  33843.04  15.61
2231.1  216185.57  33611.45  15.55
2233.6  215179.20  33292.80  15.47
2236.0  214140.73  32968.46  15.40
2238.4  213328.38  32585.39  15.27
2240.9  212624.00  32240.67  15.16
2243.3  211786.57  31834.86  15.03
2245.7  210980.50  31428.31  14.90
2248.1  209996.80  30978.13  14.75
2250.5  209250.80  30504.71  14.58
2252.9  208575.40  30064.17  14.41
2255.3  207839.13  29584.51  14.23
2257.7  206978.57  29108.57  14.06
2260.1  206070.40  28617.73  13.89
2262.5  205019.60  28125.47  13.72
2264.9  204066.03  27665.63  13.56
2267.3  203174.40  27217.67  13.40
2269.7  202258.43  26810.53  13.26
2272.1  201487.33  26430.56  13.12
2274.5  200767.67  26056.98  12.98
2276.8  200124.00  25733.69  12.86
2279.2  199357.20  25403.10  12.74
2281.6  198787.50  25091.40  12.62
2284.0  198425.70  24799.50  12.50
2286.3  197919.20  24495.44  12.38
2288.7  197338.63  24176.85  12.25
2291.1  196816.50  23871.33  12.13
2293.4  196111.60  23526.43  12.00
2295.8  195442.87  23216.85  11.88
2298.2  194623.40  22849.00  11.74
2300.5  193574.75  22476.27  11.61
2302.9  192202.60  22127.07  11.51
2305.2  190794.92  21739.86  11.39
2307.6  189352.80  21398.84  11.30
2309.9  188418.08  21120.33  11.21
2312.2  187403.00  20886.89  11.15
2314.6  186399.63  20660.72  11.08
2316.9  185402.03  20430.16  11.02
2319.2  184659.38  20226.01  10.95
2321.6  183996.20  20035.58  10.89
2323.9  183232.40  19783.93  10.80
2326.2  182336.80  19508.87  10.70
2328.6  181605.25  19283.22  10.62
2330.9  181304.93  19132.22  10.55
2333.2  180873.75  18985.08  10.50
2335.5  180362.22  18753.15  10.40
2337.8  179823.40  18556.33  10.32
2340.1  179251.33  18381.98  10.25
2342.4  178860.15  18212.85  10.18
2344.8  178183.38  17949.89  10.07
2347.1  177473.40  17729.93  9.99
2349.4  176818.40  17520.85  9.91
2351.6  176092.00  17302.67  9.83
2353.9  175070.60  17100.87  9.77
2356.2  174263.72  16906.28  9.70
2358.5  173475.20  16695.41  9.62
2360.8  172781.25  16493.06  9.55
2363.1  172360.17  16352.53  9.49
2365.4  171882.00  16213.50  9.43
2367.7  171361.47  16028.29  9.35
2369.9  170628.33  15828.20  9.28
2372.2  169436.05  15563.45  9.19
2374.5  168257.50  15342.50  9.12
2376.7  167357.30  15113.73  9.03
2379.0  166152.80  14888.87  8.96
2381.3  164706.85  14590.95  8.86
2383.5  163767.33  14304.89  8.73
2385.8  163182.25  14103.83  8.64
2388.0  162367.30  13867.08  8.54
2390.3  161631.42  13672.38  8.46
2392.5  161158.75  13465.09  8.36
2394.8  160260.67  13228.17  8.25
2397.0  159754.53  13012.05  8.15
2399.3  159206.07  12796.24  8.04
2401.5  158351.60  12555.07  7.93
2403.8  157655.03  12324.88  7.82
2406.0  157283.13  12147.06  7.72
2408.2  156459.45  11970.70  7.65
2410.4  155605.45  11693.29  7.51
2412.7  155170.00  11484.33  7.40
2414.9  154579.87  11292.53  7.31
2417.1  154468.47  11155.75  7.22
2419.3  154071.57  10920.05  7.09
2421.6  153302.57  10744.38  7.01
2423.8  152640.93  10502.99  6.88
2426.0  152264.40  10336.83  6.79
2428.2  151998.00  10125.50  6.66
2430.4  151908.90  9993.49  6.58
2432.6  151846.50  9803.63  6.46
2434.8  151237.10  9595.65  6.34
2437.0  150672.60  9409.40  6.24
2439.2  150207.20  9212.38  6.13
2441.4  149401.20  9064.13  6.07
2443.6  149275.33  8905.27  5.97
2445.7  149358.37  8748.85  5.86
2447.9  149353.75  8600.15  5.76
2450.1  148547.42  8389.50  5.65
2452.3  147619.63  8230.99  5.58
2454.5  147099.87  7994.31  5.43
2456.6  146318.50  7806.42  5.34
2458.8  145185.60  7625.49  5.25
2461.0  144868.97  7510.68  5.18
2463.1  144528.67  7398.83  5.12
2465.3  143880.00  7266.67  5.05
2467.5  143502.67  7096.56  4.95
2469.6  143015.92  6967.25  4.87
2471.8  142486.47  6792.31  4.77
2473.9  141911.25  6717.39  4.73
2476.1  141107.08  6674.86  4.73
2478.2  140313.12  6591.54  4.70
2480.4  139519.53  6411.94  4.60
2482.5  138619.52  6292.29  4.54
2484.6  137678.00  6095.33  4.43
2486.8  136838.93  6033.76  4.41
2488.9  136488.20  6006.27  4.40
2491.1  135097.00  5891.02  4.36
2493.2  133781.83  5706.88  4.27
2495.3  132134.97  5556.26  4.20
2497.4  130924.93  5513.55  4.21
2499.5  130113.73  5465.72  4.20
2501.7  130139.00  5369.67  4.13
2503.8  130335.10  5403.61  4.15
2505.9  130820.20  5434.95  4.15
2508.0  131779.92  5445.72  4.13
2510.1  132643.20  5392.00  4.07
2512.2  133532.92  5369.03  4.02
2514.3  134711.85  5455.96  4.05
2516.4  136171.73  5524.51  4.06
