/*** Spectra Vista SIG Data ***/
name= 24_20220926_TITO_08_avg.sig
comm= Averaged Ref/Tar of files: HR.092622.0068_moc.sig,HR.092622.0069_moc.sig
data=
337.3  3027.13  198.50  6.56
338.8  3174.60  202.02  6.36
340.3  3326.35  192.09  5.77
341.8  3520.83  210.34  5.97
343.2  3640.80  226.44  6.22
344.7  3795.85  217.52  5.73
346.2  3962.45  208.34  5.26
347.7  4168.45  196.63  4.72
349.2  4384.80  181.44  4.14
350.6  4590.63  201.99  4.40
352.1  4894.33  203.64  4.16
353.6  5135.60  225.55  4.39
355.1  5388.00  225.63  4.19
356.6  5670.08  222.87  3.93
358.0  5965.30  229.68  3.85
359.5  6210.90  225.57  3.63
361.0  6553.58  236.41  3.61
362.5  6908.90  248.84  3.60
364.0  7254.78  260.95  3.60
365.4  7615.10  269.76  3.54
366.9  7956.00  279.02  3.51
368.4  8318.88  278.21  3.34
369.9  8675.03  289.17  3.33
371.3  9078.00  304.38  3.35
372.8  9504.90  323.91  3.41
374.3  9916.88  333.25  3.36
375.8  10348.80  339.57  3.28
377.2  10786.90  347.01  3.22
378.7  11190.40  344.32  3.08
380.2  11593.90  357.77  3.09
381.7  12080.18  370.25  3.06
383.1  12558.70  382.69  3.05
384.6  13055.90  396.54  3.04
386.1  13539.53  399.97  2.95
387.6  14014.00  415.03  2.96
389.0  14498.80  420.76  2.90
390.5  15000.75  430.11  2.87
392.0  15552.60  441.72  2.84
393.4  16106.58  454.56  2.82
394.9  16677.90  469.80  2.82
396.4  17206.88  483.87  2.81
397.9  17732.50  489.44  2.76
399.3  18309.98  501.44  2.74
400.8  18893.15  518.44  2.74
402.2  19517.25  530.28  2.72
403.7  20102.63  541.69  2.69
405.2  20739.30  558.73  2.69
406.6  21320.80  575.36  2.70
408.1  21899.40  583.08  2.66
409.6  22520.70  601.43  2.67
411.0  23186.10  621.29  2.68
412.5  23844.63  639.33  2.68
414.0  24511.13  649.97  2.65
415.4  25221.38  667.80  2.65
416.9  25867.05  686.19  2.65
418.4  26593.20  705.92  2.65
419.8  27300.00  729.82  2.67
421.3  28038.73  757.57  2.70
422.7  28814.40  779.52  2.71
424.2  29581.88  798.19  2.70
425.7  30366.90  823.15  2.71
427.1  31127.78  848.22  2.72
428.6  31930.00  875.75  2.74
430.0  32671.78  901.40  2.76
431.5  33536.48  925.35  2.76
432.9  34412.85  955.18  2.78
434.4  35325.45  984.13  2.79
435.9  36162.00  1012.20  2.80
437.3  37028.75  1038.13  2.80
438.8  37860.68  1065.64  2.81
440.2  38727.15  1091.48  2.82
441.7  39690.80  1124.26  2.83
443.1  40611.25  1152.75  2.84
444.6  41579.40  1188.17  2.86
446.0  42532.05  1224.84  2.88
447.5  43505.55  1256.31  2.89
448.9  44440.50  1290.00  2.90
450.4  45454.50  1319.61  2.90
451.8  46345.00  1348.10  2.91
453.3  47266.13  1378.11  2.92
454.7  48273.20  1415.00  2.93
456.2  49157.33  1446.82  2.94
457.6  50126.40  1481.49  2.96
459.1  51114.70  1515.06  2.96
460.5  52055.50  1546.15  2.97
462.0  53139.73  1577.02  2.97
463.4  54169.80  1607.01  2.97
464.8  55167.00  1640.03  2.97
466.3  56142.08  1675.99  2.99
467.7  57130.43  1705.89  2.99
469.2  58200.13  1741.08  2.99
470.6  59206.70  1768.90  2.99
472.0  60255.08  1804.42  2.99
473.5  61274.25  1840.49  3.00
474.9  62315.25  1873.88  3.01
476.4  63475.20  1912.32  3.01
477.8  64539.50  1951.70  3.02
479.2  65554.50  1985.05  3.03
480.7  66657.38  2017.82  3.03
482.1  67813.85  2054.79  3.03
483.6  69013.20  2092.36  3.03
485.0  70102.43  2129.28  3.04
486.4  71309.55  2172.32  3.05
487.9  72393.75  2217.15  3.06
489.3  73551.38  2260.29  3.07
490.7  74611.58  2304.47  3.09
492.2  75852.00  2356.41  3.11
493.6  76971.10  2408.46  3.13
495.0  78097.50  2461.39  3.15
496.5  79274.35  2521.17  3.18
497.9  80404.33  2575.47  3.20
499.3  81563.65  2644.44  3.24
500.7  82831.10  2716.11  3.28
502.2  83993.80  2798.82  3.33
503.6  85264.00  2893.72  3.39
505.0  86361.75  2988.60  3.46
506.5  87689.63  3104.23  3.54
507.9  88861.05  3227.41  3.63
509.3  90220.80  3374.40  3.74
510.7  91450.13  3537.79  3.87
512.2  92842.65  3722.97  4.01
513.6  94336.90  3939.08  4.18
515.0  95776.93  4176.46  4.36
516.4  97183.80  4442.45  4.57
517.8  98818.50  4757.30  4.81
519.3  100143.63  5072.63  5.07
520.7  101722.00  5430.33  5.34
522.1  103023.70  5794.04  5.62
523.5  104375.10  6174.38  5.92
524.9  105852.60  6576.03  6.21
526.3  107323.65  6969.80  6.49
527.8  108820.80  7374.51  6.78
529.2  109827.90  7746.51  7.05
530.6  111351.70  8148.36  7.32
532.0  113078.00  8540.00  7.55
533.4  114410.10  8880.77  7.76
534.8  115282.33  9166.25  7.95
536.3  116951.40  9487.95  8.11
537.7  118956.60  9828.00  8.26
539.1  120427.58  10106.50  8.39
540.5  121644.75  10350.95  8.51
541.9  123390.23  10636.36  8.62
543.3  124662.75  10879.35  8.73
544.7  125981.40  11122.98  8.83
546.1  127768.30  11401.28  8.92
547.5  129012.80  11627.84  9.01
549.0  130691.00  11887.70  9.10
550.4  132196.25  12110.38  9.16
551.8  133762.23  12318.46  9.21
553.2  135274.15  12490.39  9.23
554.6  136614.40  12615.20  9.23
556.0  138151.80  12720.15  9.21
557.4  139769.53  12796.81  9.16
558.8  141412.05  12846.42  9.08
560.2  142874.13  12844.25  8.99
561.6  144532.20  12827.97  8.88
563.0  146126.25  12776.36  8.74
564.4  147721.10  12697.98  8.60
565.8  149238.75  12583.19  8.43
567.2  150983.75  12460.33  8.25
568.6  152478.38  12297.45  8.07
570.0  153913.40  12103.23  7.86
571.4  155628.20  11920.74  7.66
572.8  157396.50  11740.22  7.46
574.2  159028.80  11557.28  7.27
575.6  160582.50  11382.75  7.09
577.0  162109.80  11224.29  6.92
578.4  163834.13  11100.87  6.78
579.8  165366.23  10981.58  6.64
581.2  167085.13  10890.92  6.52
582.5  168515.10  10800.27  6.41
583.9  170038.00  10732.10  6.31
585.3  171839.25  10689.57  6.22
586.7  173328.35  10637.32  6.14
588.1  174818.25  10602.10  6.06
589.5  176461.25  10588.90  6.00
590.9  178088.80  10593.32  5.95
592.3  179904.25  10619.81  5.90
593.7  181366.58  10635.60  5.86
595.0  182987.10  10669.12  5.83
596.4  184446.85  10690.23  5.80
597.8  185926.50  10718.89  5.77
599.2  187466.40  10738.20  5.73
600.6  189228.33  10762.61  5.69
602.0  190527.60  10741.35  5.64
603.3  192328.70  10728.89  5.58
604.7  194020.90  10693.85  5.51
606.1  195504.60  10627.38  5.44
607.5  197150.15  10557.94  5.36
608.9  198849.65  10479.90  5.27
610.2  200236.05  10376.10  5.18
611.6  201839.25  10276.76  5.09
613.0  203412.65  10174.25  5.00
614.4  204791.25  10067.15  4.92
615.8  206256.38  9977.18  4.84
617.1  207799.20  9904.86  4.77
618.5  209449.60  9847.92  4.70
619.9  210979.80  9804.24  4.65
621.3  212617.80  9777.65  4.60
622.6  214216.75  9775.25  4.56
624.0  215697.45  9778.31  4.53
625.4  217177.13  9792.18  4.51
626.8  218777.65  9838.47  4.50
628.1  220092.13  9876.16  4.49
629.5  221897.70  9943.10  4.48
630.9  223409.45  9997.90  4.48
632.2  224715.05  10035.62  4.47
633.6  226272.63  10071.22  4.45
635.0  227762.40  10079.20  4.43
636.3  229294.20  10068.60  4.39
637.7  230670.50  10020.17  4.34
639.1  232347.50  9955.75  4.28
640.4  233822.58  9859.12  4.22
641.8  235058.28  9739.58  4.14
643.2  236650.23  9627.16  4.07
644.5  238016.50  9497.30  3.99
645.9  239665.50  9376.29  3.91
647.2  241127.08  9262.82  3.84
648.6  242838.00  9183.38  3.78
650.0  244252.80  9108.72  3.73
651.3  244866.60  9025.01  3.69
652.7  246542.80  8984.89  3.64
654.0  248625.30  8967.64  3.61
655.4  250069.50  8914.14  3.56
656.8  250222.10  8805.33  3.52
658.1  251584.10  8744.04  3.48
659.5  253991.33  8716.21  3.43
660.8  255690.00  8651.25  3.38
662.2  256726.40  8563.52  3.34
663.5  258313.30  8501.17  3.29
664.9  259454.00  8446.62  3.26
666.2  260228.40  8396.04  3.23
667.6  261983.88  8398.67  3.21
668.9  263024.43  8404.08  3.20
670.3  264584.38  8437.62  3.19
671.6  265876.13  8482.73  3.19
673.0  267070.88  8546.89  3.20
674.3  268338.20  8632.26  3.22
675.7  269690.28  8732.87  3.24
677.0  270775.35  8845.24  3.27
678.4  272118.88  8972.99  3.30
679.7  273220.13  9116.15  3.34
681.1  274546.78  9293.58  3.39
682.4  275675.40  9491.95  3.44
683.8  276913.00  9724.00  3.51
685.1  277912.13  9998.29  3.60
686.4  279209.40  10327.44  3.70
687.8  280483.50  10748.98  3.83
689.1  281573.75  11294.10  4.01
690.5  282861.60  12037.71  4.26
691.8  283746.88  13004.04  4.58
693.1  285072.90  14326.13  5.03
694.5  286217.75  15990.98  5.59
695.8  287491.75  18047.58  6.28
697.1  288674.75  20513.68  7.11
698.5  289742.80  23381.00  8.07
699.8  290852.23  26620.45  9.15
701.1  292008.65  30200.84  10.34
702.5  292834.30  33994.13  11.61
703.8  293805.00  37975.50  12.93
705.1  294978.45  42105.18  14.27
706.5  296043.63  46298.35  15.64
707.8  297031.50  50522.18  17.01
709.1  297904.80  54705.18  18.36
710.5  299021.05  58913.45  19.70
711.8  299890.40  63028.72  21.02
713.1  300916.20  67131.92  22.31
714.4  301852.80  71139.23  23.57
715.8  302700.20  75059.57  24.80
717.1  304027.05  79005.02  25.99
718.4  304976.00  82761.28  27.14
719.7  306109.50  86450.09  28.24
721.0  306675.00  89856.00  29.30
722.4  307469.25  93212.68  30.32
723.7  308425.05  96486.74  31.28
725.0  309514.50  99658.22  32.20
726.3  310488.48  102641.75  33.06
727.6  311036.28  105362.49  33.87
729.0  311986.33  108050.11  34.63
730.3  312817.65  110561.45  35.34
731.6  313751.95  112953.48  36.00
732.9  314561.63  115176.34  36.61
734.2  315375.50  117279.39  37.19
735.5  316411.25  119342.33  37.72
736.8  317248.20  121197.06  38.20
738.1  318132.90  122953.55  38.65
739.5  319134.18  124648.72  39.06
740.8  319888.25  126139.26  39.43
742.1  320588.50  127534.27  39.78
743.4  321250.00  128837.50  40.11
744.7  322189.65  130157.27  40.40
746.0  323111.10  131366.24  40.66
747.3  323733.58  132385.42  40.89
748.6  324501.50  133382.43  41.10
749.9  325234.00  134305.60  41.30
751.2  325855.15  135135.36  41.47
752.5  326665.80  135990.46  41.63
753.8  327241.25  136698.19  41.77
755.1  327938.00  137402.20  41.90
756.4  328583.75  138028.56  42.01
757.7  329640.15  138784.19  42.10
759.0  331484.00  139844.82  42.19
760.3  332692.80  140603.76  42.26
761.6  334255.60  141512.00  42.34
762.9  334803.00  141946.20  42.40
764.2  335227.80  142298.31  42.45
765.5  335542.40  142583.90  42.49
766.8  336001.60  142919.68  42.54
768.1  336526.80  143282.82  42.58
769.3  337108.80  143650.05  42.61
770.6  337803.70  144034.74  42.64
771.9  338522.63  144450.41  42.67
773.2  338954.00  144703.68  42.69
774.5  339567.80  145050.62  42.72
775.8  340256.90  145427.08  42.74
777.1  340850.95  145747.09  42.76
778.4  341182.88  145965.66  42.78
779.6  341986.13  146359.96  42.80
780.9  342450.00  146631.00  42.82
782.2  342944.25  146897.03  42.83
783.5  343277.50  147095.40  42.85
784.8  343791.23  147371.25  42.87
786.0  344176.35  147601.16  42.89
787.3  344588.30  147831.78  42.90
788.6  345014.83  148072.18  42.92
789.9  345473.80  148326.08  42.93
791.2  346141.95  148665.79  42.95
792.4  346831.05  148997.54  42.96
793.7  347326.60  149257.92  42.97
795.0  347957.78  149577.54  42.99
796.2  348615.85  149908.93  43.00
797.5  349333.50  150255.08  43.01
798.8  349995.60  150579.83  43.02
800.0  350685.25  150912.39  43.03
801.3  351144.70  151165.14  43.05
802.6  351749.93  151460.42  43.06
803.8  352381.83  151781.81  43.07
805.1  352884.88  152042.63  43.09
806.4  353339.40  152274.27  43.10
807.7  353893.05  152549.53  43.11
808.9  354445.00  152828.12  43.12
810.2  354961.25  153086.19  43.13
811.4  355446.40  153342.40  43.14
812.7  356078.13  153660.00  43.15
814.0  356893.95  154053.26  43.16
815.2  357547.00  154366.45  43.17
816.5  357984.70  154591.22  43.18
817.7  358483.10  154825.62  43.19
819.0  358940.45  155081.74  43.21
820.2  359084.00  155188.00  43.22
821.5  359789.70  155529.35  43.23
822.7  360162.63  155727.89  43.24
824.0  360452.70  155917.71  43.26
825.2  360956.25  156161.32  43.26
826.5  361228.28  156347.88  43.28
827.7  361820.35  156604.73  43.28
829.0  362221.65  156806.80  43.29
830.2  362517.95  156974.08  43.30
831.5  362985.70  157225.27  43.31
832.7  363298.95  157388.81  43.32
834.0  363626.75  157580.22  43.34
835.2  363998.25  157758.84  43.34
836.4  364273.80  157937.34  43.36
837.7  364657.60  158150.18  43.37
838.9  365037.10  158384.69  43.39
840.1  365395.05  158589.97  43.40
841.4  365867.00  158819.28  43.41
842.6  366220.80  159013.58  43.42
843.8  366543.00  159210.34  43.44
845.1  367020.40  159479.39  43.45
846.3  367391.30  159679.69  43.46
847.5  367775.10  159917.31  43.48
848.8  368142.60  160129.98  43.50
850.0  368507.30  160321.35  43.51
851.2  368961.75  160585.61  43.52
852.5  369339.20  160807.87  43.54
853.7  369837.00  161056.58  43.55
854.9  370226.10  161290.61  43.57
856.1  370635.20  161530.27  43.58
857.4  370867.10  161640.54  43.58
858.6  371327.85  161883.57  43.60
859.8  371711.25  162087.75  43.61
861.0  372130.20  162302.40  43.61
862.2  372575.15  162527.21  43.62
863.5  372915.40  162712.36  43.63
864.7  373381.80  162943.44  43.64
865.9  373752.80  163160.86  43.65
867.1  374012.60  163315.38  43.67
868.3  374399.70  163524.80  43.68
869.5  374921.40  163774.69  43.68
870.8  375462.00  164016.00  43.68
872.0  375876.83  164246.04  43.70
873.2  376292.25  164466.68  43.71
874.4  376710.75  164654.98  43.71
875.6  377016.65  164847.06  43.72
876.8  377603.30  165074.42  43.72
878.0  378039.50  165316.76  43.73
879.2  378537.00  165547.95  43.73
880.4  379072.13  165753.12  43.73
881.6  379488.03  165978.44  43.74
882.8  379807.20  166175.28  43.75
884.0  380410.55  166440.44  43.75
885.2  380881.10  166665.08  43.76
886.5  381521.90  166931.38  43.75
887.7  381886.05  167158.42  43.77
888.8  382533.53  167434.86  43.77
890.0  383020.35  167685.81  43.78
891.2  383607.80  167919.77  43.77
892.4  384186.08  168184.75  43.78
893.6  384821.90  168448.71  43.77
894.8  385623.75  168843.58  43.78
896.0  386380.25  169231.18  43.80
897.2  387182.25  169582.40  43.80
898.4  387921.60  169899.84  43.80
899.6  388492.50  170116.09  43.79
900.8  388912.83  170282.46  43.78
902.0  389084.10  170371.35  43.79
903.2  389387.70  170525.34  43.79
904.3  389533.80  170666.01  43.81
905.5  390206.53  170937.51  43.81
906.7  390780.50  171158.00  43.80
907.9  391279.70  171389.26  43.80
909.1  391546.58  171530.80  43.81
910.2  391631.48  171562.30  43.81
911.4  391914.90  171648.66  43.80
912.6  392120.30  171750.15  43.80
913.8  392225.18  171824.94  43.81
915.0  392592.90  172031.16  43.82
916.2  392798.25  172101.15  43.81
917.3  392748.08  172079.42  43.81
918.5  393032.10  172174.34  43.81
919.7  393202.95  172238.42  43.80
920.8  393221.90  172227.47  43.80
922.0  393335.25  172304.83  43.81
923.2  393529.50  172399.50  43.81
924.4  393676.88  172470.60  43.81
925.5  393822.10  172526.91  43.81
926.7  394521.13  172743.59  43.79
927.9  395481.00  173071.74  43.76
929.0  396863.55  173651.72  43.76
930.2  398965.80  174536.28  43.75
931.4  401296.28  175580.53  43.75
932.5  403899.00  176729.30  43.76
933.7  405322.80  177328.73  43.75
934.9  406144.38  177544.50  43.71
936.0  405717.00  177238.59  43.69
937.2  403532.55  176270.43  43.68
938.3  401661.45  175423.93  43.67
939.5  400158.00  174715.92  43.66
940.7  400355.10  174787.92  43.66
941.8  401898.68  175319.75  43.62
943.0  403312.50  175898.03  43.61
944.2  404021.80  176165.93  43.60
945.3  403659.75  175876.35  43.57
946.5  402884.55  175396.46  43.54
947.6  402949.10  175367.72  43.52
948.8  402795.90  175185.18  43.49
949.9  402893.40  175054.32  43.45
951.1  402654.20  174777.59  43.41
952.2  402288.00  174542.40  43.39
953.4  402065.00  174172.90  43.32
954.5  401824.80  174018.78  43.31
955.7  401839.20  173823.30  43.26
956.8  401589.70  173557.35  43.22
958.0  401358.00  173257.30  43.17
959.1  401113.33  173040.79  43.14
960.3  400846.43  172757.22  43.10
961.4  400611.40  172628.80  43.09
962.6  400622.25  172596.03  43.08
963.7  400370.40  172340.82  43.05
964.9  400133.85  172253.36  43.05
966.0  399907.13  172127.23  43.04
967.2  399923.10  172146.56  43.04
968.3  399969.90  172008.77  43.01
969.5  399512.68  171910.67  43.03
970.6  399595.40  171906.87  43.02
971.8  399732.38  171959.78  43.02
972.9  399648.00  171879.87  43.01
974.0  400205.20  172107.79  43.00
975.2  399798.50  171927.00  43.00
976.3  400113.90  171912.74  42.97
977.5  399730.98  171804.91  42.98
978.6  400100.00  171842.95  42.95
979.7  400090.95  171716.32  42.92
980.9  399519.55  171802.43  43.00
982.0  399798.35  171774.11  42.97
983.2  399543.35  171619.71  42.95
984.3  398605.40  171405.76  43.00
985.4  398638.18  171258.20  42.96
986.6  398567.13  171033.82  42.91
987.7  399161.70  171535.18  42.97
988.9  399162.60  171453.78  42.95
990.0  400235.00  171664.43  42.89
993.1  372526.35  160008.27  42.95
996.9  372136.60  160229.88  43.06
1000.7  372548.63  160758.22  43.15
1004.5  372852.08  161200.43  43.23
1008.4  372541.25  161408.56  43.33
1012.2  372405.54  161676.99  43.41
1016.0  372256.20  161875.42  43.48
1019.8  371990.85  162032.07  43.56
1023.7  371410.98  162005.50  43.62
1027.5  370423.65  161790.27  43.68
1031.3  370057.83  161795.79  43.72
1035.1  369501.18  161697.04  43.76
1038.9  369253.13  161739.29  43.80
1042.7  369031.33  161761.48  43.83
1046.5  368887.33  161802.93  43.86
1050.3  368899.57  161880.82  43.88
1054.2  368588.50  161842.13  43.91
1058.0  368134.26  161692.36  43.92
1061.8  368057.73  161736.49  43.94
1065.6  367668.07  161568.61  43.94
1069.4  367306.07  161429.20  43.95
1073.2  366488.03  161070.17  43.95
1077.0  365854.63  160771.01  43.94
1080.8  365611.46  160613.40  43.93
1084.6  365107.98  160340.43  43.92
1088.4  364917.47  160230.01  43.91
1092.2  364279.50  159893.04  43.89
1096.0  363717.19  159550.11  43.87
1099.8  363164.75  159194.01  43.84
1103.6  362367.57  158740.43  43.81
1107.4  361385.74  158174.92  43.77
1111.2  361124.90  157943.42  43.74
1114.9  360529.17  157514.63  43.69
1118.7  360077.85  157125.20  43.64
1122.5  359583.47  156634.59  43.56
1126.3  358607.90  155854.14  43.46
1130.1  358187.70  155149.07  43.32
1133.9  356565.30  153707.25  43.11
1137.7  355096.90  152167.87  42.85
1141.4  353257.13  150281.68  42.54
1145.2  352445.46  148739.11  42.20
1149.0  351273.13  147124.38  41.88
1152.8  349616.55  145474.53  41.61
1156.6  347877.02  144048.03  41.41
1160.3  346166.00  142855.79  41.27
1164.1  343846.77  141578.06  41.17
1167.9  342148.96  140690.18  41.12
1171.7  340885.13  140043.94  41.08
1175.4  339572.43  139430.01  41.06
1179.2  338350.70  138833.29  41.03
1183.0  338007.33  138571.72  41.00
1186.7  337733.90  138344.75  40.96
1190.5  337040.93  137974.66  40.94
1194.3  336056.33  137499.13  40.92
1198.0  334751.45  136964.68  40.92
1201.8  333144.75  136356.70  40.93
1205.6  331962.67  136010.00  40.97
1209.3  331218.73  135921.47  41.04
1213.1  330543.75  135865.10  41.10
1216.8  329821.07  135837.08  41.19
1220.6  328759.20  135665.20  41.27
1224.3  327559.17  135424.79  41.34
1228.1  326249.80  135140.40  41.42
1231.9  324851.88  134778.54  41.49
1235.6  323262.90  134293.52  41.54
1239.4  321840.00  133896.46  41.60
1243.1  320548.36  133499.86  41.65
1246.9  319318.33  133092.83  41.68
1250.6  318316.67  132747.66  41.70
1254.3  317193.89  132338.72  41.72
1258.1  316060.62  131921.15  41.74
1261.8  314731.87  131385.52  41.75
1265.6  313406.82  130830.22  41.74
1269.3  312283.18  130310.41  41.73
1273.1  312469.18  130303.06  41.70
1276.8  312551.20  130221.86  41.66
1280.6  311915.93  129827.42  41.62
1284.3  310206.00  128960.23  41.57
1288.0  308835.29  128185.04  41.51
1291.8  307942.00  127562.05  41.42
1295.5  306936.67  126852.94  41.33
1299.2  305774.08  126041.73  41.22
1302.9  304284.46  125009.37  41.08
1306.7  302683.62  123856.25  40.92
1310.4  301094.24  122628.33  40.73
1314.1  299646.60  121399.66  40.51
1317.9  298372.29  120127.37  40.26
1321.6  296921.13  118706.60  39.98
1325.3  295273.65  117117.23  39.66
1329.0  293974.92  115610.78  39.33
1332.8  291999.40  113747.70  38.95
1336.5  290280.40  111967.92  38.57
1340.2  290032.17  110753.50  38.19
1343.9  289810.00  109542.37  37.80
1347.6  289563.90  108306.71  37.40
1351.4  290408.00  107517.97  37.02
1355.1  291541.43  106843.95  36.65
1358.8  292464.00  106025.15  36.25
1362.5  292363.13  104696.15  35.81
1366.2  290619.25  102558.27  35.29
1369.9  288163.00  99913.85  34.67
1373.6  285751.43  96889.28  33.91
1377.3  284069.40  93549.92  32.93
1381.0  283223.83  89763.11  31.69
1384.8  281352.50  84859.82  30.16
1388.4  278605.48  79237.38  28.44
1392.2  276552.92  73464.07  26.56
1395.9  275037.08  67741.11  24.63
1399.6  273367.70  62278.40  22.78
1403.3  272099.14  57442.50  21.11
1407.0  270746.50  53276.83  19.68
1410.7  269312.18  49849.86  18.51
1414.3  267804.13  47165.77  17.61
1418.1  266396.13  45170.50  16.96
1421.7  265257.42  43730.33  16.49
1425.4  264120.03  42712.18  16.17
1429.1  263066.25  42049.53  15.98
1432.8  261525.64  41562.88  15.89
1436.5  260737.21  41369.89  15.87
1440.2  260056.73  41342.84  15.90
1443.9  258881.24  41332.88  15.97
1447.6  257334.00  41339.10  16.06
1451.2  256218.23  41440.42  16.17
1454.9  254883.60  41534.81  16.30
1458.6  253736.19  41766.19  16.46
1462.3  252590.07  42110.51  16.67
1466.0  251235.23  42581.40  16.95
1469.7  249592.31  43160.63  17.29
1473.3  248562.17  43975.54  17.69
1477.0  246662.40  44717.69  18.13
1480.7  245065.47  45567.55  18.59
1484.4  243119.57  46354.12  19.07
1488.0  241560.00  47243.43  19.56
1491.7  239974.55  48102.47  20.04
1495.4  238290.80  48940.96  20.54
1499.0  236741.50  49770.22  21.02
1502.7  235467.42  50645.75  21.51
1506.4  234083.91  51459.24  21.98
1510.0  232696.90  52240.28  22.45
1513.7  231239.17  52959.82  22.90
1517.4  229921.00  53679.36  23.35
1521.0  228666.13  54389.63  23.79
1524.7  227445.83  55036.67  24.20
1528.3  226155.38  55638.38  24.60
1532.0  224949.08  56216.60  24.99
1535.7  223602.98  56703.41  25.36
1539.3  222370.78  57177.42  25.71
1543.0  221415.72  57700.33  26.06
1546.6  220728.08  58256.72  26.39
1550.3  219742.00  58693.88  26.71
1553.9  218681.43  59075.32  27.01
1557.6  217443.60  59367.95  27.30
1561.2  216197.10  59606.36  27.57
1564.9  214901.18  59814.55  27.83
1568.5  213608.97  59990.88  28.08
1572.2  212478.15  60184.18  28.32
1575.8  211400.00  60378.00  28.56
1579.5  210423.05  60571.00  28.79
1583.1  209403.87  60739.68  29.01
1586.8  208152.00  60810.00  29.21
1590.4  207019.73  60903.67  29.42
1594.0  205708.21  60915.71  29.61
1597.7  204721.12  61018.82  29.81
1601.3  203623.88  61075.02  29.99
1604.9  202511.34  61102.48  30.17
1608.6  201248.13  61043.24  30.33
1612.2  200094.68  60993.73  30.48
1615.8  198850.28  60893.07  30.62
1619.5  197700.17  60796.95  30.75
1623.1  196399.27  60641.27  30.88
1626.7  195188.83  60476.81  30.98
1630.3  193998.33  60319.80  31.09
1634.0  192906.00  60168.00  31.19
1637.6  191925.60  60032.52  31.28
1641.2  190939.50  59846.98  31.34
1644.8  189728.87  59566.39  31.40
1648.5  188659.23  59311.83  31.44
1652.1  187713.30  59044.76  31.45
1655.7  186772.60  58748.44  31.45
1659.3  185941.39  58445.60  31.43
1662.9  184549.17  57939.65  31.40
1666.6  183105.80  57407.07  31.35
1670.2  181703.96  56833.83  31.28
1673.8  180254.64  56216.52  31.19
1677.4  179123.45  55653.06  31.07
1681.0  178330.25  55136.80  30.92
1684.6  177928.83  54677.54  30.73
1688.2  177257.05  54066.14  30.50
1691.8  176601.13  53473.68  30.28
1695.4  176151.00  52957.89  30.06
1699.0  175795.90  52481.35  29.85
1702.6  175468.67  51983.93  29.63
1706.2  174845.13  51363.66  29.38
1709.8  173920.99  50665.49  29.13
1713.4  173211.01  50091.98  28.92
1717.0  172339.00  49588.45  28.77
1720.6  171537.75  49159.59  28.66
1724.2  170831.55  48785.57  28.56
1727.8  170110.15  48433.05  28.47
1731.4  169672.25  48155.84  28.38
1735.0  169498.45  47952.07  28.29
1738.6  169270.20  47687.53  28.17
1742.2  168699.65  47259.43  28.01
1745.8  168062.58  46768.32  27.83
1749.4  167111.18  46168.48  27.63
1753.0  165631.93  45425.02  27.43
1756.6  163982.00  44672.38  27.24
1760.1  162666.91  44035.91  27.07
1763.7  160954.00  43322.15  26.92
1767.3  159549.95  42708.96  26.77
1770.9  158335.33  42155.49  26.62
1774.5  156903.91  41560.90  26.49
1778.0  155775.35  41102.14  26.39
1781.6  154711.80  40716.71  26.32
1785.2  153585.55  40367.89  26.28
1788.8  152449.60  40064.62  26.28
1792.3  151221.30  39752.47  26.29
1795.9  150718.43  39636.54  26.30
1799.5  150306.00  39553.86  26.32
1803.1  150449.60  39620.70  26.33
1806.6  151805.62  39982.78  26.34
1810.2  153349.93  40382.00  26.33
1813.8  154266.75  40615.16  26.33
1817.3  154059.80  40535.96  26.31
1820.9  153005.92  40235.38  26.30
1824.5  151696.15  39838.60  26.26
1828.0  150674.33  39476.25  26.20
1831.6  150001.08  39181.81  26.12
1835.2  149515.00  38872.32  26.00
1838.7  149199.20  38529.95  25.82
1842.3  148920.00  38121.43  25.60
1845.8  147977.46  37420.90  25.29
1849.4  147399.38  36679.07  24.88
1852.9  146669.72  35738.13  24.37
1856.5  145710.78  34539.17  23.70
1860.0  144797.81  33130.24  22.88
1863.6  144616.08  31634.62  21.87
1867.1  144814.60  29947.58  20.68
1870.7  145220.03  27913.89  19.22
1874.2  144408.15  25334.49  17.54
1877.8  142581.13  22468.66  15.76
1881.3  140451.13  19536.30  13.91
1884.9  139008.56  16864.56  12.13
1888.4  137748.47  14405.73  10.46
1891.9  136415.67  12313.19  9.03
1895.5  135169.98  10659.55  7.89
1899.0  134449.38  9472.05  7.05
1901.3  172379.00  8492.58  4.93
1904.1  172279.50  7723.88  4.48
1906.8  171315.00  7106.40  4.15
1909.6  169253.35  6610.10  3.91
1912.4  167392.40  6261.62  3.74
1915.1  165994.95  6023.60  3.63
1917.9  164490.33  5828.92  3.54
1920.6  163178.87  5713.20  3.50
1923.3  161922.60  5607.82  3.46
1926.1  160321.10  5541.74  3.46
1928.8  158796.00  5522.00  3.48
1931.6  157592.90  5519.76  3.50
1934.3  156514.08  5550.38  3.55
1937.0  155436.73  5602.87  3.60
1939.8  154266.83  5670.04  3.68
1942.5  152790.00  5736.50  3.75
1945.2  150929.35  5789.30  3.84
1947.9  149416.40  5879.54  3.93
1950.7  148228.70  6001.62  4.05
1953.4  146439.70  6097.68  4.16
1956.1  145054.33  6215.00  4.28
1958.8  143840.02  6363.28  4.42
1961.5  142351.60  6504.40  4.57
1964.2  140822.50  6652.10  4.72
1966.9  139225.20  6787.50  4.88
1969.6  137988.00  6957.00  5.04
1972.3  136597.20  7142.25  5.23
1975.0  135555.45  7336.65  5.41
1977.7  134454.17  7529.44  5.60
1980.4  133297.17  7727.82  5.80
1983.1  132188.25  7936.53  6.00
1985.8  131256.90  8160.60  6.22
1988.4  130225.33  8367.67  6.43
1991.1  129292.80  8577.22  6.63
1993.8  128431.42  8793.31  6.85
1996.5  127802.40  9038.89  7.07
1999.1  127130.30  9280.15  7.30
2001.8  126435.17  9509.62  7.52
2004.5  125753.70  9739.90  7.75
2007.1  125018.45  9956.15  7.96
2009.8  124276.83  10165.75  8.18
2012.4  123692.25  10378.78  8.39
2015.1  123137.23  10597.42  8.61
2017.8  122351.60  10783.04  8.81
2020.4  121839.67  10994.87  9.02
2023.1  121479.63  11201.75  9.22
2025.7  121246.67  11401.00  9.40
2028.3  120917.33  11591.67  9.59
2031.0  120489.93  11765.92  9.77
2033.6  120207.90  11949.45  9.94
2036.2  119955.60  12110.40  10.10
2038.9  119346.60  12232.20  10.25
2041.5  118999.93  12360.24  10.39
2044.1  118450.50  12475.80  10.53
2046.8  118067.70  12593.25  10.67
2049.4  117423.90  12675.90  10.79
2052.0  117131.47  12798.70  10.93
2054.6  116733.75  12901.88  11.05
2057.2  116170.80  12990.84  11.18
2059.8  115847.67  13121.84  11.33
2062.4  114964.12  13188.32  11.47
2065.0  114441.60  13292.14  11.61
2067.6  113543.30  13345.22  11.75
2070.2  112950.57  13436.74  11.90
2072.8  112314.25  13528.27  12.05
2075.4  111877.50  13636.88  12.19
2078.0  111249.70  13702.00  12.32
2080.6  110686.40  13789.60  12.46
2083.2  109986.60  13855.72  12.60
2085.8  109484.25  13947.94  12.74
2088.4  108826.67  14009.67  12.87
2090.9  108021.80  14040.54  13.00
2093.5  107146.20  14061.73  13.12
2096.1  106374.95  14097.25  13.25
2098.7  105610.80  14132.39  13.38
2101.2  104642.80  14143.63  13.52
2103.8  103970.33  14178.57  13.64
2106.4  103297.87  14222.23  13.77
2108.9  102642.87  14252.80  13.89
2111.5  101804.47  14261.54  14.01
2114.0  101175.67  14292.10  14.13
2116.6  100668.75  14341.25  14.25
2119.1  100106.57  14364.18  14.35
2121.7  99601.25  14402.50  14.46
2124.2  99212.37  14443.09  14.56
2126.8  98417.25  14431.02  14.66
2129.3  98023.20  14462.80  14.75
2131.9  97433.60  14458.40  14.84
2134.4  97004.85  14474.18  14.92
2136.9  96606.25  14479.84  14.99
2139.4  96061.47  14461.54  15.05
2142.0  95627.00  14461.53  15.12
2144.5  95336.80  14471.40  15.18
2147.0  95095.33  14489.87  15.24
2149.5  94595.07  14458.60  15.28
2152.1  94423.82  14467.66  15.32
2154.6  94347.73  14488.54  15.36
2157.1  93812.67  14451.58  15.40
2159.6  93385.75  14415.25  15.44
2162.1  93229.50  14423.50  15.47
2164.6  92977.33  14407.84  15.50
2167.1  92641.47  14399.47  15.54
2169.6  92314.13  14382.61  15.58
2172.1  91843.97  14343.99  15.62
2174.6  91517.60  14330.90  15.66
2177.1  91069.50  14296.33  15.70
2179.5  90660.48  14268.48  15.74
2182.0  90180.75  14240.05  15.79
2184.5  89648.37  14196.98  15.84
2187.0  89041.23  14154.72  15.90
2189.5  88356.22  14101.72  15.96
2191.9  87590.00  14022.00  16.01
2194.4  86971.85  13962.10  16.05
2196.9  86246.40  13886.40  16.10
2199.3  85579.00  13813.67  16.14
2201.8  84680.00  13704.53  16.18
2204.3  84217.18  13654.98  16.21
2206.7  83567.40  13568.38  16.24
2209.2  83089.18  13505.58  16.25
2211.6  82467.00  13424.40  16.28
2214.1  82177.05  13387.73  16.29
2216.5  81612.27  13305.70  16.30
2219.0  81274.53  13246.10  16.30
2221.4  80900.17  13174.29  16.28
2223.9  80434.08  13075.13  16.26
2226.3  79928.33  12971.00  16.23
2228.7  79363.17  12833.51  16.17
2231.1  78774.30  12681.90  16.10
2233.6  78165.40  12516.00  16.01
2236.0  77607.83  12351.21  15.91
2238.4  77121.92  12177.67  15.79
2240.9  76675.40  11999.47  15.65
2243.3  76139.00  11795.84  15.49
2245.7  75560.30  11581.80  15.33
2248.1  75078.90  11386.92  15.17
2250.5  74565.52  11181.34  15.00
2252.9  73962.63  10938.42  14.79
2255.3  73401.15  10706.20  14.59
2257.7  72930.00  10490.00  14.38
2260.1  72430.63  10269.12  14.18
2262.5  71820.00  10035.00  13.97
2264.9  71290.98  9828.59  13.79
2267.3  70670.00  9620.00  13.61
2269.7  70183.17  9431.34  13.44
2272.1  69625.85  9240.38  13.27
2274.5  69064.70  9064.87  13.13
2276.8  68584.12  8904.82  12.98
2279.2  67988.25  8738.48  12.85
2281.6  67567.47  8596.93  12.72
2284.0  67114.50  8448.65  12.59
2286.3  66636.80  8299.20  12.45
2288.7  66222.22  8146.67  12.30
2291.1  65667.30  7987.12  12.16
2293.4  65203.60  7848.87  12.04
2295.8  64601.60  7694.10  11.91
2298.2  64004.40  7534.80  11.77
2300.5  63331.65  7369.20  11.64
2302.9  62599.33  7207.50  11.51
2305.2  61882.40  7065.80  11.42
2307.6  61229.42  6937.96  11.33
2309.9  60481.00  6799.34  11.24
2312.2  59881.67  6701.17  11.19
2314.6  59274.45  6608.48  11.15
2316.9  58560.30  6504.98  11.11
2319.2  57991.13  6406.60  11.05
2321.6  57357.53  6292.30  10.97
2323.9  56802.08  6192.71  10.90
2326.2  56256.53  6087.85  10.82
2328.6  55740.30  5987.85  10.74
2330.9  55230.00  5895.75  10.67
2333.2  54758.17  5804.96  10.60
2335.5  54302.50  5719.15  10.53
2337.8  53851.97  5628.90  10.45
2340.1  53280.45  5531.85  10.38
2342.4  52855.83  5427.50  10.27
2344.8  52410.92  5327.33  10.16
2347.1  51850.40  5225.62  10.08
2349.4  51304.62  5133.77  10.01
2351.6  50742.77  5034.62  9.92
2353.9  50267.87  4948.45  9.84
2356.2  49747.08  4863.54  9.78
2358.5  49145.60  4782.40  9.73
2360.8  48574.40  4698.40  9.67
2363.1  48130.72  4621.27  9.60
2365.4  47674.70  4542.60  9.53
2367.7  47218.80  4457.40  9.44
2369.9  46670.20  4373.90  9.37
2372.2  46050.13  4282.80  9.30
2374.5  45460.80  4192.65  9.22
2376.7  44828.72  4094.88  9.13
2379.0  44218.30  4007.68  9.06
2381.3  43586.67  3908.34  8.97
2383.5  43073.07  3813.34  8.85
2385.8  42477.67  3730.04  8.78
2388.0  41949.00  3634.40  8.66
2390.3  41438.40  3560.00  8.59
2392.5  40968.00  3474.00  8.48
2394.8  40486.60  3388.00  8.37
2397.0  40015.73  3300.27  8.25
2399.3  39547.10  3228.59  8.16
2401.5  39102.00  3142.13  8.04
2403.8  38563.48  3060.70  7.94
2406.0  38057.08  2980.00  7.83
2408.2  37661.80  2904.74  7.71
2410.4  37225.30  2833.72  7.61
2412.7  36807.77  2783.52  7.56
2414.9  36457.30  2726.08  7.48
2417.1  36055.30  2654.30  7.36
2419.3  35648.00  2572.80  7.22
2421.6  35236.67  2518.75  7.15
2423.8  34854.40  2457.18  7.05
2426.0  34496.72  2388.94  6.93
2428.2  34156.27  2332.40  6.83
2430.4  33824.40  2276.13  6.73
2432.6  33546.67  2226.67  6.64
2434.8  33242.90  2165.40  6.51
2437.0  32857.93  2102.32  6.40
2439.2  32521.10  2041.02  6.28
2441.4  32201.93  1997.28  6.20
2443.6  31957.95  1955.06  6.12
2445.7  31695.65  1902.02  6.00
2447.9  31409.92  1843.96  5.87
2450.1  31120.75  1805.43  5.80
2452.3  30746.10  1764.58  5.74
2454.5  30380.70  1723.28  5.67
2456.6  30002.80  1647.80  5.49
2458.8  29658.20  1601.60  5.40
2461.0  29337.92  1564.21  5.33
2463.1  29056.35  1535.03  5.28
2465.3  28754.50  1507.24  5.24
2467.5  28497.00  1460.25  5.12
2469.6  28282.00  1424.54  5.04
2471.8  27961.03  1404.06  5.02
2473.9  27632.67  1372.59  4.97
2476.1  27284.83  1334.67  4.89
2478.2  26932.53  1294.83  4.81
2480.4  26632.25  1251.03  4.70
2482.5  26321.67  1246.41  4.74
2484.6  25993.00  1215.50  4.68
2486.8  25716.60  1193.20  4.64
2488.9  25379.60  1152.19  4.54
2491.1  25021.73  1134.47  4.53
2493.2  24620.60  1101.70  4.47
2495.3  24242.40  1082.25  4.46
2497.4  23908.50  1046.50  4.38
2499.5  23562.93  1035.73  4.40
2501.7  23433.93  1018.87  4.35
2503.8  23336.47  1011.36  4.33
2505.9  23267.50  999.38  4.30
2508.0  23279.65  989.69  4.25
2510.1  23284.10  992.53  4.26
2512.2  23377.90  963.38  4.12
2514.3  23539.33  958.66  4.07
2516.4  23777.90  1034.25  4.35
