/*** Spectra Vista SIG Data ***/
name= 40_20220721_QURU_46_avg.sig
comm= Averaged Ref/Tar of files: HR.072122.0042_moc.sig,HR.072122.0043_moc.sig,HR.072122.0044_moc.sig
data=
337.3  3324.88  354.47  10.66
338.8  3463.20  357.31  10.32
340.3  3607.45  352.49  9.77
341.8  3795.18  348.38  9.18
343.2  3996.00  346.74  8.68
344.7  4094.40  341.20  8.33
346.2  4289.25  342.36  7.98
347.7  4443.73  329.58  7.42
349.2  4649.40  331.20  7.12
350.6  4921.15  332.27  6.75
352.1  5180.13  323.22  6.24
353.6  5482.60  330.48  6.03
355.1  5724.75  330.34  5.77
356.6  6030.60  337.11  5.59
358.0  6252.40  346.34  5.54
359.5  6519.90  347.26  5.33
361.0  6822.90  353.40  5.18
362.5  7172.38  351.30  4.90
364.0  7541.53  357.76  4.74
365.4  7896.10  371.99  4.71
366.9  8204.63  381.49  4.65
368.4  8537.08  397.44  4.66
369.9  8891.23  411.81  4.63
371.3  9291.60  419.57  4.52
372.8  9664.20  437.44  4.53
374.3  10078.13  440.24  4.37
375.8  10456.60  446.60  4.27
377.2  10840.70  456.02  4.21
378.7  11244.20  466.27  4.15
380.2  11620.80  476.51  4.10
381.7  12107.20  483.88  4.00
383.1  12585.65  500.50  3.98
384.6  13055.90  506.10  3.88
386.1  13512.50  519.91  3.85
387.6  13933.15  531.30  3.81
389.0  14364.80  543.66  3.78
390.5  14841.45  556.29  3.75
392.0  15393.90  569.30  3.70
393.4  15922.65  583.05  3.66
394.9  16443.00  596.57  3.63
396.4  16948.13  611.14  3.61
397.9  17476.25  624.76  3.57
399.3  17980.75  641.57  3.57
400.8  18519.28  652.80  3.52
402.2  19124.45  671.03  3.51
403.7  19693.35  685.56  3.48
405.2  20289.48  712.50  3.51
406.6  20856.80  726.93  3.49
408.1  21402.20  744.72  3.48
409.6  21971.95  763.02  3.47
411.0  22588.30  778.77  3.45
412.5  23219.88  801.27  3.45
414.0  23838.75  824.70  3.46
415.4  24525.75  849.89  3.47
416.9  25153.88  877.47  3.49
418.4  25790.18  898.18  3.48
419.8  26462.80  925.60  3.50
421.3  27147.48  950.67  3.50
422.7  27909.60  979.37  3.51
424.2  28653.75  1006.07  3.51
425.7  29388.90  1032.33  3.51
427.1  30083.33  1065.55  3.54
428.6  30829.50  1093.86  3.55
430.0  31533.65  1125.84  3.57
431.5  32357.40  1157.04  3.58
432.9  33196.90  1188.74  3.58
434.4  34050.53  1221.03  3.59
435.9  34832.00  1252.00  3.59
437.3  35626.25  1284.64  3.61
438.8  36408.15  1317.42  3.62
440.2  37217.95  1351.35  3.63
441.7  38136.40  1388.50  3.64
443.1  39008.00  1423.43  3.65
444.6  39928.80  1462.21  3.66
446.0  40806.38  1500.16  3.68
447.5  41696.05  1539.92  3.69
448.9  42582.90  1578.71  3.71
450.4  43537.90  1621.83  3.73
451.8  44356.00  1661.53  3.75
453.3  45239.50  1699.75  3.76
454.7  46204.73  1741.61  3.77
456.2  47028.10  1778.45  3.78
457.6  47949.30  1816.78  3.79
459.1  48876.10  1855.35  3.80
460.5  49755.00  1892.88  3.80
462.0  50759.33  1933.43  3.81
463.4  51731.20  1976.71  3.82
464.8  52683.38  2015.18  3.83
466.3  53631.60  2048.99  3.82
467.7  54568.78  2087.12  3.82
469.2  55582.18  2128.68  3.83
470.6  56509.10  2167.72  3.84
472.0  57482.30  2209.11  3.84
473.5  58435.13  2250.58  3.85
474.9  59408.25  2290.86  3.86
476.4  60494.40  2334.17  3.86
477.8  61523.50  2376.62  3.86
479.2  62495.00  2412.53  3.86
480.7  63545.25  2462.13  3.87
482.1  64620.40  2511.55  3.89
483.6  65776.40  2558.34  3.89
485.0  66816.60  2608.26  3.90
486.4  67948.50  2664.73  3.92
487.9  69000.75  2716.07  3.94
489.3  70105.73  2771.10  3.95
490.7  71151.20  2825.80  3.97
492.2  72338.70  2892.40  4.00
493.6  73381.85  2955.11  4.03
495.0  74455.88  3023.89  4.06
496.5  75576.25  3098.52  4.10
497.9  76618.18  3176.79  4.15
499.3  77733.48  3260.64  4.19
500.7  78934.20  3354.15  4.25
502.2  80037.20  3446.99  4.31
503.6  81219.80  3555.45  4.38
505.0  82245.10  3668.08  4.46
506.5  83478.75  3800.69  4.55
507.9  84635.93  3950.51  4.67
509.3  85958.40  4115.81  4.79
510.7  87165.00  4290.00  4.92
512.2  88500.15  4492.76  5.08
513.6  89888.40  4723.20  5.25
515.0  91239.15  4973.33  5.45
516.4  92534.40  5252.85  5.68
517.8  94058.38  5570.63  5.92
519.3  95301.83  5894.07  6.18
520.7  96776.40  6252.92  6.46
522.1  98020.65  6620.16  6.75
523.5  99329.40  7010.90  7.06
524.9  100649.25  7405.46  7.36
526.3  101913.70  7790.00  7.64
527.8  103326.30  8180.23  7.92
529.2  104523.50  8541.25  8.17
530.6  106063.00  8910.83  8.40
532.0  107702.00  9269.33  8.61
533.4  108939.38  9578.78  8.79
534.8  109833.63  9834.36  8.95
536.3  111468.90  10118.51  9.08
537.7  113387.40  10405.20  9.18
539.1  114733.43  10633.54  9.27
540.5  115860.75  10839.26  9.36
541.9  117502.73  11078.59  9.43
543.3  118736.35  11280.66  9.50
544.7  119950.80  11486.85  9.58
546.1  121623.43  11733.52  9.65
547.5  122808.00  11923.20  9.71
549.0  124542.00  12155.52  9.76
550.4  125959.38  12347.26  9.80
551.8  127384.08  12509.71  9.82
553.2  128852.98  12645.82  9.81
554.6  130124.80  12730.59  9.78
556.0  131579.55  12793.59  9.72
557.4  133099.58  12826.60  9.64
558.8  134643.15  12832.03  9.53
560.2  136005.88  12792.87  9.41
561.6  137589.15  12745.31  9.26
563.0  139087.05  12665.77  9.11
564.4  140589.30  12564.55  8.94
565.8  142035.00  12437.32  8.76
567.2  143673.75  12304.14  8.56
568.6  145094.25  12138.57  8.37
570.0  146472.35  11952.30  8.16
571.4  148125.25  11784.56  7.96
572.8  149787.00  11622.98  7.76
574.2  151323.20  11464.53  7.58
575.6  152775.00  11316.43  7.41
577.0  154211.10  11187.00  7.25
578.4  155860.25  11093.33  7.12
579.8  157276.35  11003.98  7.00
581.2  158924.75  10946.64  6.89
582.5  160254.90  10882.11  6.79
583.9  161707.20  10838.02  6.70
585.3  163408.28  10822.22  6.62
586.7  164790.60  10798.45  6.55
588.1  166209.50  10786.63  6.49
589.5  167776.00  10799.83  6.44
590.9  169322.00  10826.97  6.39
592.3  171043.95  10873.08  6.36
593.7  172405.35  10908.95  6.33
595.0  173945.48  10959.88  6.30
596.4  175317.10  11003.80  6.28
597.8  176721.70  11046.51  6.25
599.2  178186.80  11085.49  6.22
600.6  179847.53  11124.47  6.19
602.0  181076.40  11126.13  6.14
603.3  182775.95  11139.39  6.09
604.7  184352.68  11131.45  6.04
606.1  185748.00  11099.14  5.98
607.5  187319.10  11063.08  5.91
608.9  188902.25  11017.88  5.83
610.2  190214.33  10952.55  5.76
611.6  191725.80  10893.82  5.68
613.0  193196.50  10837.50  5.61
614.4  194504.40  10778.09  5.54
615.8  195872.63  10730.57  5.48
617.1  197332.80  10700.20  5.42
618.5  198882.40  10687.01  5.37
619.9  200323.35  10674.93  5.33
621.3  201869.33  10683.15  5.29
622.6  203389.25  10708.40  5.26
624.0  204774.30  10737.02  5.24
625.4  206173.28  10779.92  5.23
626.8  207693.85  10836.58  5.22
628.1  208978.00  10890.84  5.21
629.5  210776.38  10977.32  5.21
630.9  212354.73  11045.94  5.20
632.2  213681.30  11106.50  5.20
633.6  215244.13  11167.13  5.19
635.0  216702.80  11206.21  5.17
636.3  218187.60  11230.17  5.15
637.7  219515.75  11225.91  5.11
639.1  221095.00  11220.00  5.07
640.4  222510.58  11187.43  5.03
641.8  223668.10  11127.89  4.98
643.2  225186.33  11081.08  4.92
644.5  226482.50  11019.52  4.87
645.9  228152.70  10976.87  4.81
647.2  230235.25  10965.40  4.76
648.6  232166.25  10962.00  4.72
650.0  233560.80  10948.11  4.69
651.3  233796.48  10877.75  4.65
652.7  234395.45  10800.57  4.61
654.0  236350.90  10791.35  4.57
655.4  237884.88  10764.98  4.53
656.8  238236.50  10701.43  4.49
658.1  239371.50  10653.87  4.45
659.5  241620.23  10618.85  4.39
660.8  243450.00  10581.43  4.35
662.2  244227.20  10504.53  4.30
663.5  245732.10  10456.91  4.26
664.9  247122.20  10418.57  4.22
666.2  247840.80  10370.57  4.18
667.6  249437.23  10375.81  4.16
668.9  250613.15  10389.39  4.15
670.3  251383.13  10401.18  4.14
671.6  253110.00  10470.39  4.14
673.0  254238.38  10546.25  4.15
674.3  255431.80  10639.57  4.17
675.7  256688.10  10753.68  4.19
677.0  257802.63  10882.45  4.22
678.4  259146.15  11033.48  4.26
679.7  260247.40  11205.48  4.31
681.1  261500.45  11413.82  4.36
682.4  262592.20  11647.75  4.44
683.8  263874.00  11925.58  4.52
685.1  264858.38  12238.29  4.62
686.4  266111.40  12611.71  4.74
687.8  267378.25  13046.97  4.88
689.1  268424.00  13557.67  5.05
690.5  269764.50  14193.31  5.26
691.8  270554.05  14972.63  5.53
693.1  271822.65  15980.11  5.88
694.5  272931.75  17233.67  6.31
695.8  274114.75  18791.50  6.86
697.1  275252.25  20680.83  7.51
698.5  276304.40  22939.97  8.30
699.8  277428.63  25590.36  9.22
701.1  278517.03  28628.81  10.28
702.5  279304.30  31975.90  11.45
703.8  280237.50  35633.57  12.72
705.1  281344.05  39572.65  14.07
706.5  282394.88  43703.70  15.48
707.8  283353.30  47978.00  16.93
709.1  284241.90  52361.70  18.42
710.5  285380.48  56873.47  19.93
711.8  286242.80  61407.83  21.45
713.1  287246.30  66010.12  22.98
714.4  288160.60  70606.05  24.50
715.8  288985.70  75187.10  26.02
717.1  290281.80  79872.51  27.52
718.4  291222.40  84416.00  28.99
719.7  292332.33  88956.05  30.43
721.0  292882.50  93248.57  31.84
722.4  293668.65  97512.64  33.20
723.7  294631.20  101713.60  34.52
725.0  295674.98  105827.08  35.79
726.3  296610.88  109751.30  37.00
727.6  297181.50  113396.78  38.16
729.0  298139.63  117011.38  39.25
730.3  298910.55  120407.59  40.28
731.6  299838.80  123689.35  41.25
732.9  300643.18  126762.30  42.16
734.2  301467.38  129686.73  43.02
735.5  302484.45  132535.37  43.82
736.8  303265.20  135135.14  44.56
738.1  304127.50  137607.09  45.25
739.5  305112.68  139977.86  45.88
740.8  305839.60  142101.85  46.46
742.1  306615.40  144138.59  47.01
743.4  307400.00  146047.62  47.51
744.7  308393.75  147961.86  47.98
746.0  309295.35  149683.30  48.39
747.3  309873.50  151142.03  48.78
748.6  310648.00  152584.69  49.12
749.9  311454.00  153937.34  49.43
751.2  312231.00  155199.00  49.71
752.5  313172.40  156446.74  49.96
753.8  313812.63  157483.07  50.18
755.1  314548.00  158476.19  50.38
756.4  315180.65  159343.02  50.56
757.7  316159.38  160338.90  50.71
759.0  317978.13  161670.88  50.84
760.3  319149.60  162656.68  50.97
761.6  320742.80  163807.87  51.07
762.9  321347.75  164408.05  51.16
764.2  321777.80  164886.75  51.24
765.5  322138.00  165297.77  51.31
766.8  322646.40  165764.57  51.38
768.1  323237.80  166237.10  51.43
769.3  323864.45  166726.87  51.48
770.6  324555.40  167226.18  51.52
771.9  325336.73  167751.27  51.56
773.2  325804.80  168082.02  51.59
774.5  326526.20  168524.82  51.61
775.8  327274.40  168995.06  51.64
777.1  327908.35  169414.25  51.67
778.4  328324.15  169700.98  51.69
779.6  329144.93  170191.20  51.71
780.9  329700.00  170534.29  51.72
782.2  330209.00  170852.00  51.74
783.5  330650.50  171102.10  51.75
784.8  331214.63  171469.20  51.77
786.0  331716.35  171752.20  51.78
787.3  332187.15  172051.34  51.79
788.6  332698.55  172352.08  51.80
789.9  333237.80  172674.80  51.82
791.2  333958.90  173075.63  51.83
792.4  334729.23  173489.33  51.83
793.7  335269.20  173807.24  51.84
795.0  335983.73  174185.87  51.84
796.2  336705.55  174599.65  51.86
797.5  337527.00  175040.46  51.86
798.8  338265.68  175454.05  51.87
800.0  339019.53  175870.95  51.88
801.3  339592.70  176164.56  51.88
802.6  340233.98  176532.49  51.89
803.8  340931.93  176924.67  51.89
805.1  341522.13  177235.25  51.90
806.4  342023.70  177531.49  51.91
807.7  342658.35  177864.43  51.91
808.9  343305.30  178201.81  51.91
810.2  343887.25  178517.40  51.91
811.4  344459.00  178823.08  51.91
812.7  345150.00  179187.20  51.92
814.0  345989.20  179653.06  51.92
815.2  346692.00  180033.95  51.93
816.5  347162.30  180280.73  51.93
817.7  347684.90  180569.90  51.93
819.0  348251.75  180876.14  51.94
820.2  348480.00  181007.62  51.94
821.5  349207.65  181410.82  51.95
822.7  349568.28  181643.30  51.96
824.0  349987.50  181842.69  51.96
825.2  350523.45  182125.99  51.96
826.5  350875.05  182319.41  51.96
827.7  351446.95  182627.64  51.96
829.0  351891.95  182876.53  51.97
830.2  352232.35  183068.61  51.97
831.5  352704.95  183329.30  51.98
832.7  353063.03  183514.30  51.98
834.0  353436.93  183717.35  51.98
835.2  353755.88  183942.55  52.00
836.4  354083.95  184133.71  52.00
837.7  354468.00  184388.40  52.02
838.9  354958.38  184658.61  52.02
840.1  355366.58  184887.84  52.03
841.4  355795.70  185168.86  52.04
842.6  356163.60  185394.88  52.05
843.8  356522.40  185611.31  52.06
845.1  356990.25  185906.81  52.08
846.3  357414.70  186161.18  52.09
847.5  357848.40  186400.40  52.09
848.8  358254.60  186671.31  52.11
850.0  358545.95  186870.03  52.12
851.2  359063.55  187171.46  52.13
852.5  359437.00  187400.82  52.14
853.7  359919.00  187690.07  52.15
854.9  360377.20  187950.63  52.15
856.1  360793.55  188212.39  52.17
857.4  360964.65  188346.80  52.18
858.6  361510.90  188610.97  52.17
859.8  361860.00  188845.36  52.19
861.0  362372.40  189105.43  52.19
862.2  362837.88  189377.64  52.19
863.5  363219.03  189583.80  52.20
864.7  363798.60  189866.29  52.19
865.9  364137.40  190099.01  52.21
867.1  364373.10  190275.96  52.22
868.3  364818.90  190532.46  52.23
869.5  365313.85  190789.30  52.23
870.8  365899.50  191097.00  52.23
872.0  366443.18  191368.33  52.22
873.2  366836.10  191616.36  52.23
874.4  367312.73  191826.51  52.22
875.6  367603.20  192029.82  52.24
876.8  368167.25  192308.01  52.23
878.0  368649.75  192592.91  52.24
879.2  369197.55  192850.00  52.23
880.4  369706.13  193133.93  52.24
881.6  370184.78  193386.78  52.24
882.8  370733.60  193619.05  52.23
884.0  371320.18  193936.25  52.23
885.2  371848.00  194234.62  52.23
886.5  372548.05  194556.11  52.22
887.7  372973.58  194831.25  52.24
888.8  373771.13  195172.03  52.22
890.0  374330.05  195483.33  52.22
891.2  374987.40  195779.46  52.21
892.4  375538.80  196104.45  52.22
893.6  376246.75  196407.18  52.20
894.8  377119.50  196877.81  52.21
896.0  378043.25  197375.17  52.21
897.2  378920.75  197796.24  52.20
898.4  379737.60  198189.20  52.19
899.6  380286.38  198500.18  52.20
900.8  380795.10  198741.19  52.19
902.0  381169.80  198896.44  52.18
903.2  381573.90  199096.86  52.18
904.3  382047.00  199301.97  52.17
905.5  382717.60  199640.79  52.16
906.7  383403.00  199932.95  52.15
907.9  383910.10  200229.40  52.16
909.1  384423.30  200463.75  52.15
910.2  384644.40  200634.51  52.16
911.4  385079.18  200788.72  52.14
912.6  385313.50  200904.79  52.14
913.8  385571.03  201056.26  52.15
915.0  386220.45  201300.40  52.12
916.2  386460.75  201423.86  52.12
917.3  386709.75  201485.51  52.10
918.5  387047.50  201642.61  52.10
919.7  387414.75  201797.70  52.09
920.8  387501.83  201868.60  52.09
922.0  387810.50  201945.33  52.07
923.2  388206.00  202085.00  52.06
924.4  388418.63  202212.00  52.06
925.5  388911.60  202325.96  52.02
926.7  389538.00  202619.96  52.02
927.9  390564.60  203045.94  51.99
929.0  392154.75  203697.64  51.94
930.2  394162.60  204764.99  51.95
931.4  396699.53  205948.99  51.92
932.5  399359.05  207257.29  51.90
933.7  400861.70  207957.06  51.88
934.9  401611.88  208279.17  51.86
936.0  401449.75  208079.24  51.83
937.2  399727.20  207033.10  51.79
938.3  398318.45  206183.50  51.76
939.5  397112.40  205408.80  51.73
940.7  397260.90  205445.06  51.72
941.8  398916.45  206166.14  51.68
943.0  400444.50  206803.29  51.64
944.2  401464.70  207159.89  51.60
945.3  401251.50  206897.78  51.56
946.5  400632.75  206432.87  51.53
947.6  401042.10  206410.05  51.47
948.8  401049.68  206239.33  51.42
949.9  401314.20  206179.60  51.38
951.1  401250.53  205834.14  51.30
952.2  401268.00  205573.71  51.23
953.4  401236.00  205216.98  51.15
954.5  401403.60  205024.11  51.08
955.7  401410.80  204775.20  51.01
956.8  401153.90  204493.96  50.98
958.0  401136.50  204159.71  50.90
959.1  401113.33  203947.91  50.85
960.3  401076.40  203714.05  50.79
961.4  401315.05  203611.74  50.74
962.6  401581.25  203741.83  50.73
963.7  401351.70  203526.29  50.71
964.9  401137.95  203473.69  50.72
966.0  401450.18  203388.69  50.66
967.2  401772.15  203496.13  50.65
968.3  401869.35  203460.81  50.63
969.5  401749.28  203424.09  50.63
970.6  401905.20  203454.88  50.62
971.8  402427.20  203580.48  50.59
972.9  402770.25  203600.44  50.55
974.0  402812.40  203765.09  50.59
975.2  402868.63  203830.31  50.59
976.3  402982.10  203881.22  50.59
977.5  402756.38  203962.38  50.64
978.6  403300.80  204127.21  50.61
979.7  403913.48  204393.85  50.60
980.9  404028.80  204419.33  50.60
982.0  403637.95  204504.41  50.67
983.2  404141.68  204564.64  50.62
984.3  403499.60  204572.38  50.70
985.4  404423.93  204870.65  50.66
986.6  404708.38  204942.29  50.64
987.7  405683.95  205544.05  50.67
988.9  406056.60  205638.17  50.64
990.0  407512.00  206320.28  50.63
993.1  330111.54  166140.60  50.33
996.9  331789.45  167479.30  50.48
1000.7  333389.41  168780.14  50.63
1004.5  334271.25  169632.27  50.75
1008.4  334299.92  170059.63  50.87
1012.2  334533.79  170558.47  50.98
1016.0  334982.40  171157.89  51.09
1019.8  335608.35  171840.90  51.20
1023.7  336276.99  172466.56  51.29
1027.5  336729.20  173014.05  51.38
1031.3  337620.70  173694.31  51.45
1035.1  338030.64  174109.75  51.51
1038.9  338274.20  174406.52  51.56
1042.7  338235.50  174526.70  51.60
1046.5  338168.17  174619.05  51.64
1050.3  338304.98  174745.22  51.65
1054.2  338073.75  174745.42  51.69
1058.0  337621.03  174556.71  51.70
1061.8  337466.23  174555.79  51.73
1065.6  337394.47  174510.83  51.72
1069.4  337802.27  174748.73  51.73
1073.2  337927.05  174806.22  51.73
1077.0  337751.23  174672.58  51.72
1080.8  337094.79  174254.61  51.69
1084.6  335676.95  173387.55  51.65
1088.4  334607.32  172765.29  51.63
1092.2  333684.00  172165.50  51.60
1096.0  333178.70  171769.22  51.55
1099.8  332851.35  171427.22  51.50
1103.6  332389.73  171013.73  51.45
1107.4  331712.08  170448.07  51.38
1111.2  331513.60  170145.27  51.32
1114.9  330836.92  169560.33  51.25
1118.7  330103.13  168880.56  51.16
1122.5  329277.87  168066.35  51.04
1126.3  328164.08  166991.61  50.89
1130.1  327678.93  166037.52  50.67
1133.9  326288.20  164331.80  50.36
1137.7  325079.30  162482.74  49.98
1141.4  323623.41  160255.74  49.52
1145.2  323127.21  158347.19  49.00
1149.0  322217.29  156339.79  48.52
1152.8  320843.95  154300.26  48.09
1156.6  319446.05  152601.35  47.77
1160.3  317963.67  151179.52  47.55
1164.1  315760.33  149682.38  47.40
1167.9  314069.79  148634.08  47.33
1171.7  312889.50  147933.00  47.28
1175.4  311991.40  147405.71  47.25
1179.2  311294.83  146955.07  47.21
1183.0  311169.33  146746.86  47.16
1186.7  310490.83  146281.67  47.11
1190.5  309167.47  145546.30  47.08
1194.3  307932.63  144879.67  47.05
1198.0  306950.60  144407.25  47.05
1201.8  305731.83  143876.83  47.06
1205.6  304582.00  143408.72  47.08
1209.3  303565.80  143083.17  47.13
1213.1  302474.63  142748.46  47.19
1216.8  301398.35  142503.43  47.28
1220.6  300382.13  142328.27  47.38
1224.3  299241.67  142083.85  47.48
1228.1  298236.20  141947.03  47.60
1231.9  297265.63  141766.15  47.69
1235.6  296098.43  141451.05  47.77
1239.4  295001.38  141180.16  47.86
1243.1  293990.79  140859.15  47.91
1246.9  292940.41  140502.04  47.96
1250.6  292134.00  140207.92  47.99
1254.3  291204.83  139857.68  48.03
1258.1  290410.75  139521.48  48.04
1261.8  289370.27  139049.64  48.05
1265.6  288044.22  138382.29  48.04
1269.3  286438.70  137542.22  48.02
1273.1  286178.19  137293.97  47.97
1276.8  286606.40  137359.37  47.93
1280.6  286940.40  137384.14  47.88
1284.3  286065.20  136776.00  47.81
1288.0  284765.14  135882.42  47.72
1291.8  283222.18  134803.51  47.60
1295.5  281639.60  133653.14  47.46
1299.2  280336.65  132593.69  47.30
1302.9  279061.39  131460.07  47.11
1306.7  277748.33  130220.30  46.88
1310.4  276487.13  128881.90  46.61
1314.1  275330.37  127515.67  46.31
1317.9  274312.71  126085.78  45.96
1321.6  273130.98  124463.16  45.57
1325.3  271690.13  122600.40  45.13
1329.0  270438.58  120775.45  44.66
1332.8  268468.20  118505.20  44.14
1336.5  266693.40  116305.83  43.61
1340.2  266205.33  114662.17  43.07
1343.9  265537.50  112928.39  42.53
1347.6  264411.30  111034.74  41.99
1351.4  263701.50  109394.57  41.48
1355.1  263019.53  107807.96  40.99
1358.8  262112.00  106073.14  40.47
1362.5  261226.25  104240.94  39.90
1366.2  259627.40  101901.89  39.25
1369.9  258651.38  99547.59  38.49
1373.6  257422.90  96715.39  37.57
1377.3  255624.30  93133.11  36.43
1381.0  254123.83  88882.03  34.98
1384.8  252086.25  83610.89  33.17
1388.4  250410.88  78000.95  31.15
1392.2  249050.42  72131.45  28.96
1395.9  247618.30  66137.46  26.71
1399.6  246187.16  60418.92  24.54
1403.3  245262.70  55388.29  22.58
1407.0  244543.20  51092.29  20.89
1410.7  243808.95  47566.91  19.51
1414.3  243119.39  44823.97  18.44
1418.1  242418.79  42779.53  17.65
1421.7  241968.77  41312.92  17.07
1425.4  241406.10  40291.09  16.69
1429.1  240849.38  39619.18  16.45
1432.8  239676.63  39137.17  16.33
1436.5  238994.80  38938.33  16.29
1440.2  238185.57  38874.41  16.32
1443.9  236960.53  38844.25  16.39
1447.6  235512.20  38849.80  16.50
1451.2  234641.00  38976.40  16.61
1454.9  233597.85  39110.81  16.74
1458.6  232743.68  39365.53  16.91
1462.3  231738.83  39700.88  17.13
1466.0  230497.74  40146.01  17.42
1469.7  228977.23  40702.21  17.78
1473.3  228062.50  41497.31  18.20
1477.0  226417.30  42264.31  18.67
1480.7  225046.28  43142.54  19.17
1484.4  223380.48  43963.86  19.68
1488.0  222024.00  44886.28  20.22
1491.7  220567.63  45761.55  20.75
1495.4  219015.57  46617.86  21.29
1499.0  217572.50  47470.93  21.82
1502.7  216408.58  48380.28  22.36
1506.4  215116.55  49226.52  22.88
1510.0  213876.57  50055.52  23.40
1513.7  212588.54  50829.34  23.91
1517.4  211431.00  51595.90  24.40
1521.0  210362.00  52364.78  24.89
1524.7  209278.33  53066.00  25.36
1528.3  208117.75  53717.38  25.81
1532.0  207020.92  54329.00  26.24
1535.7  205755.93  54849.17  26.66
1539.3  204630.39  55375.27  27.06
1543.0  203737.20  55939.28  27.46
1546.6  203109.83  56544.58  27.84
1550.3  202207.60  57036.98  28.21
1553.9  201266.07  57466.50  28.55
1557.6  200138.40  57811.39  28.89
1561.2  198996.75  58105.74  29.20
1564.9  197813.85  58373.28  29.51
1568.5  196629.65  58603.53  29.80
1572.2  195590.05  58851.43  30.09
1575.8  194628.00  59104.00  30.37
1579.5  193733.80  59355.16  30.64
1583.1  192839.04  59593.23  30.90
1586.8  191772.00  59752.00  31.16
1590.4  190895.43  59958.42  31.41
1594.0  189742.58  60057.11  31.65
1597.7  188596.71  60151.16  31.89
1601.3  187237.58  60160.73  32.13
1604.9  185897.27  60147.26  32.36
1608.6  184635.93  60128.33  32.57
1612.2  183825.68  60217.34  32.76
1615.8  182904.80  60256.21  32.94
1619.5  181946.50  60257.18  33.12
1623.1  180798.50  60164.41  33.28
1626.7  179662.60  60060.56  33.43
1630.3  178550.83  59939.08  33.57
1634.0  177520.00  59828.00  33.70
1637.6  176607.00  59725.06  33.82
1641.2  175681.20  59578.02  33.91
1644.8  174562.41  59319.50  33.98
1648.5  173552.97  59076.29  34.04
1652.1  172668.60  58807.07  34.06
1655.7  171820.00  58495.89  34.04
1659.3  171018.51  58172.55  34.02
1662.9  169702.50  57640.12  33.97
1666.6  168363.93  57088.56  33.91
1670.2  167069.23  56524.54  33.83
1673.8  165717.30  55934.69  33.75
1677.4  164666.00  55415.21  33.65
1681.0  163959.68  54968.91  33.53
1684.6  163606.08  54603.10  33.37
1688.2  163022.15  54091.41  33.18
1691.8  162417.04  53613.08  33.01
1695.4  162050.40  53189.14  32.82
1699.0  161747.60  52775.17  32.63
1702.6  161450.67  52343.28  32.42
1706.2  160912.27  51808.25  32.20
1709.8  160114.76  51191.58  31.97
1713.4  159493.78  50622.05  31.74
1717.0  158724.75  50019.36  31.51
1720.6  158018.63  49445.59  31.29
1724.2  157399.05  48896.44  31.07
1727.8  156760.80  48383.60  30.86
1731.4  156316.88  47980.82  30.69
1735.0  156107.78  47719.46  30.57
1738.6  155813.25  47424.88  30.44
1742.2  155222.91  46994.68  30.28
1745.8  154544.60  46498.81  30.09
1749.4  153615.00  45889.68  29.87
1753.0  152195.60  45113.24  29.64
1756.6  150641.46  44310.21  29.41
1760.1  149438.30  43613.86  29.19
1763.7  147890.00  42854.48  28.98
1767.3  146605.68  42223.35  28.80
1770.9  145493.25  41670.94  28.64
1774.5  144155.75  41092.08  28.51
1778.0  143120.69  40602.98  28.37
1781.6  142107.00  40147.50  28.25
1785.2  141039.68  39702.49  28.15
1788.8  139961.90  39298.83  28.08
1792.3  138836.60  38901.58  28.02
1795.9  138371.57  38715.89  27.98
1799.5  137804.00  38528.81  27.96
1803.1  136469.08  38133.32  27.94
1806.6  135914.45  37939.63  27.91
1810.2  136412.27  38049.77  27.89
1813.8  137220.85  38259.39  27.88
1817.3  137390.20  38287.63  27.87
1820.9  136911.77  38135.77  27.85
1824.5  135901.55  37809.17  27.82
1828.0  135282.58  37566.05  27.77
1831.6  134411.58  37227.26  27.70
1835.2  133549.17  36837.38  27.58
1838.7  133081.73  36466.21  27.40
1842.3  132705.00  36055.71  27.17
1845.8  132196.46  35494.14  26.85
1849.4  131924.38  34856.33  26.42
1852.9  131414.68  33996.95  25.87
1856.5  130738.40  32898.72  25.16
1860.0  130155.33  31599.95  24.28
1863.6  129838.28  30142.82  23.22
1867.1  129293.85  28410.20  21.97
1870.7  128736.95  26310.27  20.44
1874.2  128061.45  23829.49  18.61
1877.8  127641.60  21284.15  16.67
1881.3  127171.50  18694.18  14.70
1884.9  126842.65  16249.76  12.81
1888.4  126175.67  13923.53  11.04
1891.9  125553.13  11940.33  9.51
1895.5  124599.55  10350.08  8.31
1899.0  124225.75  9203.75  7.41
1901.3  145619.00  7386.88  5.07
1904.1  145415.25  6716.06  4.62
1906.8  144856.35  6239.25  4.31
1909.6  143713.76  5858.39  4.08
1912.4  142624.48  5593.12  3.92
1915.1  141773.36  5418.19  3.82
1917.9  140755.63  5268.63  3.74
1920.6  139973.40  5175.39  3.70
1923.3  139234.55  5119.10  3.68
1926.1  138290.38  5066.95  3.66
1928.8  137456.00  5034.33  3.66
1931.6  136816.09  5049.99  3.69
1934.3  136188.68  5099.20  3.74
1937.0  135560.63  5144.12  3.79
1939.8  134830.00  5189.34  3.85
1942.5  133947.00  5249.75  3.92
1945.2  132767.25  5332.11  4.02
1947.9  131777.80  5412.99  4.11
1950.7  130971.00  5510.84  4.21
1953.4  129591.11  5603.47  4.32
1956.1  128509.25  5718.27  4.45
1958.8  127521.88  5834.56  4.58
1961.5  126318.30  5966.20  4.72
1964.2  125074.95  6101.55  4.88
1966.9  123756.49  6230.93  5.03
1969.6  122688.00  6374.25  5.20
1972.3  121485.00  6521.48  5.37
1975.0  120570.19  6692.81  5.55
1977.7  119587.06  6870.39  5.75
1980.4  118606.43  7054.98  5.95
1983.1  117661.93  7237.01  6.15
1985.8  116843.18  7434.15  6.36
1988.4  115960.00  7631.00  6.58
1991.1  115131.98  7830.43  6.80
1993.8  114353.94  8030.73  7.02
1996.5  113791.70  8250.46  7.25
1999.1  113203.61  8465.88  7.48
2001.8  112600.25  8674.35  7.70
2004.5  111987.23  8879.22  7.93
2007.1  111338.48  9069.53  8.15
2009.8  110670.70  9265.73  8.37
2012.4  110166.24  9471.87  8.60
2015.1  109699.45  9662.86  8.81
2017.8  108987.20  9820.42  9.01
2020.4  108537.69  10001.80  9.22
2023.1  108216.68  10178.70  9.41
2025.7  107971.50  10354.50  9.59
2028.3  107672.50  10512.67  9.76
2031.0  107339.03  10663.14  9.93
2033.6  107094.83  10807.58  10.09
2036.2  106840.35  10931.55  10.23
2038.9  106311.83  11014.20  10.36
2041.5  106038.25  11131.18  10.50
2044.1  105554.93  11216.48  10.63
2046.8  105235.20  11310.00  10.75
2049.4  104667.53  11364.38  10.86
2052.0  104367.70  11451.58  10.97
2054.6  104009.06  11530.31  11.09
2057.2  103535.85  11600.05  11.20
2059.8  103280.40  11709.22  11.34
2062.4  102514.54  11754.43  11.47
2065.0  102055.55  11838.03  11.60
2067.6  101292.03  11887.35  11.74
2070.2  100775.56  11963.63  11.87
2072.8  100213.34  12031.18  12.01
2075.4  99802.50  12112.19  12.14
2078.0  99214.34  12160.53  12.26
2080.6  98729.40  12225.40  12.38
2083.2  98131.88  12277.72  12.51
2085.8  97686.04  12338.39  12.63
2088.4  97089.38  12379.92  12.75
2090.9  96377.19  12400.64  12.87
2093.5  95613.65  12413.60  12.98
2096.1  94925.88  12435.00  13.10
2098.7  94207.84  12450.38  13.22
2101.2  93370.25  12449.37  13.33
2103.8  92793.85  12484.30  13.45
2106.4  92197.80  12508.32  13.57
2108.9  91601.75  12530.15  13.68
2111.5  90828.85  12519.23  13.78
2114.0  90278.65  12543.25  13.89
2116.6  89820.94  12582.50  14.01
2119.1  89360.83  12606.47  14.11
2121.7  88935.00  12641.56  14.21
2124.2  88571.83  12670.03  14.30
2126.8  87877.25  12650.20  14.40
2129.3  87516.00  12672.00  14.48
2131.9  86988.00  12669.80  14.56
2134.4  86606.10  12679.84  14.64
2136.9  86259.39  12678.74  14.70
2139.4  85804.95  12670.47  14.77
2142.0  85412.60  12674.90  14.84
2144.5  85159.65  12700.30  14.91
2147.0  84949.30  12721.07  14.97
2149.5  84527.20  12712.13  15.04
2152.1  84380.45  12731.63  15.09
2154.6  84272.40  12745.47  15.12
2157.1  83786.94  12714.40  15.17
2159.6  83453.13  12716.67  15.24
2162.1  83305.95  12726.35  15.28
2164.6  83090.50  12725.02  15.31
2167.1  82808.41  12721.21  15.36
2169.6  82500.69  12707.48  15.40
2172.1  82075.10  12677.37  15.45
2174.6  81815.40  12681.43  15.50
2177.1  81440.36  12667.11  15.55
2179.5  81068.98  12663.68  15.62
2182.0  80615.70  12636.53  15.68
2184.5  80128.98  12604.16  15.73
2187.0  79593.75  12572.28  15.80
2189.5  79012.76  12529.86  15.86
2191.9  78332.25  12471.13  15.92
2194.4  77791.91  12438.88  15.99
2196.9  77148.00  12388.80  16.06
2199.3  76560.00  12332.25  16.11
2201.8  75759.40  12237.23  16.15
2204.3  75333.10  12194.75  16.19
2206.7  74783.66  12137.67  16.23
2209.2  74391.85  12107.09  16.27
2211.6  73826.78  12030.98  16.30
2214.1  73520.55  11989.75  16.31
2216.5  73017.45  11927.45  16.34
2219.0  72741.80  11887.72  16.34
2221.4  72411.50  11818.19  16.32
2223.9  71980.13  11719.02  16.28
2226.3  71526.44  11622.33  16.25
2228.7  71041.40  11506.67  16.20
2231.1  70485.53  11352.83  16.11
2233.6  69985.30  11202.32  16.01
2236.0  69518.31  11059.56  15.91
2238.4  69094.38  10900.90  15.78
2240.9  68689.00  10735.45  15.63
2243.3  68204.75  10559.13  15.48
2245.7  67699.80  10365.41  15.31
2248.1  67275.00  10185.93  15.14
2250.5  66825.94  10000.80  14.97
2252.9  66273.35  9799.73  14.79
2255.3  65767.01  9594.29  14.59
2257.7  65362.50  9417.50  14.41
2260.1  64933.23  9240.70  14.23
2262.5  64402.50  9037.50  14.03
2264.9  63943.25  8860.21  13.86
2267.3  63405.00  8690.00  13.71
2269.7  62976.73  8523.32  13.53
2272.1  62488.98  8356.40  13.37
2274.5  61996.50  8206.30  13.24
2276.8  61564.94  8070.93  13.11
2279.2  61046.21  7924.42  12.98
2281.6  60679.35  7801.67  12.86
2284.0  60259.13  7665.90  12.72
2286.3  59850.00  7551.87  12.62
2288.7  59503.76  7441.47  12.51
2291.1  59013.08  7296.37  12.36
2293.4  58612.40  7166.13  12.23
2295.8  58061.10  7022.03  12.09
2298.2  57551.18  6882.75  11.96
2300.5  56976.75  6737.85  11.83
2302.9  56319.25  6590.08  11.70
2305.2  55674.08  6440.08  11.57
2307.6  55091.00  6318.96  11.47
2309.9  54381.75  6184.50  11.37
2312.2  53831.50  6091.50  11.32
2314.6  53305.09  6018.53  11.29
2316.9  52668.56  5922.79  11.25
2319.2  52146.93  5839.03  11.20
2321.6  51584.40  5749.77  11.15
2323.9  51101.56  5661.46  11.08
2326.2  50619.93  5571.40  11.01
2328.6  50167.84  5478.42  10.92
2330.9  49699.13  5376.00  10.82
2333.2  49276.00  5281.09  10.72
2335.5  48880.28  5192.18  10.62
2337.8  48460.30  5097.82  10.52
2340.1  47942.70  4987.29  10.40
2342.4  47571.88  4896.67  10.29
2344.8  47209.13  4811.52  10.19
2347.1  46676.88  4715.67  10.10
2349.4  46179.11  4621.49  10.01
2351.6  45666.84  4541.62  9.95
2353.9  45247.70  4471.26  9.88
2356.2  44780.71  4391.09  9.81
2358.5  44242.80  4306.40  9.73
2360.8  43713.60  4225.20  9.67
2363.1  43324.38  4158.58  9.60
2365.4  42908.93  4082.13  9.51
2367.7  42467.85  4001.40  9.42
2369.9  41992.88  3921.62  9.34
2372.2  41452.00  3838.47  9.26
2374.5  40930.31  3745.09  9.15
2376.7  40347.59  3650.54  9.05
2379.0  39812.18  3574.35  8.98
2381.3  39278.75  3491.25  8.89
2383.5  38816.80  3420.27  8.81
2385.8  38256.38  3329.97  8.70
2388.0  37780.65  3250.90  8.60
2390.3  37335.50  3183.23  8.53
2392.5  36909.00  3114.00  8.44
2394.8  36499.65  3025.00  8.29
2397.0  36045.10  2951.43  8.19
2399.3  35627.11  2884.41  8.10
2401.5  35224.88  2817.50  8.00
2403.8  34742.24  2740.46  7.89
2406.0  34279.31  2678.90  7.81
2408.2  33921.80  2614.88  7.71
2410.4  33545.84  2549.72  7.60
2412.7  33157.15  2475.64  7.47
2414.9  32807.78  2409.83  7.35
2417.1  32432.63  2349.50  7.24
2419.3  32073.60  2288.00  7.13
2421.6  31716.88  2231.36  7.04
2423.8  31392.30  2184.89  6.96
2426.0  31082.10  2129.27  6.85
2428.2  30742.60  2077.60  6.76
2430.4  30430.05  2028.01  6.66
2432.6  30180.00  1983.33  6.57
2434.8  29914.60  1931.49  6.46
2437.0  29570.13  1870.59  6.33
2439.2  29246.69  1824.75  6.24
2441.4  28967.43  1775.74  6.13
2443.6  28766.30  1737.45  6.04
2445.7  28519.84  1704.18  5.98
2447.9  28243.88  1656.08  5.86
2450.1  27966.53  1608.72  5.75
2452.3  27654.55  1570.48  5.68
2454.5  27327.74  1542.44  5.64
2456.6  26985.40  1490.87  5.52
2458.8  26662.35  1437.15  5.39
2461.0  26382.50  1412.83  5.36
2463.1  26102.70  1385.89  5.31
2465.3  25835.15  1342.61  5.20
2467.5  25642.88  1320.13  5.15
2469.6  25395.63  1290.29  5.08
2471.8  25092.85  1265.16  5.04
2473.9  24819.63  1236.83  4.98
2476.1  24501.75  1213.34  4.95
2478.2  24163.88  1172.97  4.85
2480.4  23899.95  1143.58  4.78
2482.5  23584.99  1126.41  4.78
2484.6  23304.88  1106.42  4.75
2486.8  23055.45  1095.08  4.75
2488.9  22728.00  1053.54  4.64
2491.1  22395.80  1035.30  4.62
2493.2  22057.95  1025.86  4.65
2495.3  21693.10  998.08  4.60
2497.4  21384.83  978.08  4.57
2499.5  21082.84  954.82  4.53
2501.7  20964.83  957.25  4.57
2503.8  20874.94  944.49  4.52
2505.9  20794.69  943.86  4.54
2508.0  20783.53  924.01  4.45
2510.1  20775.96  920.99  4.43
2512.2  20850.19  912.91  4.38
2514.3  20929.13  920.69  4.40
2516.4  21083.93  994.85  4.72
