/*** Spectra Vista SIG Data ***/
name= 37_20220721_LIST_50_avg.sig
comm= Averaged Ref/Tar of files: HR.072122.0033_moc.sig,HR.072122.0034_moc.sig,HR.072122.0035_moc.sig
data=
337.3  3374.50  297.75  8.82
338.8  3511.30  264.78  7.54
340.3  3701.15  264.15  7.14
341.8  3840.90  268.25  6.98
343.2  4040.40  256.25  6.34
344.7  4222.35  254.28  6.02
346.2  4411.80  252.88  5.73
347.7  4601.03  250.93  5.45
349.2  4762.80  241.20  5.06
350.6  5031.33  237.84  4.73
352.1  5323.03  234.77  4.41
353.6  5586.70  242.57  4.34
355.1  5859.45  241.82  4.13
356.6  6161.70  247.22  4.01
358.0  6411.90  247.91  3.87
359.5  6705.30  246.02  3.67
361.0  7032.38  250.80  3.57
362.5  7377.30  257.62  3.49
364.0  7713.58  263.27  3.41
365.4  8064.70  269.76  3.34
366.9  8453.25  285.72  3.38
368.4  8782.55  288.34  3.28
369.9  9134.45  297.02  3.25
371.3  9531.90  301.07  3.16
372.8  9929.70  313.04  3.15
374.3  10346.88  324.04  3.13
375.8  10753.05  321.35  2.99
377.2  11163.50  325.87  2.92
378.7  11540.10  334.59  2.90
380.2  11943.60  337.15  2.82
381.7  12458.53  350.04  2.81
383.1  12962.95  346.50  2.67
384.6  13433.55  358.13  2.67
386.1  13890.85  367.54  2.65
387.6  14310.45  374.22  2.62
389.0  14793.60  380.81  2.57
390.5  15292.80  384.85  2.52
392.0  15843.55  398.01  2.51
393.4  16395.60  400.38  2.44
394.9  16912.80  418.10  2.47
396.4  17413.88  424.35  2.44
397.9  17963.13  439.29  2.45
399.3  18487.25  446.20  2.41
400.8  19042.70  452.92  2.38
402.2  19689.10  471.36  2.39
403.7  20247.08  477.83  2.36
405.2  20857.68  491.99  2.36
406.6  21436.80  502.89  2.35
408.1  22012.40  513.99  2.34
409.6  22608.50  528.89  2.34
411.0  23250.15  543.31  2.34
412.5  23886.28  560.09  2.34
414.0  24531.50  577.49  2.35
415.4  25221.38  597.38  2.37
416.9  25867.05  610.93  2.36
418.4  26555.85  631.04  2.38
419.8  27245.40  649.65  2.38
421.3  27949.60  671.92  2.40
422.7  28710.00  693.35  2.42
424.2  29480.63  718.07  2.44
425.7  30220.20  737.69  2.44
427.1  30937.88  760.20  2.46
428.6  31713.00  784.45  2.47
430.0  32428.98  802.68  2.48
431.5  33282.75  829.83  2.49
432.9  34134.50  852.77  2.50
434.4  35010.30  877.78  2.51
435.9  35826.00  897.07  2.50
437.3  36643.75  916.93  2.50
438.8  37439.85  943.79  2.52
440.2  38282.48  972.00  2.54
441.7  39221.80  999.77  2.55
443.1  40094.50  1024.92  2.56
444.6  41042.30  1051.74  2.56
446.0  41961.15  1073.83  2.56
447.5  42885.15  1103.43  2.57
448.9  43782.60  1130.78  2.58
450.4  44742.25  1166.49  2.61
451.8  45591.00  1195.26  2.62
453.3  46494.70  1222.33  2.63
454.7  47482.70  1246.98  2.63
456.2  48337.38  1269.10  2.63
457.6  49263.53  1297.92  2.63
459.1  50208.60  1326.41  2.64
460.5  51119.25  1353.29  2.65
462.0  52138.88  1382.90  2.65
463.4  53142.30  1409.67  2.65
464.8  54112.50  1434.28  2.65
466.3  55076.18  1462.87  2.66
467.7  56046.65  1487.12  2.65
469.2  57060.05  1517.96  2.66
470.6  57998.40  1546.57  2.67
472.0  59002.40  1578.28  2.67
473.5  59988.88  1602.99  2.67
474.9  60975.75  1630.47  2.67
476.4  62107.20  1661.07  2.67
477.8  63147.50  1693.60  2.68
479.2  64119.00  1725.36  2.69
480.7  65195.40  1758.78  2.70
482.1  66296.60  1790.15  2.70
483.6  67452.60  1829.23  2.71
485.0  68510.18  1863.00  2.72
486.4  69679.95  1901.75  2.73
487.9  70726.50  1938.86  2.74
489.3  71858.00  1981.00  2.76
490.7  72903.48  2025.04  2.78
492.2  74102.70  2079.28  2.81
493.6  75183.80  2131.09  2.83
495.0  76269.38  2187.62  2.87
496.5  77410.63  2242.62  2.90
497.9  78467.23  2308.31  2.94
499.3  79597.20  2379.87  2.99
500.7  80809.40  2468.45  3.05
502.2  81920.60  2563.20  3.13
503.6  83132.40  2672.49  3.21
505.0  84164.25  2793.54  3.32
506.5  85443.83  2931.64  3.43
507.9  86607.65  3089.53  3.57
509.3  87941.60  3282.78  3.73
510.7  89168.63  3498.86  3.92
512.2  90526.65  3748.34  4.14
513.6  91940.45  4035.22  4.39
515.0  93316.00  4358.00  4.67
516.4  94632.30  4719.06  4.99
517.8  96177.13  5133.70  5.34
519.3  97455.30  5567.53  5.71
520.7  98968.20  6047.66  6.11
522.1  100214.73  6541.10  6.53
523.5  101539.50  7054.84  6.95
524.9  102937.05  7581.89  7.37
526.3  104267.10  8087.93  7.76
527.8  105702.30  8594.62  8.13
529.2  106818.10  9072.25  8.49
530.6  108317.20  9561.77  8.83
532.0  109956.00  10019.47  9.11
533.4  111260.70  10403.62  9.35
534.8  112200.90  10719.30  9.55
536.3  113855.40  11069.18  9.72
537.7  115768.80  11421.60  9.87
539.1  117149.13  11699.12  9.99
540.5  118306.90  11940.52  10.09
541.9  119975.48  12221.10  10.19
543.3  121236.55  12458.89  10.28
544.7  122481.60  12690.92  10.36
546.1  124205.40  12969.26  10.44
547.5  125395.20  13182.93  10.51
549.0  127116.00  13435.50  10.57
550.4  128573.13  13647.96  10.61
551.8  130046.90  13830.25  10.63
553.2  131524.10  13972.65  10.62
554.6  132839.20  14051.09  10.58
556.0  134301.60  14103.21  10.50
557.4  135856.35  14114.37  10.39
558.8  137448.00  14089.80  10.25
560.2  138848.63  14004.87  10.09
561.6  140456.03  13905.96  9.90
563.0  141978.15  13765.35  9.70
564.4  143511.65  13594.43  9.47
565.8  144988.75  13381.02  9.23
567.2  146651.50  13150.83  8.97
568.6  148117.50  12875.59  8.69
570.0  149501.45  12572.33  8.41
571.4  151186.10  12286.97  8.13
572.8  152868.63  12012.03  7.86
574.2  154436.80  11741.23  7.60
575.6  155925.00  11481.43  7.36
577.0  157375.10  11253.51  7.15
578.4  159056.63  11062.78  6.96
579.8  160512.30  10881.36  6.78
581.2  162188.90  10738.95  6.62
582.5  163542.60  10593.74  6.48
583.9  165011.20  10473.46  6.35
585.3  166735.35  10385.20  6.23
586.7  168157.60  10300.04  6.13
588.1  169604.50  10229.11  6.03
589.5  171193.75  10188.27  5.95
590.9  172769.20  10160.92  5.88
592.3  174507.75  10158.57  5.82
593.7  175903.65  10150.62  5.77
595.0  177472.35  10160.33  5.73
596.4  178852.45  10166.61  5.68
597.8  180278.10  10170.36  5.64
599.2  181777.20  10171.04  5.60
600.6  183458.60  10166.85  5.54
602.0  184714.58  10122.45  5.48
603.3  186434.45  10085.33  5.41
604.7  188044.93  10023.38  5.33
606.1  189474.00  9927.59  5.24
607.5  191037.08  9818.58  5.14
608.9  192667.65  9706.01  5.04
610.2  193999.05  9567.99  4.93
611.6  195550.58  9438.40  4.83
613.0  197040.20  9307.45  4.72
614.4  198360.15  9170.66  4.62
615.8  199748.25  9048.00  4.53
617.1  201228.30  8951.60  4.45
618.5  202789.60  8873.80  4.38
619.9  204233.70  8811.72  4.31
621.3  205818.98  8773.07  4.26
622.6  207339.00  8752.05  4.22
624.0  208729.50  8739.40  4.19
625.4  210139.05  8742.77  4.16
626.8  211675.10  8771.79  4.14
628.1  212953.13  8795.19  4.13
629.5  214758.90  8849.53  4.12
630.9  216296.85  8888.51  4.11
632.2  217636.48  8910.10  4.09
633.6  219217.13  8931.75  4.07
635.0  220676.00  8920.08  4.04
636.3  222166.60  8880.34  4.00
637.7  223494.63  8807.63  3.94
639.1  225067.50  8721.33  3.87
640.4  226487.45  8598.80  3.80
641.8  227643.08  8459.91  3.72
643.2  229169.85  8326.52  3.63
644.5  230479.25  8184.00  3.55
645.9  232174.80  8062.47  3.47
647.2  234107.48  7970.08  3.40
648.6  235973.25  7886.32  3.34
650.0  237384.00  7814.26  3.29
651.3  237676.73  7734.85  3.25
652.7  238452.25  7668.84  3.22
654.0  240358.40  7644.24  3.18
655.4  241916.05  7586.89  3.14
656.8  242322.50  7494.89  3.09
658.1  243548.30  7417.50  3.05
659.5  245774.03  7374.07  3.00
660.8  247500.00  7319.57  2.96
662.2  248326.40  7245.65  2.92
663.5  249852.00  7198.96  2.88
664.9  251210.70  7166.72  2.85
666.2  251947.80  7137.41  2.83
667.6  253567.35  7146.13  2.82
668.9  254667.65  7187.84  2.82
670.3  255656.75  7230.32  2.83
671.6  257247.38  7321.48  2.85
673.0  258397.88  7420.51  2.87
674.3  259564.50  7529.58  2.90
675.7  260860.28  7653.09  2.93
677.0  261965.35  7803.14  2.98
678.4  263308.88  7972.63  3.03
679.7  264366.08  8156.80  3.09
681.1  265628.48  8362.01  3.15
682.4  266724.90  8588.27  3.22
683.8  267984.60  8847.58  3.30
685.1  268951.50  9142.47  3.40
686.4  270218.40  9496.95  3.51
687.8  271472.25  9943.84  3.66
689.1  272518.00  10502.00  3.85
690.5  273832.20  11257.16  4.11
691.8  274622.03  12235.39  4.46
693.1  275854.35  13560.66  4.92
694.5  277026.75  15239.90  5.50
695.8  278187.00  17314.27  6.22
697.1  279324.50  19805.93  7.09
698.5  280390.40  22716.00  8.10
699.8  281442.10  26041.27  9.25
701.1  282530.50  29742.26  10.53
702.5  283318.20  33714.61  11.90
703.8  284242.50  37951.71  13.35
705.1  285380.55  42391.37  14.85
706.5  286422.38  46958.09  16.39
707.8  287376.30  51597.85  17.95
709.1  288238.08  56261.55  19.52
710.5  289354.33  60985.52  21.08
711.8  290212.20  65650.78  22.62
713.1  291215.70  70346.94  24.16
714.4  292130.00  74981.95  25.67
715.8  292910.50  79554.93  27.16
717.1  294215.40  84193.51  28.62
718.4  295142.40  88637.87  30.03
719.7  296242.98  93036.65  31.41
721.0  296775.00  97147.29  32.73
722.4  297547.25  101205.26  34.01
723.7  298481.70  105193.07  35.24
725.0  299515.50  109062.25  36.41
726.3  300422.65  112735.93  37.53
727.6  300993.28  116105.34  38.57
729.0  301922.25  119447.11  39.56
730.3  302686.65  122556.59  40.49
731.6  303589.10  125550.17  41.36
732.9  304390.45  128339.68  42.16
734.2  305184.00  130978.36  42.92
735.5  306201.40  133552.10  43.62
736.8  306986.10  135866.46  44.26
738.1  307832.00  138060.06  44.85
739.5  308763.10  140164.81  45.40
740.8  309461.90  142016.54  45.89
742.1  310207.78  143789.85  46.35
743.4  310950.00  145436.19  46.77
744.7  311968.60  147098.72  47.15
746.0  312819.00  148586.73  47.50
747.3  313370.43  149823.97  47.81
748.6  314124.25  151042.63  48.08
749.9  314912.00  152188.65  48.33
751.2  315630.50  153242.49  48.55
752.5  316545.75  154298.95  48.74
753.8  317150.23  155160.16  48.92
755.1  317876.00  156004.46  49.08
756.4  318479.48  156728.70  49.21
757.7  319444.83  157579.42  49.33
759.0  321230.03  158779.64  49.43
760.3  322396.80  159645.58  49.52
761.6  323961.40  160675.15  49.60
762.9  324531.00  161176.65  49.66
764.2  324925.10  161562.42  49.72
765.5  325245.88  161879.23  49.77
766.8  325720.00  162251.89  49.81
768.1  326251.80  162638.57  49.85
769.3  326905.95  163050.21  49.88
770.6  327546.05  163471.83  49.91
771.9  328323.28  163932.88  49.93
773.2  328730.00  164207.18  49.95
774.5  329357.60  164583.47  49.97
775.8  330072.85  164993.97  49.99
777.1  330677.60  165349.35  50.00
778.4  331060.68  165571.95  50.01
779.6  331879.63  166007.05  50.02
780.9  332370.00  166293.72  50.03
782.2  332840.75  166574.94  50.05
783.5  333212.50  166796.66  50.06
784.8  333773.10  167111.43  50.07
786.0  334239.50  167359.16  50.07
787.3  334673.68  167600.48  50.08
788.6  335117.25  167871.12  50.09
789.9  335588.40  168144.72  50.10
791.2  336304.30  168505.82  50.11
792.4  337004.50  168881.62  50.11
793.7  337540.40  169152.23  50.11
795.0  338182.35  169509.64  50.12
796.2  338895.95  169879.21  50.13
797.5  339645.23  170272.88  50.13
798.8  340343.95  170640.64  50.14
800.0  341053.00  171017.12  50.14
801.3  341578.20  171291.41  50.15
802.6  342214.43  171614.55  50.15
803.8  342902.20  171970.84  50.15
805.1  343441.00  172251.55  50.15
806.4  343928.70  172510.27  50.16
807.7  344466.68  172805.52  50.17
808.9  345019.10  173110.86  50.17
810.2  345587.90  173395.49  50.17
811.4  346103.10  173678.83  50.18
812.7  346815.63  174006.55  50.17
814.0  347676.35  174440.73  50.17
815.2  348320.25  174770.27  50.18
816.5  348726.48  175005.62  50.18
817.7  349184.65  175259.76  50.19
819.0  349729.05  175528.90  50.19
820.2  349932.00  175642.97  50.19
821.5  350681.10  175999.24  50.19
822.7  351017.08  176199.09  50.20
824.0  351364.50  176360.04  50.19
825.2  351874.13  176624.82  50.20
826.5  352151.48  176779.68  50.20
827.7  352743.63  177055.82  50.19
829.0  353158.80  177261.55  50.19
830.2  353468.60  177410.59  50.19
831.5  353958.70  177640.85  50.19
832.7  354285.23  177806.82  50.19
834.0  354626.60  177956.66  50.18
835.2  354963.95  178141.79  50.19
836.4  355257.65  178302.81  50.19
837.7  355660.40  178519.31  50.19
838.9  356114.95  178757.71  50.20
840.1  356431.05  178972.66  50.21
841.4  356876.80  179221.99  50.22
842.6  357261.80  179409.00  50.22
843.8  357635.80  179597.28  50.22
845.1  358117.90  179854.24  50.22
846.3  358436.40  180064.18  50.24
847.5  358883.70  180277.92  50.23
848.8  359243.40  180504.26  50.25
850.0  359611.00  180682.60  50.24
851.2  360078.75  180959.40  50.26
852.5  360530.10  181176.58  50.25
853.7  360963.00  181416.13  50.26
854.9  361434.80  181661.69  50.26
856.1  361864.75  181908.89  50.27
857.4  362117.68  182015.17  50.26
858.6  362540.65  182224.56  50.26
859.8  362900.63  182429.82  50.27
861.0  363355.20  182679.12  50.28
862.2  363761.85  182926.74  50.29
863.5  364152.75  183112.71  50.28
864.7  364669.80  183380.68  50.29
865.9  365018.20  183592.27  50.30
867.1  365337.05  183740.88  50.29
868.3  365791.95  183954.21  50.29
869.5  366297.30  184207.03  50.29
870.8  366817.50  184483.03  50.29
872.0  367293.75  184746.36  50.30
873.2  367695.75  184969.89  50.31
874.4  368181.45  185182.08  50.30
875.6  368560.50  185359.11  50.29
876.8  369054.40  185610.21  50.29
878.0  369547.90  185864.95  50.30
879.2  370024.05  186112.06  50.30
880.4  370542.38  186397.74  50.30
881.6  371030.53  186627.22  50.30
882.8  371418.40  186803.66  50.29
884.0  372099.35  187127.33  50.29
885.2  372637.30  187348.91  50.28
886.5  373258.85  187656.28  50.28
887.7  373783.80  187919.04  50.27
888.8  374410.05  188228.17  50.27
890.0  375069.65  188497.62  50.26
891.2  375643.30  188797.47  50.26
892.4  376203.98  189097.94  50.26
893.6  376824.85  189369.04  50.25
894.8  377706.00  189802.57  50.25
896.0  378638.75  190232.95  50.24
897.2  379525.25  190643.95  50.23
898.4  380249.10  190998.97  50.23
899.6  380805.75  191258.61  50.22
900.8  381216.80  191449.79  50.22
902.0  381490.65  191568.84  50.22
903.2  381899.48  191739.90  50.21
904.3  382377.30  191926.32  50.19
905.5  383052.93  192242.36  50.19
906.7  383630.00  192506.81  50.18
907.9  384140.40  192745.75  50.18
909.1  384540.08  192934.54  50.17
910.2  384644.40  193001.17  50.18
911.4  384959.25  193120.37  50.17
912.6  385313.50  193243.66  50.15
913.8  385694.25  193402.23  50.14
915.0  386220.45  193577.30  50.12
916.2  386460.75  193683.66  50.12
917.3  386581.28  193649.76  50.09
918.5  386787.30  193727.57  50.09
919.7  387020.10  193849.57  50.09
920.8  387102.75  193882.04  50.09
922.0  387406.25  193939.90  50.06
923.2  387796.50  194014.60  50.03
924.4  388003.50  194067.64  50.02
925.5  388350.40  194151.15  49.99
926.7  388826.13  194381.20  49.99
927.9  389841.60  194708.72  49.95
929.0  391271.85  195336.72  49.92
930.2  393412.10  196313.65  49.90
931.4  395933.40  197359.64  49.85
932.5  398576.30  198591.88  49.83
933.7  400065.08  199150.18  49.78
934.9  400640.63  199393.00  49.77
936.0  400465.00  199125.83  49.72
937.2  398734.50  198032.62  49.67
938.3  397148.40  197176.51  49.65
939.5  395758.80  196346.12  49.61
940.7  396057.60  196290.15  49.56
941.8  397513.05  196890.34  49.53
943.0  399010.50  197424.24  49.48
944.2  400003.50  197662.09  49.42
945.3  399769.50  197338.89  49.36
946.5  399131.55  196807.32  49.31
947.6  399325.80  196671.63  49.25
948.8  399497.48  196401.34  49.16
949.9  399537.60  196174.24  49.10
951.1  399245.28  195819.35  49.05
952.2  399228.00  195400.92  48.94
953.4  399163.50  194909.74  48.83
954.5  399297.60  194614.46  48.74
955.7  399268.80  194273.28  48.66
956.8  398974.90  193852.14  48.59
958.0  398921.50  193418.02  48.49
959.1  398856.08  193100.21  48.41
960.3  398546.68  192767.24  48.37
961.4  398735.00  192576.72  48.30
962.6  398704.25  192507.83  48.28
963.7  398653.13  192297.42  48.24
964.9  398627.70  192222.99  48.22
966.0  398621.25  192136.67  48.20
967.2  398866.50  192140.20  48.17
968.3  398884.50  191965.91  48.13
969.5  398673.95  191868.33  48.13
970.6  399017.95  191955.38  48.11
971.8  399133.53  192065.45  48.12
972.9  399023.55  192086.77  48.14
974.0  399227.50  192256.17  48.16
975.2  399457.38  192225.56  48.12
976.3  399396.85  192176.23  48.12
977.5  399730.98  192177.73  48.08
978.6  399699.90  192192.80  48.08
979.7  400090.95  192469.19  48.11
980.9  399970.48  192532.09  48.14
982.0  400278.30  192711.35  48.14
983.2  400054.28  192506.81  48.12
984.3  400236.80  192349.83  48.06
985.4  399795.33  192494.66  48.15
986.6  400409.50  192753.37  48.14
987.7  401118.38  193369.18  48.21
988.9  401230.80  193649.18  48.26
990.0  401690.40  193984.03  48.29
993.1  340970.99  163386.39  47.92
996.9  342049.55  164488.42  48.09
1000.7  343352.63  165663.25  48.25
1004.5  344002.83  166514.55  48.40
1008.4  343912.21  166979.24  48.55
1012.2  344072.92  167527.92  48.69
1016.0  344268.00  168104.40  48.83
1019.8  344663.55  168722.40  48.95
1023.7  344965.63  169219.83  49.05
1027.5  345054.13  169605.14  49.15
1031.3  345515.45  170109.80  49.23
1035.1  345603.77  170402.53  49.31
1038.9  345657.95  170646.67  49.37
1042.7  345529.25  170761.74  49.42
1046.5  345437.83  170860.14  49.46
1050.3  345488.88  171004.73  49.50
1054.2  345215.50  171000.08  49.53
1058.0  344763.07  170835.90  49.55
1061.8  344604.25  170841.10  49.58
1065.6  344332.17  170730.92  49.58
1069.4  344565.40  170833.46  49.58
1073.2  344392.57  170726.08  49.57
1077.0  344026.45  170499.11  49.56
1080.8  343498.96  170129.02  49.53
1084.6  342294.40  169424.85  49.50
1088.4  341512.29  168934.89  49.47
1092.2  340674.75  168379.71  49.43
1096.0  340112.70  167939.00  49.38
1099.8  339720.12  167530.60  49.31
1103.6  339141.75  167035.37  49.25
1107.4  338290.81  166375.52  49.18
1111.2  338050.80  165986.31  49.10
1114.9  337389.50  165334.25  49.00
1118.7  336691.58  164594.57  48.89
1122.5  335940.80  163710.11  48.73
1126.3  334802.01  162532.05  48.55
1130.1  334329.63  161400.12  48.28
1133.9  332892.70  159507.00  47.92
1137.7  331632.80  157379.46  47.46
1141.4  330085.28  154832.38  46.91
1145.2  329441.91  152551.55  46.31
1149.0  328415.21  150212.71  45.74
1152.8  326981.45  147920.77  45.24
1156.6  325493.12  146077.07  44.88
1160.3  323925.33  144637.33  44.65
1164.1  321673.27  143264.00  44.54
1167.9  320011.46  142360.42  44.49
1171.7  318819.38  141807.38  44.48
1175.4  317802.87  141383.34  44.49
1179.2  316940.25  140988.38  44.48
1183.0  316731.00  140850.48  44.47
1186.7  316146.83  140514.57  44.45
1190.5  315007.40  139942.35  44.43
1194.3  313829.17  139401.02  44.42
1198.0  312748.15  138955.34  44.43
1201.8  311453.18  138457.95  44.46
1205.6  310299.33  138090.19  44.50
1209.3  309334.17  137890.38  44.58
1213.1  308326.88  137682.70  44.65
1216.8  307276.02  137519.41  44.75
1220.6  306234.13  137329.87  44.84
1224.3  305065.83  137071.62  44.93
1228.1  303978.60  136867.00  45.03
1231.9  302878.00  136615.81  45.11
1235.6  301595.33  136260.73  45.18
1239.4  300384.00  135943.88  45.26
1243.1  299287.59  135593.87  45.31
1246.9  298179.61  135218.66  45.35
1250.6  297316.73  134902.22  45.37
1254.3  296353.11  134519.85  45.39
1258.1  295466.73  134143.37  45.40
1261.8  294330.80  133627.48  45.40
1265.6  293010.20  132964.63  45.38
1269.3  291533.13  132203.59  45.35
1273.1  291393.21  131988.80  45.30
1276.8  291690.40  131930.97  45.23
1280.6  291752.20  131725.95  45.15
1284.3  290624.40  130932.91  45.05
1288.0  289264.08  129977.42  44.93
1291.8  287948.51  128924.03  44.77
1295.5  286528.00  127796.74  44.60
1299.2  285268.23  126662.15  44.40
1302.9  283931.19  125381.74  44.16
1306.7  282496.43  123971.52  43.88
1310.4  281155.86  122441.22  43.55
1314.1  279910.58  120859.46  43.18
1317.9  278829.58  119185.54  42.74
1321.6  277551.75  117307.88  42.27
1325.3  276029.25  115185.83  41.73
1329.0  274779.05  113085.75  41.16
1332.8  272811.00  110567.60  40.53
1336.5  271044.40  108116.35  39.89
1340.2  270588.50  106197.00  39.25
1343.9  269993.54  104229.23  38.60
1347.6  268999.95  102153.19  37.98
1351.4  268568.50  100360.29  37.37
1355.1  268159.47  98634.02  36.78
1358.8  267616.00  96800.00  36.17
1362.5  266855.15  94748.53  35.51
1366.2  265344.50  92128.83  34.72
1369.9  264064.75  89244.72  33.80
1373.6  262528.99  85776.02  32.67
1377.3  260680.50  81571.54  31.29
1381.0  259313.33  76660.02  29.56
1384.8  257416.25  70675.90  27.46
1388.4  255589.48  64282.68  25.15
1392.2  254052.33  57707.00  22.71
1395.9  252586.05  51213.61  20.28
1399.6  251129.08  45219.68  18.01
1403.3  250132.03  40082.45  16.02
1407.0  249347.40  35838.61  14.37
1410.7  248480.10  32496.51  13.08
1414.3  247614.50  29984.20  12.11
1418.1  246761.63  28193.46  11.43
1421.7  246126.36  26955.31  10.95
1425.4  245453.98  26133.34  10.65
1429.1  244770.00  25636.71  10.47
1432.8  243497.89  25320.30  10.40
1436.5  242787.63  25231.99  10.39
1440.2  241983.83  25255.81  10.44
1443.9  240817.96  25313.38  10.51
1447.6  239377.60  25396.80  10.61
1451.2  238460.38  25559.65  10.72
1454.9  237339.90  25733.36  10.84
1458.6  236365.68  26009.41  11.00
1462.3  235301.73  26377.06  11.21
1466.0  234016.11  26860.56  11.48
1469.7  232494.71  27467.68  11.81
1473.3  231563.17  28285.05  12.21
1477.0  229872.70  29117.76  12.67
1480.7  228436.87  30056.15  13.16
1484.4  226712.09  30978.56  13.66
1488.0  225309.33  31975.43  14.19
1491.7  223821.58  32954.23  14.72
1495.4  222247.52  33927.16  15.27
1499.0  220777.00  34887.00  15.80
1502.7  219594.67  35885.14  16.34
1506.4  218304.10  36837.33  16.87
1510.0  217037.23  37769.97  17.40
1513.7  215718.42  38648.75  17.92
1517.4  214512.67  39525.19  18.43
1521.0  213400.80  40386.90  18.93
1524.7  212278.08  41193.75  19.41
1528.3  211098.13  41961.34  19.88
1532.0  209957.18  42684.77  20.33
1535.7  208690.47  43330.72  20.76
1539.3  207518.69  43977.81  21.19
1543.0  206622.92  44636.55  21.60
1546.6  205982.83  45316.14  22.00
1550.3  205087.85  45897.34  22.38
1553.9  204114.83  46426.28  22.75
1557.6  202939.00  46879.69  23.10
1561.2  201772.80  47278.54  23.43
1564.9  200571.66  47652.87  23.76
1568.5  199350.78  47984.77  24.07
1572.2  198301.70  48321.96  24.37
1575.8  197316.00  48660.00  24.66
1579.5  196406.85  48985.47  24.94
1583.1  195481.63  49293.12  25.22
1586.8  194376.00  49526.00  25.48
1590.4  193435.47  49778.24  25.73
1594.0  192240.32  49942.50  25.98
1597.7  191152.49  50122.89  26.22
1601.3  189874.13  50236.20  26.46
1604.9  188616.96  50327.38  26.68
1608.6  187362.68  50381.95  26.89
1612.2  186434.33  50494.01  27.08
1615.8  185406.33  50551.57  27.27
1619.5  184395.83  50593.05  27.44
1623.1  183214.73  50553.35  27.59
1626.7  182080.28  50497.66  27.73
1630.3  180944.50  50418.10  27.86
1634.0  179900.00  50330.00  27.98
1637.6  178956.13  50224.03  28.06
1641.2  178027.55  50054.13  28.12
1644.8  176904.39  49762.11  28.13
1648.5  175920.37  49453.70  28.11
1652.1  174995.10  49110.30  28.06
1655.7  174106.20  48754.69  28.00
1659.3  173298.00  48451.84  27.96
1662.9  171969.17  48049.28  27.94
1666.6  170614.60  47698.06  27.96
1670.2  169304.51  47374.58  27.98
1673.8  167941.98  47027.99  28.00
1677.4  166885.90  46742.35  28.01
1681.0  166141.30  46507.82  27.99
1684.6  165789.00  46338.19  27.95
1688.2  165187.10  46036.02  27.87
1691.8  164580.72  45711.93  27.77
1695.4  164194.60  45387.26  27.64
1699.0  163882.60  45038.33  27.48
1702.6  163586.33  44672.91  27.31
1706.2  163044.70  44241.82  27.13
1709.8  162194.36  43754.12  26.98
1713.4  161538.95  43315.80  26.81
1717.0  160745.50  42827.68  26.64
1720.6  160028.03  42328.26  26.45
1724.2  159399.00  41832.64  26.24
1727.8  158747.40  41318.70  26.03
1731.4  158298.25  40848.30  25.80
1735.0  158101.17  40437.20  25.58
1738.6  157821.75  39975.77  25.33
1742.2  157238.99  39415.54  25.07
1745.8  156571.52  38829.93  24.80
1749.4  155637.08  38170.86  24.53
1753.0  154199.40  37397.61  24.25
1756.6  152635.58  36620.79  23.99
1760.1  151407.86  35937.24  23.74
1763.7  149822.00  35196.57  23.49
1767.3  148517.73  34544.80  23.26
1770.9  147381.79  33959.22  23.04
1774.5  146050.54  33363.49  22.84
1778.0  145004.46  32859.58  22.66
1781.6  143970.45  32399.36  22.50
1785.2  142887.75  31966.76  22.37
1788.8  141789.00  31574.10  22.27
1792.3  140649.37  31202.22  22.18
1795.9  140199.58  31003.25  22.11
1799.5  139637.00  30818.57  22.07
1803.1  138656.93  30552.32  22.03
1806.6  138582.97  30478.06  21.99
1810.2  139315.87  30579.30  21.95
1813.8  140052.80  30688.81  21.91
1817.3  140097.00  30641.97  21.87
1820.9  139417.05  30430.67  21.83
1824.5  138307.35  30111.72  21.77
1828.0  137528.88  29837.89  21.70
1831.6  136654.28  29510.65  21.60
1835.2  135858.33  29142.86  21.45
1838.7  135421.60  28761.47  21.24
1842.3  135075.00  28326.43  20.97
1845.8  134520.79  27721.61  20.61
1849.4  134137.30  27021.56  20.14
1852.9  133612.03  26131.18  19.56
1856.5  132881.92  25006.16  18.82
1860.0  132281.63  23676.95  17.90
1863.6  131951.78  22202.36  16.83
1867.1  131489.05  20501.60  15.59
1870.7  131145.60  18516.82  14.12
1874.2  130570.65  16241.27  12.44
1877.8  129913.00  13960.80  10.75
1881.3  129089.88  11757.70  9.11
1884.9  128486.69  9814.51  7.64
1888.4  127662.45  8122.77  6.36
1891.9  126842.27  6810.97  5.37
1895.5  125801.77  5852.30  4.65
1899.0  125270.50  5252.18  4.19
1901.3  149019.75  3549.42  2.38
1904.1  148825.69  3225.00  2.17
1906.8  148261.50  2989.20  2.02
1909.6  146900.78  2820.48  1.92
1912.4  145632.73  2707.43  1.86
1915.1  144703.76  2635.33  1.82
1917.9  143637.13  2584.88  1.80
1920.6  142816.78  2543.61  1.78
1923.3  142017.75  2509.85  1.77
1926.1  141045.68  2490.67  1.77
1928.8  140140.00  2489.67  1.78
1931.6  139468.89  2487.00  1.78
1934.3  138808.06  2502.54  1.80
1937.0  138157.15  2526.18  1.83
1939.8  137410.19  2554.12  1.86
1942.5  136430.25  2579.50  1.89
1945.2  135118.50  2596.83  1.92
1947.9  134035.30  2636.26  1.97
1950.7  133161.18  2678.51  2.01
1953.4  131696.89  2709.81  2.06
1956.1  130536.19  2759.08  2.11
1958.8  129499.34  2815.96  2.17
1961.5  128243.40  2877.30  2.24
1964.2  126938.18  2939.30  2.32
1966.9  125575.54  3002.34  2.39
1969.6  124490.25  3078.00  2.47
1972.3  123260.55  3161.73  2.57
1975.0  122329.13  3252.37  2.66
1977.7  121345.99  3352.54  2.76
1980.4  120335.65  3454.07  2.87
1983.1  119361.68  3554.22  2.98
1985.8  118552.73  3671.40  3.10
1988.4  117630.50  3785.17  3.22
1991.1  116802.53  3910.90  3.35
1993.8  116008.34  4041.22  3.48
1996.5  115433.18  4183.39  3.62
1999.1  114825.70  4314.80  3.76
2001.8  114193.10  4454.80  3.90
2004.5  113576.66  4599.64  4.05
2007.1  112934.40  4742.37  4.20
2009.8  112270.03  4879.99  4.35
2012.4  111749.55  5019.21  4.49
2015.1  111266.40  5162.74  4.64
2017.8  110554.15  5287.92  4.78
2020.4  110082.23  5430.66  4.93
2023.1  109751.25  5570.66  5.08
2025.7  109518.50  5709.17  5.21
2028.3  109206.50  5834.83  5.34
2031.0  108862.95  5954.60  5.47
2033.6  108615.15  6074.78  5.59
2036.2  108373.73  6187.88  5.71
2038.9  107845.20  6283.58  5.83
2041.5  107554.95  6391.49  5.94
2044.1  107062.20  6474.98  6.05
2046.8  106716.38  6564.15  6.15
2049.4  106135.65  6631.58  6.25
2052.0  105861.10  6715.93  6.34
2054.6  105511.88  6794.37  6.44
2057.2  105016.15  6866.58  6.54
2059.8  104741.05  6953.92  6.64
2062.4  103959.33  7001.66  6.74
2065.0  103490.00  7067.45  6.83
2067.6  102684.51  7112.80  6.93
2070.2  102154.98  7178.17  7.03
2072.8  101579.68  7223.94  7.11
2075.4  101180.63  7277.81  7.19
2078.0  100597.71  7325.30  7.28
2080.6  100095.60  7378.80  7.37
2083.2  99473.18  7416.60  7.46
2085.8  99016.71  7461.44  7.54
2088.4  98414.38  7501.71  7.62
2090.9  97706.30  7520.62  7.70
2093.5  96915.50  7537.14  7.78
2096.1  96217.03  7555.86  7.85
2098.7  95498.99  7571.24  7.93
2101.2  94647.50  7565.25  7.99
2103.8  94044.90  7582.72  8.06
2106.4  93429.20  7598.00  8.13
2108.9  92833.15  7613.28  8.20
2111.5  92066.80  7611.10  8.27
2114.0  91503.50  7619.83  8.33
2116.6  91041.56  7634.38  8.39
2119.1  90557.48  7646.73  8.44
2121.7  90122.81  7656.25  8.50
2124.2  89755.33  7670.84  8.55
2126.8  89043.24  7656.87  8.60
2129.3  88684.20  7673.60  8.65
2131.9  88143.00  7675.80  8.71
2134.4  87761.03  7695.08  8.77
2136.9  87425.33  7717.40  8.83
2139.4  86962.05  7720.65  8.88
2142.0  86556.40  7738.38  8.94
2144.5  86301.08  7778.60  9.01
2147.0  86088.30  7821.13  9.09
2149.5  85646.10  7836.77  9.15
2152.1  85492.14  7878.38  9.22
2154.6  85408.00  7919.73  9.27
2157.1  84924.63  7934.29  9.34
2159.6  84549.94  7959.27  9.41
2162.1  84418.43  7989.80  9.46
2164.6  84207.05  8009.93  9.51
2167.1  83910.41  8030.83  9.57
2169.6  83613.60  8050.76  9.63
2172.1  83190.03  8053.78  9.68
2174.6  82906.55  8071.27  9.74
2177.1  82505.63  8071.86  9.78
2179.5  82138.06  8082.21  9.84
2182.0  81702.64  8085.42  9.90
2184.5  81212.75  8083.74  9.95
2187.0  80640.85  8074.94  10.01
2189.5  80029.85  8058.46  10.07
2191.9  79351.13  8041.75  10.13
2194.4  78808.99  8026.78  10.19
2196.9  78134.40  8008.80  10.25
2199.3  77538.75  7989.50  10.30
2201.8  76737.60  7942.40  10.35
2204.3  76304.95  7931.87  10.39
2206.7  75744.04  7899.70  10.43
2209.2  75325.83  7894.31  10.48
2211.6  74762.33  7863.08  10.52
2214.1  74490.68  7860.50  10.55
2216.5  73978.50  7827.47  10.58
2219.0  73673.05  7812.57  10.60
2221.4  73341.19  7779.62  10.61
2223.9  72909.81  7742.44  10.62
2226.3  72441.25  7687.90  10.61
2228.7  71945.73  7617.58  10.59
2231.1  71398.80  7538.85  10.56
2233.6  70856.95  7457.45  10.52
2236.0  70381.06  7370.56  10.47
2238.4  69934.81  7281.32  10.41
2240.9  69538.30  7189.25  10.34
2243.3  69061.50  7084.95  10.26
2245.7  68550.53  6967.49  10.16
2248.1  68097.25  6857.07  10.07
2250.5  67649.56  6746.24  9.97
2252.9  67088.13  6610.40  9.85
2255.3  66558.04  6479.94  9.74
2257.7  66165.00  6362.50  9.62
2260.1  65730.88  6240.74  9.49
2262.5  65182.50  6115.00  9.38
2264.9  64706.98  5994.99  9.26
2267.3  64170.00  5862.50  9.14
2269.7  63729.23  5746.60  9.02
2272.1  63225.20  5636.88  8.92
2274.5  62715.30  5525.78  8.81
2276.8  62286.14  5421.52  8.70
2279.2  61769.81  5308.91  8.59
2281.6  61389.05  5214.53  8.49
2284.0  60963.60  5133.33  8.42
2286.3  60556.80  5033.73  8.31
2288.7  60206.41  4944.01  8.21
2291.1  59719.18  4837.81  8.10
2293.4  59297.70  4738.07  7.99
2295.8  58740.90  4629.85  7.88
2298.2  58203.23  4533.30  7.79
2300.5  57605.51  4432.39  7.69
2302.9  56939.25  4324.50  7.59
2305.2  56292.08  4220.43  7.50
2307.6  55694.53  4129.25  7.41
2309.9  54994.00  4030.00  7.33
2312.2  54443.75  3955.08  7.26
2314.6  53871.75  3878.66  7.20
2316.9  53227.46  3795.86  7.13
2319.2  52698.95  3719.05  7.06
2321.6  52145.10  3631.57  6.96
2323.9  51632.81  3559.89  6.89
2326.2  51136.38  3487.34  6.82
2328.6  50677.28  3406.70  6.72
2330.9  50234.63  3336.38  6.64
2333.2  49799.88  3264.96  6.56
2335.5  49393.88  3193.95  6.47
2337.8  48969.81  3129.86  6.39
2340.1  48452.21  3057.07  6.31
2342.4  48059.38  2984.59  6.21
2344.8  47692.19  2920.21  6.12
2347.1  47170.38  2856.82  6.06
2349.4  46674.86  2795.48  5.99
2351.6  46162.59  2726.63  5.91
2353.9  45711.10  2656.28  5.81
2356.2  45230.94  2601.30  5.75
2358.5  44688.00  2548.00  5.70
2360.8  44158.80  2480.80  5.62
2363.1  43761.83  2420.00  5.53
2365.4  43349.63  2364.53  5.45
2367.7  42912.45  2311.35  5.39
2369.9  42413.66  2247.06  5.30
2372.2  41856.20  2187.27  5.23
2374.5  41311.46  2128.09  5.15
2376.7  40748.36  2064.86  5.07
2379.0  40196.08  1998.03  4.97
2381.3  39637.50  1945.42  4.91
2383.5  39177.60  1886.13  4.81
2385.8  38618.20  1835.60  4.75
2388.0  38143.50  1775.90  4.66
2390.3  37673.70  1732.53  4.60
2392.5  37242.00  1683.00  4.52
2394.8  36826.35  1633.50  4.44
2397.0  36372.70  1580.37  4.34
2399.3  35956.06  1541.19  4.29
2401.5  35546.44  1491.44  4.20
2403.8  35056.31  1444.13  4.12
2406.0  34577.31  1399.98  4.05
2408.2  34211.65  1358.87  3.97
2410.4  33836.08  1320.11  3.90
2412.7  33458.75  1281.80  3.83
2414.9  33092.40  1239.70  3.75
2417.1  32737.43  1196.98  3.66
2419.3  32371.20  1164.80  3.60
2421.6  32026.88  1136.67  3.55
2423.8  31684.05  1098.93  3.47
2426.0  31345.01  1061.39  3.39
2428.2  30997.40  1038.80  3.35
2430.4  30707.95  1012.35  3.30
2432.6  30460.00  973.33  3.20
2434.8  30175.25  945.69  3.13
2437.0  29842.15  916.83  3.07
2439.2  29520.40  898.86  3.04
2441.4  29243.50  862.31  2.95
2443.6  29025.36  835.91  2.88
2445.7  28769.74  819.12  2.85
2447.9  28494.38  810.65  2.84
2450.1  28229.96  772.75  2.74
2452.3  27919.24  751.71  2.69
2454.5  27593.68  733.99  2.66
2456.6  27231.50  709.77  2.61
2458.8  26898.30  686.40  2.55
2461.0  26620.38  673.98  2.53
2463.1  26353.69  651.11  2.47
2465.3  26109.53  632.89  2.42
2467.5  25886.25  626.88  2.42
2469.6  25619.38  619.04  2.42
2471.8  25318.10  593.16  2.34
2473.9  25045.88  573.17  2.29
2476.1  24717.88  564.96  2.29
2478.2  24392.38  544.59  2.23
2480.4  24130.20  541.09  2.24
2482.5  23794.01  530.30  2.23
2484.6  23480.19  510.36  2.17
2486.8  23232.08  506.33  2.18
2488.9  22952.91  493.23  2.15
2491.1  22633.80  464.10  2.05
2493.2  22285.48  459.05  2.06
2495.3  21897.53  456.95  2.09
2497.4  21578.03  450.80  2.09
2499.5  21289.18  445.04  2.09
2501.7  21174.35  427.27  2.02
2503.8  21050.46  430.46  2.04
2505.9  20986.88  427.08  2.04
2508.0  20954.31  424.78  2.03
2510.1  20950.33  424.73  2.03
2512.2  21015.34  426.64  2.03
2514.3  21171.16  436.62  2.06
2516.4  21349.88  438.33  2.05
