/*** Spectra Vista SIG Data ***/
name= 33_20221021_CECA_12_avg.sig
comm= Averaged Ref/Tar of files: HR.102122.0015_moc.sig,HR.102122.0016_moc.sig,HR.102122.0017_moc.sig
data=
337.3  3076.75  258.05  8.39
338.8  3222.70  250.12  7.76
340.3  3420.05  237.37  6.94
341.8  3566.55  231.67  6.50
343.2  3774.00  224.96  5.96
344.7  3923.80  233.15  5.94
346.2  4085.00  245.10  6.00
347.7  4286.43  246.44  5.75
349.2  4498.20  231.84  5.15
350.6  4737.53  230.14  4.86
352.1  5001.50  228.64  4.57
353.6  5274.40  235.96  4.47
355.1  5522.70  246.95  4.47
356.6  5801.18  253.46  4.37
358.0  6061.00  255.20  4.21
359.5  6365.40  255.44  4.01
361.0  6673.28  255.36  3.83
362.5  7055.28  273.23  3.87
364.0  7369.48  286.75  3.89
365.4  7727.50  292.24  3.78
366.9  8066.50  298.35  3.70
368.4  8373.43  305.48  3.65
369.9  8756.10  317.09  3.62
371.3  9184.80  338.20  3.68
372.8  9611.10  350.46  3.65
374.3  10051.25  361.92  3.60
375.8  10402.70  362.93  3.49
377.2  10786.90  369.43  3.42
378.7  11217.30  373.01  3.33
380.2  11593.90  380.19  3.28
381.7  12107.20  396.37  3.27
383.1  12585.65  406.05  3.23
384.6  13082.88  410.02  3.13
386.1  13512.50  417.99  3.09
387.6  13960.10  427.61  3.06
389.0  14418.40  443.09  3.07
390.5  14868.00  449.58  3.02
392.0  15420.35  461.99  3.00
393.4  15948.93  469.45  2.94
394.9  16495.20  473.28  2.87
396.4  17025.75  486.45  2.86
397.9  17578.75  502.25  2.86
399.3  18107.38  523.38  2.89
400.8  18643.90  538.38  2.89
402.2  19247.20  546.65  2.84
403.7  19837.80  555.33  2.80
405.2  20431.53  561.89  2.75
406.6  21019.20  581.55  2.77
408.1  21605.60  599.65  2.78
409.6  22191.45  614.60  2.77
411.0  22823.15  634.81  2.78
412.5  23469.78  649.74  2.77
414.0  24124.00  671.02  2.78
415.4  24804.00  691.65  2.79
416.9  25462.28  711.89  2.80
418.4  26145.00  732.06  2.80
419.8  26845.00  761.97  2.84
421.3  27539.63  791.43  2.87
422.7  28292.40  825.92  2.92
424.2  29058.75  859.50  2.96
425.7  29812.70  893.24  3.00
427.1  30558.08  928.40  3.04
428.6  31356.50  971.33  3.10
430.0  32095.13  1011.67  3.15
431.5  32939.48  1048.73  3.18
432.9  33812.20  1093.87  3.24
434.4  34666.50  1134.54  3.27
435.9  35490.00  1177.87  3.32
437.3  36327.50  1221.00  3.36
438.8  37168.35  1257.95  3.38
440.2  38012.98  1304.38  3.43
441.7  38953.80  1345.36  3.45
443.1  39856.00  1386.83  3.48
444.6  40806.50  1430.52  3.51
446.0  41740.58  1470.50  3.52
447.5  42691.28  1514.81  3.55
448.9  43602.00  1560.04  3.58
450.4  44586.85  1600.62  3.59
451.8  45448.00  1639.73  3.61
453.3  46350.88  1675.34  3.61
454.7  47364.13  1716.26  3.62
456.2  48218.35  1750.99  3.63
457.6  49170.60  1789.47  3.64
459.1  50128.65  1831.74  3.65
460.5  51052.38  1867.15  3.66
462.0  52111.83  1909.73  3.66
463.4  53128.60  1949.05  3.67
464.8  54112.50  1986.90  3.67
466.3  55062.15  2027.08  3.68
467.7  56032.58  2064.33  3.68
469.2  57088.20  2107.50  3.69
470.6  58054.60  2143.09  3.69
472.0  59086.85  2178.81  3.69
473.5  60087.75  2220.45  3.70
474.9  61118.25  2259.10  3.70
476.4  62251.20  2307.84  3.71
477.8  63292.50  2347.07  3.71
479.2  64293.00  2383.80  3.71
480.7  65369.10  2422.15  3.71
482.1  66498.90  2468.06  3.71
483.6  67669.35  2512.37  3.71
485.0  68727.30  2555.32  3.72
486.4  69898.20  2605.42  3.73
487.9  70945.88  2652.00  3.74
489.3  72093.60  2703.51  3.75
490.7  73153.80  2754.56  3.77
492.2  74352.60  2814.56  3.79
493.6  75447.50  2869.45  3.80
495.0  76532.63  2930.85  3.83
496.5  77704.13  3005.44  3.87
497.9  78790.08  3077.84  3.91
499.3  79934.73  3158.06  3.95
500.7  81175.65  3244.49  4.00
502.2  82314.80  3334.64  4.05
503.6  83555.80  3441.71  4.12
505.0  84618.40  3553.11  4.20
506.5  85916.63  3687.84  4.29
507.9  87082.05  3826.83  4.39
509.3  88415.20  3994.03  4.52
510.7  89636.63  4163.25  4.64
512.2  91004.33  4363.73  4.80
513.6  92471.40  4595.83  4.97
515.0  93885.00  4849.78  5.17
516.4  95256.00  5127.57  5.38
517.8  96869.25  5454.13  5.63
519.3  98173.13  5783.89  5.89
520.7  99740.95  6157.65  6.17
522.1  101011.30  6542.16  6.48
523.5  102359.60  6950.00  6.79
524.9  103801.95  7380.48  7.11
526.3  105214.20  7812.14  7.42
527.8  106682.40  8260.56  7.74
529.2  107727.00  8687.69  8.06
530.6  109242.00  9153.59  8.38
532.0  110936.00  9626.40  8.68
533.4  112224.53  10052.74  8.96
534.8  113073.75  10423.06  9.22
536.3  114693.90  10849.76  9.46
537.7  116650.80  11294.64  9.68
539.1  118098.15  11684.10  9.89
540.5  119270.90  12037.15  10.09
541.9  121023.45  12445.39  10.28
543.3  122278.30  12797.32  10.47
544.7  123598.80  13152.56  10.64
546.1  125366.73  13551.05  10.81
547.5  126582.40  13880.53  10.97
549.0  128205.00  14235.47  11.10
550.4  129688.75  14560.50  11.23
551.8  131257.28  14862.70  11.32
553.2  132770.63  15120.31  11.39
554.6  134108.00  15314.35  11.42
556.0  135616.05  15484.98  11.42
557.4  137208.93  15621.04  11.38
558.8  138834.90  15725.10  11.33
560.2  140280.38  15774.15  11.24
561.6  141925.95  15808.47  11.14
563.0  143507.50  15807.47  11.02
564.4  145104.70  15782.80  10.88
565.8  146603.75  15727.83  10.73
567.2  148339.25  15662.03  10.56
568.6  149814.00  15535.30  10.37
570.0  151235.50  15365.00  10.16
571.4  152943.05  15195.96  9.94
572.8  154682.00  15024.68  9.71
574.2  156296.00  14849.71  9.50
575.6  157826.25  14680.50  9.30
577.0  159341.30  14528.79  9.12
578.4  161047.25  14411.37  8.95
579.8  162554.85  14296.32  8.79
581.2  164260.83  14214.10  8.65
582.5  165672.00  14125.80  8.53
583.9  167194.20  14053.01  8.41
585.3  168965.33  14015.85  8.30
586.7  170430.33  13969.84  8.20
588.1  171908.25  13934.05  8.11
589.5  173545.75  13927.43  8.03
590.9  175150.00  13932.64  7.95
592.3  176929.90  13963.97  7.89
593.7  178375.28  13979.68  7.84
595.0  179986.05  14022.00  7.79
596.4  181429.50  14053.34  7.75
597.8  182893.10  14089.62  7.70
599.2  184430.40  14118.72  7.66
600.6  186163.58  14149.37  7.60
602.0  187439.85  14126.68  7.54
603.3  189212.20  14128.13  7.47
604.7  190861.98  14096.19  7.39
606.1  192344.40  14024.48  7.29
607.5  193961.33  13945.42  7.19
608.9  195632.20  13855.17  7.08
610.2  197018.33  13725.18  6.97
611.6  198601.80  13606.84  6.85
613.0  200146.95  13477.03  6.73
614.4  201502.95  13339.44  6.62
615.8  202965.75  13215.15  6.51
617.1  204491.70  13114.36  6.41
618.5  206090.00  13035.84  6.33
619.9  207591.83  12972.81  6.25
621.3  209195.78  12934.35  6.18
622.6  210770.25  12919.80  6.13
624.0  212205.75  12914.14  6.09
625.4  213665.93  12937.10  6.05
626.8  215210.45  12979.94  6.03
628.1  216490.18  13027.59  6.02
629.5  218262.20  13109.83  6.01
630.9  219786.05  13173.97  5.99
632.2  221065.43  13213.34  5.98
633.6  222590.75  13238.77  5.95
635.0  224047.20  13225.65  5.90
636.3  225540.10  13173.37  5.84
637.7  226900.13  13061.37  5.76
639.1  228515.00  12933.67  5.66
640.4  229969.43  12768.42  5.55
641.8  231154.60  12558.31  5.43
643.2  232720.78  12357.94  5.31
644.5  234074.50  12142.33  5.19
645.9  235661.85  11935.92  5.06
647.2  236816.13  11737.48  4.96
648.6  238383.00  11599.20  4.87
650.0  239738.40  11476.80  4.79
651.3  240575.50  11354.68  4.72
652.7  242601.25  11291.43  4.65
654.0  244640.70  11230.16  4.59
655.4  245992.78  11132.42  4.53
656.8  246090.70  10965.61  4.46
658.1  247430.00  10826.39  4.38
659.5  249792.38  10706.57  4.29
660.8  251325.00  10554.00  4.20
662.2  252313.60  10360.75  4.11
663.5  253883.30  10186.05  4.01
664.9  254923.50  10015.72  3.93
666.2  255744.00  9862.72  3.86
667.6  257474.23  9763.47  3.79
668.9  258429.33  9682.75  3.75
670.3  260087.00  9648.10  3.71
671.6  261229.88  9614.05  3.68
673.0  262380.38  9622.90  3.67
674.3  263653.00  9641.49  3.66
675.7  264944.15  9698.28  3.66
677.0  266017.95  9761.48  3.67
678.4  267317.43  9864.26  3.69
679.7  268374.63  9978.79  3.72
681.1  269690.28  10148.61  3.76
682.4  270813.40  10357.53  3.82
683.8  272006.80  10646.31  3.91
685.1  272978.25  11015.30  4.04
686.4  274281.00  11520.32  4.20
687.8  275521.75  12195.97  4.43
689.1  276589.75  13088.93  4.73
690.5  277966.95  14304.00  5.15
691.8  278757.43  15897.32  5.70
693.1  280067.25  17993.16  6.42
694.5  281258.25  20611.50  7.33
695.8  282486.75  23732.80  8.40
697.1  283692.50  27336.40  9.64
698.5  284748.80  31380.48  11.02
699.8  285818.38  35805.34  12.53
701.1  286974.80  40539.88  14.13
702.5  287760.55  45409.69  15.78
703.8  288675.00  50412.00  17.46
705.1  289843.13  55467.49  19.14
706.5  290875.00  60481.12  20.79
707.8  291846.30  65431.86  22.42
709.1  292658.43  70255.29  24.01
710.5  293774.68  75053.67  25.55
711.8  294627.60  79658.57  27.04
713.1  295631.10  84210.75  28.49
714.4  296523.10  88596.41  29.88
715.8  297348.20  92842.33  31.22
717.1  298640.70  97112.24  32.52
718.4  299622.40  101125.55  33.75
719.7  300693.03  105066.13  34.94
721.0  301230.00  108651.00  36.07
722.4  301989.60  112166.71  37.14
723.7  302921.10  115596.54  38.16
725.0  303946.88  118900.23  39.12
726.3  304896.35  122010.28  40.02
727.6  305421.33  124801.01  40.86
729.0  306323.85  127566.93  41.64
730.3  307130.48  130121.95  42.37
731.6  308010.75  132559.99  43.04
732.9  308789.43  134799.49  43.65
734.2  309578.50  136918.28  44.23
735.5  310600.58  139001.38  44.75
736.8  311370.60  140844.36  45.23
738.1  312229.60  142600.15  45.67
739.5  313162.95  144286.07  46.07
740.8  313842.93  145756.78  46.44
742.1  314543.40  147137.07  46.78
743.4  315225.00  148420.00  47.08
744.7  316147.65  149744.26  47.37
746.0  317027.10  150964.32  47.62
747.3  317633.10  151962.24  47.84
748.6  318373.00  152968.73  48.05
749.9  319046.00  153885.33  48.23
751.2  319683.75  154717.35  48.40
752.5  320468.25  155606.45  48.56
753.8  321009.33  156321.36  48.70
755.1  321646.00  157046.93  48.83
756.4  322219.88  157685.57  48.94
757.7  323199.63  158476.90  49.03
759.0  324953.98  159622.83  49.12
760.3  326092.80  160434.56  49.20
761.6  327632.20  161422.99  49.27
762.9  328142.25  161873.17  49.33
764.2  328475.90  162235.69  49.39
765.5  328705.08  162513.94  49.44
766.8  329120.00  162855.47  49.48
768.1  329622.00  163227.28  49.52
769.3  330196.30  163636.39  49.56
770.6  330844.15  164059.05  49.59
771.9  331535.23  164500.68  49.62
773.2  331882.40  164769.23  49.65
774.5  332417.80  165140.21  49.68
775.8  333073.25  165529.76  49.70
777.1  333592.60  165875.16  49.72
778.4  333914.90  166106.09  49.75
779.6  334614.33  166531.34  49.77
780.9  335070.00  166816.00  49.79
782.2  335502.75  167096.97  49.80
783.5  335774.50  167290.47  49.82
784.8  336239.10  167585.25  49.84
786.0  336575.75  167823.74  49.86
787.3  336939.88  168051.32  49.88
788.6  337345.00  168303.33  49.89
789.9  337745.80  168564.85  49.91
791.2  338389.10  168920.92  49.92
792.4  339015.98  169276.06  49.93
793.7  339444.20  169551.76  49.95
795.0  339975.08  169882.68  49.97
796.2  340607.20  170235.15  49.98
797.5  341277.30  170596.98  49.99
798.8  341893.85  170939.88  50.00
800.0  342515.68  171297.08  50.01
801.3  342950.00  171556.83  50.02
802.6  343498.05  171878.61  50.04
803.8  344091.80  172219.38  50.05
805.1  344532.13  172488.05  50.06
806.4  344919.30  172740.32  50.08
807.7  345428.55  173024.64  50.09
808.9  345953.90  173317.11  50.10
810.2  346418.45  173582.31  50.11
811.4  346865.00  173846.87  50.12
812.7  347465.63  174189.17  50.13
814.0  348252.45  174607.68  50.14
815.2  348863.00  174965.90  50.15
816.5  349276.05  175204.51  50.16
817.7  349698.85  175467.89  50.18
819.0  350207.00  175740.77  50.18
820.2  350328.00  175847.47  50.20
821.5  350993.65  176224.62  50.21
822.7  351334.00  176433.66  50.22
824.0  351639.90  176617.08  50.23
825.2  352107.00  176879.43  50.23
826.5  352387.85  177041.72  50.24
827.7  352983.75  177340.32  50.24
829.0  353353.70  177566.89  50.25
830.2  353616.95  177743.08  50.26
831.5  354109.15  177992.38  50.26
832.7  354438.00  178169.60  50.27
834.0  354781.78  178361.59  50.27
835.2  355121.53  178563.99  50.28
836.4  355417.70  178758.07  50.30
837.7  355877.20  178982.85  50.29
838.9  356280.18  179236.08  50.31
840.1  356655.15  179451.81  50.32
841.4  357047.50  179690.20  50.33
842.6  357493.00  179912.13  50.33
843.8  357811.60  180152.03  50.35
845.1  358355.30  180463.57  50.36
846.3  358676.80  180692.65  50.38
847.5  359127.30  180929.84  50.38
848.8  359490.60  181148.16  50.39
850.0  359924.25  181367.57  50.39
851.2  360396.00  181670.04  50.41
852.5  360787.30  181891.84  50.42
853.7  361289.25  182204.10  50.43
854.9  361765.30  182462.44  50.44
856.1  362199.50  182711.01  50.44
857.4  362388.98  182829.07  50.45
858.6  362952.55  183112.43  50.45
859.8  363386.25  183335.00  50.45
861.0  363776.40  183568.32  50.46
862.2  364188.30  183828.38  50.48
863.5  364583.70  184034.80  50.48
864.7  365105.40  184316.88  50.48
865.9  365532.00  184527.60  50.48
867.1  365856.10  184722.48  50.49
868.3  366315.90  184959.34  50.49
869.5  366826.85  185221.46  50.49
870.8  367276.50  185507.40  50.51
872.0  367757.70  185755.27  50.51
873.2  368242.80  185976.16  50.50
874.4  368655.30  186212.52  50.51
875.6  369039.15  186418.22  50.51
876.8  369538.30  186677.87  50.52
878.0  369956.15  186924.07  50.53
879.2  370519.95  187174.70  50.52
880.4  370960.50  187409.20  50.52
881.6  371537.98  187643.73  50.50
882.8  371932.00  187874.88  50.51
884.0  372532.23  188167.88  50.51
885.2  372988.10  188402.99  50.51
886.5  373614.25  188681.86  50.50
887.7  374053.88  188872.45  50.49
888.8  374683.88  189206.99  50.50
890.0  375162.10  189460.87  50.50
891.2  375737.00  189736.25  50.50
892.4  376299.00  189986.65  50.49
893.6  376921.20  190246.29  50.47
894.8  377803.75  190664.63  50.47
896.0  378539.50  191102.57  50.48
897.2  379323.75  191478.73  50.48
898.4  380044.50  191805.68  50.47
899.6  380598.00  192044.10  50.46
900.8  381005.95  192182.75  50.44
902.0  381062.85  192296.10  50.46
903.2  381356.85  192407.59  50.45
904.3  381716.70  192542.88  50.44
905.5  382158.73  192819.33  50.46
906.7  382835.50  193071.07  50.43
907.9  383449.50  193298.47  50.41
909.1  383605.88  193394.97  50.42
910.2  383697.00  193459.08  50.42
911.4  383879.93  193542.96  50.42
912.6  384098.00  193572.43  50.40
913.8  384215.55  193643.98  50.40
915.0  384596.10  193789.12  50.39
916.2  384686.25  193809.20  50.38
917.3  384654.15  193791.69  50.38
918.5  384835.80  193849.00  50.37
919.7  385046.85  193887.16  50.35
920.8  385107.38  193844.03  50.34
922.0  385115.50  193860.33  50.34
923.2  385203.00  193884.60  50.33
924.4  385374.38  193909.50  50.32
925.5  385684.70  193969.43  50.29
926.7  386263.38  194180.52  50.27
927.9  386949.60  194477.36  50.26
929.0  388476.00  195179.76  50.24
930.2  390560.20  196190.71  50.23
931.4  392868.90  197312.94  50.22
932.5  395758.40  198547.15  50.17
933.7  397037.90  199071.28  50.14
934.9  397565.00  199257.33  50.12
936.0  397018.38  198919.50  50.10
937.2  394763.70  197745.84  50.09
938.3  392969.65  196746.69  50.07
939.5  391528.80  195865.92  50.03
940.7  391760.10  195736.80  49.96
941.8  393127.43  196312.27  49.94
943.0  394529.25  196840.40  49.89
944.2  395254.60  197067.17  49.86
945.3  394582.50  196735.50  49.86
946.5  393689.70  196156.80  49.83
947.6  393795.50  195963.32  49.76
948.8  393676.73  195628.94  49.69
949.9  393615.60  195399.68  49.64
951.1  393229.53  194937.04  49.57
952.2  393108.00  194534.40  49.49
953.4  392738.75  194096.53  49.42
954.5  392558.40  193780.08  49.36
955.7  392414.40  193494.00  49.31
956.8  392220.00  193001.29  49.21
958.0  391612.00  192557.33  49.17
959.1  391407.15  192167.22  49.10
960.3  390727.53  191707.16  49.06
961.4  390525.75  191455.35  49.03
962.6  390792.50  191384.43  48.97
963.7  390557.40  190993.69  48.90
964.9  390594.90  190745.53  48.83
966.0  390134.48  190549.53  48.84
967.2  390149.55  190504.98  48.83
968.3  389658.60  190306.80  48.84
969.5  389447.98  190073.72  48.81
970.6  389778.75  189981.05  48.74
971.8  389851.35  189995.14  48.74
972.9  389969.03  189874.43  48.69
974.0  390102.30  189977.97  48.70
975.2  389905.88  189847.43  48.69
976.3  390075.20  189683.63  48.63
977.5  389898.43  189642.16  48.64
978.6  389697.40  189594.05  48.65
979.7  389897.55  189540.61  48.61
980.9  389599.20  189508.75  48.64
982.0  389719.40  189420.27  48.60
983.2  389324.85  189246.62  48.61
984.3  388817.00  189024.88  48.62
985.4  389380.98  188924.02  48.52
986.6  389355.25  188741.08  48.48
987.7  390030.55  189058.29  48.47
988.9  389511.00  188803.68  48.47
990.0  390047.20  189202.00  48.51
993.1  379057.76  183329.10  48.36
996.9  378375.85  183443.85  48.48
1000.7  378665.29  184040.25  48.60
1004.5  378955.92  184579.26  48.71
1008.4  378776.25  184890.02  48.81
1012.2  378764.96  185250.21  48.91
1016.0  378651.00  185543.06  49.00
1019.8  378378.00  185712.45  49.08
1023.7  377595.47  185578.11  49.15
1027.5  376416.17  185245.15  49.21
1031.3  375721.45  185134.34  49.27
1035.1  374920.18  184942.93  49.33
1038.9  374569.43  184973.48  49.38
1042.7  374315.25  185025.07  49.43
1046.5  374194.83  185091.60  49.46
1050.3  374224.48  185201.48  49.49
1054.2  373937.08  185159.92  49.52
1058.0  373513.58  185002.76  49.53
1061.8  373456.23  185048.59  49.55
1065.6  372953.93  184795.10  49.55
1069.4  372415.33  184520.04  49.55
1073.2  371440.97  183953.69  49.52
1077.0  370808.75  183551.41  49.50
1080.8  370807.29  183416.37  49.46
1084.6  370607.42  183195.02  49.43
1088.4  370626.78  183137.70  49.41
1092.2  370100.25  182728.93  49.37
1096.0  369524.42  182261.02  49.32
1099.8  368869.80  181742.54  49.27
1103.6  367998.92  181103.74  49.21
1107.4  366937.41  180337.96  49.15
1111.2  366664.90  179970.86  49.08
1114.9  366204.42  179434.25  49.00
1118.7  365985.68  178930.48  48.89
1122.5  365574.73  178256.50  48.76
1126.3  364606.03  177182.71  48.60
1130.1  364205.00  176149.29  48.37
1133.9  362600.00  174199.70  48.04
1137.7  361059.30  172017.44  47.64
1141.4  359062.71  169371.58  47.17
1145.2  358208.88  167081.81  46.64
1149.0  357000.00  164737.08  46.14
1152.8  355189.40  162335.12  45.70
1156.6  353387.65  160299.52  45.36
1160.3  351543.67  158615.10  45.12
1164.1  349129.63  156945.45  44.95
1167.9  347443.75  155777.09  44.84
1171.7  346177.13  154919.25  44.75
1175.4  344844.93  154080.86  44.68
1179.2  343574.48  153253.04  44.61
1183.0  343214.00  152829.19  44.53
1186.7  343083.53  152526.83  44.46
1190.5  342578.40  152080.90  44.39
1194.3  341584.33  151493.53  44.35
1198.0  340206.63  150791.73  44.32
1201.8  338550.75  150064.77  44.33
1205.6  337412.00  149706.71  44.37
1209.3  336722.90  149688.17  44.45
1213.1  336135.90  149730.90  44.54
1216.8  335404.85  149796.53  44.66
1220.6  334303.20  149685.07  44.78
1224.3  333041.92  149494.59  44.89
1228.1  331604.20  149210.94  45.00
1231.9  330064.73  148810.83  45.09
1235.6  328402.13  148300.66  45.16
1239.4  326868.75  147869.20  45.24
1243.1  325532.50  147451.25  45.30
1246.9  324302.84  147022.45  45.33
1250.6  323266.27  146653.68  45.37
1254.3  322112.18  146208.99  45.39
1258.1  320958.05  145717.52  45.40
1261.8  319552.67  145100.59  45.41
1265.6  318321.25  144489.74  45.39
1269.3  317394.53  143988.23  45.37
1273.1  317667.59  144001.37  45.33
1276.8  317586.00  143797.54  45.28
1280.6  316760.47  143198.98  45.21
1284.3  314945.60  142101.31  45.12
1288.0  313659.07  141174.88  45.01
1291.8  312960.68  140453.29  44.88
1295.5  312050.93  139592.52  44.73
1299.2  310864.74  138536.59  44.56
1302.9  309294.73  137195.02  44.36
1306.7  307602.40  135691.03  44.11
1310.4  305932.46  134059.10  43.82
1314.1  304424.63  132385.00  43.49
1317.9  303071.67  130643.93  43.11
1321.6  301584.97  128710.31  42.68
1325.3  299947.73  126576.30  42.20
1329.0  298666.90  124522.05  41.69
1332.8  296727.20  122078.00  41.14
1336.5  295058.87  119734.29  40.58
1340.2  294946.17  118031.33  40.02
1343.9  294980.83  116402.41  39.46
1347.6  295404.00  114928.13  38.91
1351.4  297259.00  114062.28  38.37
1355.1  299771.63  113450.18  37.85
1358.8  301776.00  112576.00  37.30
1362.5  302181.35  110942.01  36.71
1366.2  300034.70  108091.95  36.03
1369.9  296672.00  104450.70  35.21
1373.6  293861.11  100477.77  34.19
1377.3  292496.40  96254.06  32.91
1381.0  292050.83  91413.26  31.30
1384.8  289916.25  85061.79  29.34
1388.4  286549.20  77811.43  27.15
1392.2  284289.00  70548.39  24.82
1395.9  282777.15  63511.65  22.46
1399.6  280860.28  56866.20  20.25
1403.3  279300.70  51059.25  18.28
1407.0  277466.10  46106.41  16.62
1410.7  275535.15  42078.42  15.27
1414.3  273557.26  38904.28  14.22
1418.1  271809.38  36525.24  13.44
1421.7  270366.19  34751.07  12.85
1425.4  269008.03  33452.25  12.44
1429.1  267786.38  32526.91  12.15
1432.8  266117.33  31829.21  11.96
1436.5  265279.23  31428.49  11.85
1440.2  264539.93  31211.16  11.80
1443.9  263358.33  31051.94  11.79
1447.6  261723.00  30934.20  11.82
1451.2  260448.47  30911.57  11.87
1454.9  258989.25  30931.97  11.94
1458.6  257750.58  31090.99  12.06
1462.3  256588.93  31378.86  12.23
1466.0  255275.39  31803.74  12.46
1469.7  253584.72  32348.47  12.76
1473.3  252522.67  33116.48  13.11
1477.0  250486.97  33872.62  13.52
1480.7  248839.33  34744.00  13.96
1484.4  246819.73  35601.12  14.42
1488.0  245212.00  36557.72  14.91
1491.7  243593.28  37513.09  15.40
1495.4  241901.27  38475.59  15.91
1499.0  240337.50  39431.71  16.41
1502.7  239028.33  40442.87  16.92
1506.4  237587.34  41395.07  17.42
1510.0  236144.90  42320.10  17.92
1513.7  234654.88  43201.67  18.41
1517.4  233289.33  44075.00  18.89
1521.0  232047.33  44946.12  19.37
1524.7  230811.75  45750.72  19.82
1528.3  229531.25  46513.63  20.26
1532.0  228308.85  47244.45  20.69
1535.7  226904.33  47879.65  21.10
1539.3  225641.36  48516.56  21.50
1543.0  224651.64  49181.26  21.89
1546.6  223967.25  49871.10  22.27
1550.3  222973.50  50447.53  22.62
1553.9  221909.10  50973.08  22.97
1557.6  220662.20  51421.96  23.30
1561.2  219391.65  51816.28  23.62
1564.9  218074.73  52184.54  23.93
1568.5  216746.60  52514.70  24.23
1572.2  215597.25  52860.11  24.52
1575.8  214494.00  53206.00  24.81
1579.5  213497.75  53542.12  25.08
1583.1  212463.70  53855.05  25.35
1586.8  211176.00  54080.00  25.61
1590.4  209994.80  54304.99  25.86
1594.0  208660.08  54465.59  26.10
1597.7  207750.73  54729.87  26.34
1601.3  206728.20  54952.43  26.58
1604.9  205681.97  55140.69  26.81
1608.6  204352.43  55216.19  27.02
1612.2  203067.98  55272.53  27.22
1615.8  201729.13  55291.09  27.41
1619.5  200511.33  55316.76  27.59
1623.1  199192.60  55288.05  27.76
1626.7  197969.85  55261.14  27.91
1630.3  196781.67  55207.42  28.06
1634.0  195678.00  55148.00  28.18
1637.6  194696.73  55081.05  28.29
1641.2  193679.25  54939.51  28.37
1644.8  192465.88  54683.90  28.41
1648.5  191378.93  54420.00  28.44
1652.1  190406.40  54144.00  28.44
1655.7  189484.80  53856.54  28.42
1659.3  188631.48  53613.56  28.42
1662.9  187226.67  53222.14  28.43
1666.6  185806.60  52832.39  28.43
1670.2  184389.10  52419.51  28.43
1673.8  182913.06  51945.06  28.40
1677.4  181750.80  51503.29  28.34
1681.0  180934.13  51076.17  28.23
1684.6  180534.25  50673.84  28.07
1688.2  179846.50  50097.07  27.86
1691.8  179160.78  49536.24  27.65
1695.4  178721.20  49036.66  27.44
1699.0  178343.67  48566.17  27.23
1702.6  177991.33  48076.05  27.01
1706.2  177380.99  47467.23  26.76
1709.8  176462.73  46788.94  26.51
1713.4  175723.64  46224.94  26.31
1717.0  174831.75  45708.14  26.14
1720.6  173990.40  45245.27  26.00
1724.2  173279.25  44815.51  25.86
1727.8  172563.30  44401.80  25.73
1731.4  172092.25  44050.48  25.60
1735.0  171902.68  43767.48  25.46
1738.6  171664.95  43414.50  25.29
1742.2  171103.44  42924.85  25.09
1745.8  170463.69  42373.69  24.86
1749.4  169509.45  41731.33  24.62
1753.0  168024.07  40970.28  24.38
1756.6  166362.58  40209.34  24.17
1760.1  165024.18  39557.33  23.97
1763.7  163315.33  38839.33  23.78
1767.3  161886.90  38219.32  23.61
1770.9  160631.80  37656.44  23.44
1774.5  159177.66  37075.12  23.29
1778.0  158054.10  36627.11  23.17
1781.6  156969.15  36260.44  23.10
1785.2  155839.30  35939.80  23.06
1788.8  154684.40  35670.51  23.06
1792.3  153445.37  35406.62  23.07
1795.9  152995.70  35327.64  23.09
1799.5  152765.67  35317.14  23.12
1803.1  153444.32  35537.60  23.16
1806.6  155328.66  36029.26  23.20
1810.2  157079.07  36478.00  23.22
1813.8  158114.95  36745.67  23.24
1817.3  157852.00  36691.12  23.24
1820.9  156875.33  36453.09  23.24
1824.5  155631.73  36120.62  23.21
1828.0  154715.00  35822.94  23.15
1831.6  154418.10  35642.91  23.08
1835.2  154317.50  35432.86  22.96
1838.7  154169.60  35127.07  22.78
1842.3  153930.00  34707.86  22.55
1845.8  152672.00  33930.02  22.22
1849.4  152041.88  33134.19  21.79
1852.9  151111.86  32088.66  21.24
1856.5  149997.82  30789.74  20.53
1860.0  148937.65  29248.13  19.64
1863.6  149026.13  27660.83  18.56
1867.1  149891.00  25925.90  17.30
1870.7  150846.20  23852.82  15.81
1874.2  149703.30  21164.79  14.14
1877.8  146883.87  18221.33  12.41
1881.3  143859.50  15336.36  10.66
1884.9  142064.54  12842.87  9.04
1888.4  140601.48  10665.81  7.59
1891.9  139205.27  8918.26  6.41
1895.5  138005.40  7615.12  5.52
1899.0  137583.63  6748.23  4.90
1901.3  175984.17  5488.28  3.12
1904.1  176020.50  4923.50  2.80
1906.8  175037.40  4493.20  2.57
1909.6  172856.60  4191.37  2.42
1912.4  170824.03  3936.72  2.30
1915.1  169393.40  3764.75  2.22
1917.9  167880.33  3628.56  2.16
1920.6  166564.47  3526.67  2.12
1923.3  165202.80  3467.96  2.10
1926.1  163450.00  3403.91  2.08
1928.8  161802.67  3353.78  2.07
1931.6  160508.22  3325.21  2.07
1934.3  159409.37  3328.06  2.09
1937.0  158323.80  3335.62  2.11
1939.8  157116.33  3343.72  2.13
1942.5  155584.00  3362.33  2.16
1945.2  153604.55  3378.83  2.20
1947.9  151964.87  3401.30  2.24
1950.7  150660.60  3444.38  2.29
1953.4  148769.90  3482.57  2.34
1956.1  147295.50  3537.53  2.40
1958.8  145982.85  3617.97  2.48
1961.5  144440.00  3686.13  2.55
1964.2  142842.70  3755.27  2.63
1966.9  141198.10  3819.10  2.70
1969.6  139887.00  3912.00  2.80
1972.3  138466.20  4010.93  2.90
1975.0  137396.25  4118.20  3.00
1977.7  136261.58  4229.06  3.10
1980.4  135085.57  4351.19  3.22
1983.1  133966.45  4483.27  3.35
1985.8  133014.30  4616.80  3.47
1988.4  131976.00  4758.00  3.61
1991.1  131045.37  4897.98  3.74
1993.8  130154.75  5052.24  3.88
1996.5  129491.27  5207.34  4.02
1999.1  128776.08  5373.93  4.17
2001.8  128075.50  5533.97  4.32
2004.5  127379.90  5694.58  4.47
2007.1  126636.00  5861.82  4.63
2009.8  125865.37  6020.31  4.78
2012.4  125277.72  6178.15  4.93
2015.1  124708.50  6339.74  5.08
2017.8  123905.60  6492.27  5.24
2020.4  123373.43  6652.07  5.39
2023.1  123025.00  6808.82  5.53
2025.7  122780.67  6970.89  5.68
2028.3  122434.00  7118.22  5.81
2031.0  122009.52  7256.37  5.95
2033.6  121730.40  7397.90  6.08
2036.2  121469.40  7534.20  6.20
2038.9  120869.10  7632.80  6.31
2041.5  120516.63  7749.12  6.43
2044.1  119955.60  7847.40  6.54
2046.8  119572.80  7951.80  6.65
2049.4  118911.60  8035.90  6.76
2052.0  118607.40  8133.64  6.86
2054.6  118203.75  8225.00  6.96
2057.2  117629.27  8305.40  7.06
2059.8  117297.40  8398.56  7.16
2062.4  116411.08  8463.88  7.27
2065.0  115873.87  8552.85  7.38
2067.6  114964.12  8603.35  7.48
2070.2  114362.67  8673.08  7.58
2072.8  113700.20  8742.81  7.69
2075.4  113233.75  8828.75  7.80
2078.0  112602.33  8891.66  7.90
2080.6  112032.80  8955.47  7.99
2083.2  111327.90  9012.13  8.10
2085.8  110828.10  9079.04  8.19
2088.4  110169.33  9133.67  8.29
2090.9  109353.12  9172.27  8.39
2093.5  108452.43  9205.00  8.49
2096.1  107666.10  9234.21  8.58
2098.7  106875.60  9272.27  8.68
2101.2  105917.87  9286.45  8.77
2103.8  105236.67  9318.47  8.85
2106.4  104546.73  9353.40  8.95
2108.9  103874.27  9397.07  9.05
2111.5  103009.67  9417.44  9.14
2114.0  102372.13  9449.47  9.23
2116.6  101850.00  9487.92  9.32
2119.1  101281.30  9523.52  9.40
2121.7  100791.25  9560.83  9.49
2124.2  100378.33  9602.42  9.57
2126.8  99567.87  9600.18  9.64
2129.3  99158.40  9636.00  9.72
2131.9  98568.80  9656.53  9.80
2134.4  98128.80  9696.65  9.88
2136.9  97734.43  9736.14  9.96
2139.4  97187.53  9750.38  10.03
2142.0  96726.47  9779.93  10.11
2144.5  96449.30  9816.70  10.18
2147.0  96212.00  9874.31  10.26
2149.5  95702.80  9898.13  10.34
2152.1  95537.75  9953.53  10.42
2154.6  95453.87  10009.60  10.49
2157.1  94902.67  10018.92  10.56
2159.6  94484.83  10040.11  10.63
2162.1  94321.50  10076.73  10.68
2164.6  94064.20  10107.56  10.75
2167.1  93743.47  10138.40  10.82
2169.6  93410.92  10169.06  10.89
2172.1  92933.50  10178.21  10.95
2174.6  92601.80  10193.33  11.01
2177.1  92146.37  10208.57  11.08
2179.5  91722.58  10226.59  11.15
2182.0  91237.30  10232.02  11.21
2184.5  90699.30  10234.09  11.28
2187.0  90060.03  10219.44  11.35
2189.5  89351.97  10204.07  11.42
2191.9  88578.00  10177.67  11.49
2194.4  87936.40  10161.20  11.56
2196.9  87168.00  10131.20  11.62
2199.3  86507.00  10098.44  11.67
2201.8  85594.93  10048.04  11.74
2204.3  85120.32  10039.18  11.79
2206.7  84473.60  10007.60  11.85
2209.2  83998.45  9985.46  11.89
2211.6  83367.90  9946.20  11.93
2214.1  83082.50  9936.73  11.96
2216.5  82516.20  9893.60  11.99
2219.0  82158.60  9873.73  12.02
2221.4  81762.92  9837.33  12.03
2223.9  81286.92  9784.44  12.04
2226.3  80781.17  9711.72  12.02
2228.7  80223.02  9623.07  12.00
2231.1  79605.90  9520.50  11.96
2233.6  79009.73  9400.24  11.90
2236.0  78470.58  9278.70  11.82
2238.4  77954.92  9146.47  11.73
2240.9  77489.93  9012.84  11.63
2243.3  76933.67  8850.60  11.50
2245.7  76366.25  8679.72  11.37
2248.1  75866.27  8521.50  11.23
2250.5  75364.18  8339.41  11.07
2252.9  74720.10  8139.44  10.89
2255.3  74157.35  7946.73  10.72
2257.7  73690.00  7756.67  10.53
2260.1  73193.17  7581.86  10.36
2262.5  72570.00  7393.33  10.19
2264.9  72039.73  7221.28  10.02
2267.3  71420.00  7046.67  9.87
2269.7  70905.57  6902.93  9.74
2272.1  70357.07  6757.91  9.61
2274.5  69793.48  6612.29  9.47
2276.8  69305.32  6480.78  9.35
2279.2  68701.80  6348.25  9.24
2281.6  68272.13  6237.98  9.14
2284.0  67821.50  6123.97  9.03
2286.3  67356.27  6009.07  8.92
2288.7  66945.23  5892.76  8.80
2291.1  66383.63  5768.19  8.69
2293.4  65932.53  5660.36  8.59
2295.8  65312.30  5537.97  8.48
2298.2  64697.85  5413.05  8.37
2300.5  64025.10  5278.50  8.24
2302.9  63271.00  5139.11  8.12
2305.2  62531.30  5012.67  8.02
2307.6  61848.42  4914.17  7.95
2309.9  61070.00  4805.00  7.87
2312.2  60470.67  4725.78  7.81
2314.6  59864.40  4643.70  7.76
2316.9  59150.25  4547.10  7.69
2319.2  58582.03  4471.49  7.63
2321.6  57959.77  4392.15  7.58
2323.9  57406.25  4305.56  7.50
2326.2  56861.67  4225.50  7.43
2328.6  56356.85  4145.17  7.36
2330.9  55839.00  4077.50  7.30
2333.2  55361.42  4004.03  7.23
2335.5  54923.10  3934.03  7.16
2337.8  54455.83  3867.62  7.10
2340.1  53873.53  3777.76  7.01
2342.4  53419.17  3705.00  6.94
2344.8  52989.50  3631.61  6.85
2347.1  52409.70  3553.20  6.78
2349.4  51877.48  3473.92  6.70
2351.6  51282.58  3400.48  6.63
2353.9  50764.37  3346.78  6.59
2356.2  50247.33  3283.12  6.53
2358.5  49660.80  3203.20  6.45
2360.8  49078.40  3128.53  6.37
2363.1  48613.03  3062.15  6.30
2365.4  48138.00  3002.03  6.24
2367.7  47663.40  2941.20  6.17
2369.9  47116.75  2885.40  6.12
2372.2  46497.33  2820.80  6.07
2374.5  45911.25  2741.20  5.97
2376.7  45281.77  2664.09  5.88
2379.0  44660.37  2590.35  5.80
2381.3  44041.67  2531.66  5.75
2383.5  43507.20  2467.91  5.67
2385.8  42901.27  2388.63  5.57
2388.0  42362.00  2328.53  5.50
2390.3  41841.87  2266.54  5.42
2392.5  41340.00  2204.00  5.33
2394.8  40861.70  2145.73  5.25
2397.0  40367.60  2082.89  5.16
2399.3  39912.60  2038.68  5.11
2401.5  39469.50  1980.42  5.02
2403.8  38945.30  1917.30  4.92
2406.0  38442.00  1850.09  4.81
2408.2  38048.27  1807.67  4.75
2410.4  37624.77  1755.99  4.67
2412.7  37197.33  1713.26  4.61
2414.9  36824.15  1661.37  4.51
2417.1  36410.90  1621.37  4.45
2419.3  35993.60  1574.40  4.37
2421.6  35598.33  1528.47  4.29
2423.8  35217.47  1495.49  4.25
2426.0  34847.27  1449.81  4.16
2428.2  34469.87  1393.78  4.04
2430.4  34155.23  1367.45  4.00
2432.6  33906.67  1324.45  3.91
2434.8  33603.80  1292.11  3.85
2437.0  33234.07  1258.25  3.79
2439.2  32872.53  1225.51  3.73
2441.4  32542.77  1186.10  3.64
2443.6  32303.37  1165.21  3.61
2445.7  32028.85  1129.18  3.53
2447.9  31757.83  1090.14  3.43
2450.1  31472.00  1063.12  3.38
2452.3  31099.02  1025.81  3.30
2454.5  30721.10  992.84  3.23
2456.6  30316.67  970.13  3.20
2458.8  29972.80  939.03  3.13
2461.0  29669.50  917.86  3.09
2463.1  29361.90  902.10  3.07
2465.3  29076.43  878.00  3.02
2467.5  28821.50  855.50  2.97
2469.6  28565.42  845.28  2.96
2471.8  28291.40  825.91  2.92
2473.9  27979.58  794.39  2.84
2476.1  27603.33  768.44  2.78
2478.2  27252.43  756.59  2.78
2480.4  26939.25  741.92  2.75
2482.5  26615.85  732.88  2.75
2484.6  26289.08  706.44  2.69
2486.8  26014.90  701.27  2.70
2488.9  25679.48  678.68  2.64
2491.1  25323.20  666.40  2.63
2493.2  24923.97  638.67  2.56
2495.3  24547.03  635.99  2.59
2497.4  24214.40  617.17  2.55
2499.5  23902.78  604.18  2.53
2501.7  23746.17  597.08  2.51
2503.8  23670.80  601.80  2.54
2505.9  23626.25  586.53  2.48
2508.0  23612.47  578.05  2.45
2510.1  23623.88  590.15  2.50
2512.2  23744.90  611.67  2.58
2514.3  23919.00  607.47  2.54
2516.4  24152.20  623.83  2.58
