/*** Spectra Vista SIG Data ***/
name= 31_20221021_BENI_59_avg.sig
comm= Averaged Ref/Tar of files: HR.102122.0010_moc.sig,HR.102122.0011_moc.sig,HR.102122.0012_moc.sig
data=
337.3  3176.00  310.98  9.79
338.8  3270.80  314.25  9.61
340.3  3420.05  293.59  8.58
341.8  3566.55  298.74  8.38
343.2  3774.00  290.08  7.69
344.7  3966.45  284.33  7.17
346.2  4125.85  283.23  6.86
347.7  4365.08  277.90  6.37
349.2  4536.00  272.16  6.00
350.6  4737.53  269.32  5.68
352.1  5037.23  266.75  5.30
353.6  5343.80  268.35  5.02
355.1  5623.73  278.38  4.95
356.6  5866.73  279.68  4.77
358.0  6156.70  280.72  4.56
359.5  6427.20  280.16  4.36
361.0  6733.13  275.31  4.09
362.5  7113.83  281.04  3.95
364.0  7455.50  294.40  3.95
365.4  7811.80  307.23  3.93
366.9  8177.00  309.40  3.78
368.4  8482.53  327.30  3.86
369.9  8837.18  342.32  3.87
371.3  9238.20  366.68  3.97
372.8  9690.75  382.32  3.95
374.3  10105.00  379.83  3.76
375.8  10510.50  388.08  3.69
377.2  10921.40  390.95  3.58
378.7  11324.90  387.36  3.42
380.2  11701.50  390.95  3.34
381.7  12215.30  403.57  3.30
383.1  12666.50  409.64  3.23
384.6  13163.80  420.81  3.20
386.1  13620.60  428.80  3.15
387.6  14067.90  438.39  3.12
389.0  14525.60  446.67  3.08
390.5  14974.20  449.58  3.00
392.0  15526.15  461.99  2.98
393.4  16054.03  472.95  2.95
394.9  16625.70  483.72  2.91
396.4  17155.13  493.35  2.88
397.9  17681.25  505.67  2.86
399.3  18234.00  520.01  2.85
400.8  18768.53  538.38  2.87
402.2  19394.50  543.37  2.80
403.7  20006.33  564.96  2.82
405.2  20597.25  580.83  2.82
406.6  21158.40  597.01  2.82
408.1  21741.20  608.69  2.80
409.6  22323.15  626.31  2.81
411.0  22972.60  643.35  2.80
412.5  23636.38  666.40  2.82
414.0  24287.00  692.75  2.85
415.4  24982.88  712.85  2.85
416.9  25635.75  737.59  2.88
418.4  26313.08  764.43  2.91
419.8  27027.00  783.81  2.90
421.3  27735.70  815.20  2.94
422.7  28501.20  839.84  2.95
424.2  29278.13  873.00  2.98
425.7  30024.60  899.76  3.00
427.1  30779.63  924.18  3.00
428.6  31573.50  954.80  3.02
430.0  32307.58  975.25  3.02
431.5  33178.28  1004.95  3.03
432.9  34031.95  1039.17  3.05
434.4  34910.03  1069.60  3.06
435.9  35742.00  1103.20  3.09
437.3  36575.00  1131.17  3.09
438.8  37412.70  1162.02  3.11
440.2  38269.00  1198.38  3.13
441.7  39221.80  1239.95  3.16
443.1  40107.75  1279.07  3.19
444.6  41081.60  1325.72  3.23
446.0  42000.08  1370.16  3.26
447.5  42962.70  1418.30  3.30
448.9  43898.70  1472.32  3.35
450.4  44871.75  1524.65  3.40
451.8  45747.00  1573.87  3.44
453.3  46651.60  1626.53  3.49
454.7  47653.98  1681.13  3.53
456.2  48509.30  1729.83  3.57
457.6  49475.93  1780.62  3.60
459.1  50461.78  1824.64  3.62
460.5  51400.13  1874.28  3.65
462.0  52449.95  1931.37  3.68
463.4  53471.10  1981.93  3.71
464.8  54445.50  2033.15  3.73
466.3  55426.80  2081.31  3.76
467.7  56412.60  2130.02  3.78
469.2  57468.23  2180.69  3.79
470.6  58448.00  2225.52  3.81
472.0  59480.95  2280.15  3.83
473.5  60483.25  2335.33  3.86
474.9  61503.00  2388.30  3.88
476.4  62654.40  2449.92  3.91
477.8  63713.00  2507.53  3.94
479.2  64713.50  2563.60  3.96
480.7  65817.83  2628.66  3.99
482.1  66946.85  2699.26  4.03
483.6  68131.75  2780.18  4.08
485.0  69190.50  2862.19  4.14
486.4  70378.35  2960.44  4.21
487.9  71443.13  3063.45  4.29
489.3  72594.25  3184.53  4.39
490.7  73669.18  3316.07  4.50
492.2  74896.50  3475.08  4.64
493.6  75974.90  3642.97  4.79
495.0  77073.75  3841.50  4.98
496.5  78261.78  4064.00  5.19
497.9  79362.40  4306.62  5.43
499.3  80521.73  4590.34  5.70
500.7  81761.65  4908.73  6.00
502.2  82913.40  5261.84  6.35
503.6  84154.40  5668.69  6.74
505.0  85219.05  6113.93  7.17
506.5  86522.40  6627.08  7.66
507.9  87719.53  7181.23  8.19
509.3  89081.20  7802.56  8.76
510.7  90324.00  8463.00  9.37
512.2  91699.13  9186.80  10.02
513.6  93174.55  9974.21  10.70
515.0  94610.48  10803.41  11.42
516.4  95978.93  11663.19  12.15
517.8  97589.63  12586.32  12.90
519.3  98919.10  13496.99  13.64
520.7  100471.55  14456.51  14.39
522.1  101779.93  15389.27  15.12
523.5  103138.00  16331.57  15.83
524.9  104583.15  17271.96  16.52
526.3  105974.75  18174.75  17.15
527.8  107454.60  19083.24  17.76
529.2  108576.30  19922.29  18.35
530.6  110123.45  20836.90  18.92
532.0  111832.00  21746.67  19.45
533.4  113134.05  22539.93  19.92
534.8  114012.73  23210.76  20.36
536.3  115661.40  24016.36  20.76
537.7  117646.20  24877.44  21.15
539.1  119084.15  25612.99  21.51
540.5  120283.10  26277.03  21.85
541.9  122036.10  27055.81  22.17
543.3  123308.48  27712.09  22.47
544.7  124659.00  28378.40  22.76
546.1  126437.85  29127.08  23.04
547.5  127668.80  29735.25  23.29
549.0  129338.00  30424.53  23.52
550.4  130836.25  31040.58  23.72
551.8  132404.50  31636.75  23.89
553.2  133933.35  32186.18  24.03
554.6  135283.20  32642.13  24.13
556.0  136816.65  33097.92  24.19
557.4  138427.28  33528.72  24.22
558.8  140076.90  33942.48  24.23
560.2  141535.75  34269.32  24.21
561.6  143197.80  34594.32  24.16
563.0  144795.93  34856.61  24.07
564.4  146402.35  35097.74  23.97
565.8  147931.88  35300.50  23.86
567.2  149683.00  35519.43  23.73
568.6  151184.25  35649.70  23.58
570.0  152618.35  35690.70  23.39
571.4  154346.40  35746.01  23.16
572.8  156106.00  35779.48  22.92
574.2  157752.00  35775.79  22.68
575.6  159311.25  35754.00  22.44
577.0  160832.90  35739.64  22.22
578.4  162560.13  35787.27  22.01
579.8  164092.50  35802.00  21.82
581.2  165811.88  35877.87  21.64
582.5  167239.80  35901.84  21.47
583.9  168775.40  35953.81  21.30
585.3  170575.20  36085.05  21.15
586.7  172065.73  36159.98  21.02
588.1  173569.38  36255.37  20.89
589.5  175224.00  36403.73  20.78
590.9  176848.80  36560.16  20.67
592.3  178661.80  36771.50  20.58
593.7  180124.43  36924.81  20.50
595.0  181743.08  37125.81  20.43
596.4  183203.65  37292.55  20.36
597.8  184684.38  37459.00  20.28
599.2  186252.00  37621.76  20.20
600.6  188002.43  37803.91  20.11
602.0  189305.93  37863.87  20.00
603.3  191095.65  37979.75  19.87
604.7  192762.80  38023.79  19.73
606.1  194248.80  37990.48  19.56
607.5  195896.90  37942.84  19.37
608.9  197599.20  37867.56  19.16
610.2  199002.83  37709.28  18.95
611.6  200607.30  37567.79  18.73
613.0  202169.95  37402.38  18.50
614.4  203554.50  37195.62  18.27
615.8  205027.88  37001.25  18.05
617.1  206564.40  36853.88  17.84
618.5  208191.60  36749.39  17.65
619.9  209711.18  36673.71  17.49
621.3  211336.43  36666.42  17.35
622.6  212920.50  36707.77  17.24
624.0  214384.20  36789.54  17.16
625.4  215860.43  36924.03  17.11
626.8  217424.03  37128.61  17.08
628.1  218729.23  37330.48  17.07
629.5  220559.18  37632.93  17.06
630.9  222117.78  37869.00  17.05
632.2  223441.93  38008.16  17.01
633.6  225022.50  38095.13  16.93
635.0  226524.00  38021.17  16.78
636.3  228031.30  37787.81  16.57
637.7  229419.50  37330.77  16.27
639.1  231052.50  36726.67  15.90
640.4  232532.30  35927.38  15.45
641.8  233739.23  34946.51  14.95
643.2  235316.38  33930.26  14.42
644.5  236684.25  32830.53  13.87
645.9  238337.10  31768.44  13.33
647.2  239620.15  30743.81  12.83
648.6  241278.75  29883.60  12.39
650.0  242654.40  29122.56  12.00
651.3  243428.63  28421.69  11.68
652.7  245321.15  27942.75  11.39
654.0  247411.60  27501.37  11.12
655.4  248794.10  26953.45  10.83
656.8  248928.20  26198.83  10.52
658.1  250267.50  25481.51  10.18
659.5  252681.98  24757.25  9.80
660.8  254272.50  23856.00  9.38
662.2  255248.00  22794.24  8.93
663.5  256829.25  21771.97  8.48
664.9  257929.10  20768.11  8.05
666.2  258741.00  19817.20  7.66
667.6  260510.43  19053.64  7.31
668.9  261537.78  18404.43  7.04
670.3  263085.25  17920.88  6.81
671.6  264349.50  17587.90  6.65
673.0  265566.38  17410.90  6.56
674.3  266813.30  17370.60  6.51
675.7  268145.03  17486.34  6.52
677.0  269255.63  17705.16  6.58
678.4  270621.18  18095.74  6.69
679.7  271700.40  18680.14  6.88
681.1  273001.53  19543.73  7.16
682.4  274150.50  20774.00  7.58
683.8  275410.20  22506.64  8.17
685.1  276407.63  24812.45  8.98
686.4  277722.00  27838.80  10.02
687.8  279015.00  31630.60  11.34
689.1  280083.00  36136.97  12.90
690.5  281453.55  41374.32  14.70
691.8  282330.95  47182.52  16.71
693.1  283668.60  53550.64  18.88
694.5  284875.50  60129.77  21.11
695.8  286149.50  66742.43  23.32
697.1  287355.25  73224.67  25.48
698.5  288426.20  79483.29  27.56
699.8  289537.08  85466.61  29.52
701.1  290738.85  91138.38  31.35
702.5  291571.50  96312.55  33.03
703.8  292522.50  101133.00  34.57
705.1  293700.23  105618.76  35.96
706.5  294745.88  109697.17  37.22
707.8  295735.20  113415.82  38.35
709.1  296587.63  116744.87  39.36
710.5  297748.53  119935.85  40.28
711.8  298619.30  122765.96  41.11
713.1  299645.10  125459.80  41.87
714.4  300559.40  127909.83  42.56
715.8  301406.80  130166.59  43.19
717.1  302753.10  132463.98  43.75
718.4  303721.60  134459.73  44.27
719.7  304828.43  136390.29  44.74
721.0  305370.00  137952.00  45.18
722.4  306138.80  139512.34  45.57
723.7  307134.00  141052.12  45.93
725.0  308196.45  142528.17  46.25
726.3  309164.63  143888.80  46.54
727.6  309735.25  144978.31  46.81
729.0  310656.68  146160.63  47.05
730.3  311482.20  147218.78  47.26
731.6  312409.25  148264.95  47.46
732.9  313211.68  149202.06  47.64
734.2  314043.13  150098.67  47.80
735.5  315070.33  151046.18  47.94
736.8  315849.90  151831.68  48.07
738.1  316722.80  152603.09  48.18
739.5  317683.68  153385.54  48.28
740.8  318395.28  154019.54  48.37
742.1  319126.78  154638.94  48.46
743.4  319850.00  155240.00  48.54
744.7  320805.03  155927.24  48.60
746.0  321716.85  156554.84  48.66
747.3  322355.23  157009.38  48.71
748.6  323111.00  157524.77  48.75
749.9  323830.00  157996.80  48.79
751.2  324521.50  158451.57  48.83
752.5  325358.30  158988.51  48.87
753.8  325911.43  159359.97  48.90
755.1  326612.00  159771.73  48.92
756.4  327207.08  160120.29  48.94
757.7  328206.03  160663.72  48.95
759.0  330015.40  161591.46  48.96
760.3  331188.00  162208.64  48.98
761.6  332739.40  163004.80  48.99
762.9  333278.25  163296.27  49.00
764.2  333667.60  163494.61  49.00
765.5  333947.93  163648.99  49.00
766.8  334369.60  163863.68  49.01
768.1  334910.20  164126.00  49.01
769.3  335477.45  164421.65  49.01
770.6  336154.65  164759.66  49.01
771.9  336860.30  165109.26  49.01
773.2  337250.00  165318.29  49.02
774.5  337851.80  165613.07  49.02
775.8  338525.90  165929.81  49.02
777.1  339072.80  166209.41  49.02
778.4  339446.80  166372.87  49.01
779.6  340202.63  166753.29  49.02
780.9  340680.00  166988.00  49.02
782.2  341159.50  167222.00  49.02
783.5  341447.50  167375.87  49.02
784.8  341941.73  167626.35  49.02
786.0  342338.50  167823.74  49.02
787.3  342731.28  168017.75  49.02
788.6  343137.15  168222.71  49.02
789.9  343574.00  168444.64  49.03
791.2  344220.03  168764.56  49.03
792.4  344918.50  169091.40  49.02
793.7  345389.40  169342.45  49.03
795.0  345995.93  169648.16  49.03
796.2  346630.80  169975.04  49.04
797.5  347354.18  170309.92  49.03
798.8  347987.78  170634.60  49.03
800.0  348651.78  170959.36  49.03
801.3  349123.10  171176.57  49.03
802.6  349732.80  171472.74  49.03
803.8  350337.20  171788.15  49.04
805.1  350815.50  172026.52  49.04
806.4  351282.00  172242.48  49.03
807.7  351815.40  172506.51  49.03
808.9  352380.65  172771.81  49.03
810.2  352865.10  173018.07  49.03
811.4  353321.10  173264.08  49.04
812.7  354006.25  173582.50  49.03
814.0  354795.30  173982.20  49.04
815.2  355459.50  174292.33  49.03
816.5  355870.95  174483.02  49.03
817.7  356340.60  174713.73  49.03
819.0  356854.85  174964.46  49.03
820.2  357016.00  175037.87  49.03
821.5  357691.15  175391.15  49.03
822.7  358125.25  175564.38  49.02
824.0  358387.20  175699.08  49.02
825.2  358906.95  175929.30  49.02
826.5  359195.45  176077.31  49.02
827.7  359755.28  176328.59  49.01
829.0  360223.93  176527.43  49.00
830.2  360539.95  176668.37  49.00
831.5  361029.85  176895.77  49.00
832.7  361363.80  177028.88  48.99
834.0  361712.93  177189.16  48.99
835.2  362107.35  177352.41  48.98
836.4  362406.55  177506.12  48.98
837.7  362814.80  177718.19  48.98
838.9  363274.70  177928.97  48.98
840.1  363658.28  178099.74  48.97
841.4  364160.00  178309.43  48.96
842.6  364544.60  178486.40  48.96
843.8  364902.20  178651.87  48.96
845.1  365417.95  178896.73  48.96
846.3  365828.70  179106.01  48.96
847.5  366252.60  179313.96  48.96
848.8  366659.40  179508.40  48.96
850.0  367066.35  179680.20  48.95
851.2  367629.30  179927.28  48.94
852.5  368053.20  180108.59  48.94
853.7  368532.00  180359.70  48.94
854.9  369036.30  180585.20  48.93
856.1  369564.00  180800.71  48.92
857.4  369849.73  180884.75  48.91
858.6  370298.10  181117.01  48.91
859.8  370670.63  181318.50  48.92
861.0  371147.40  181565.28  48.92
862.2  371580.10  181762.47  48.92
863.5  372053.50  181918.36  48.90
864.7  372583.20  182158.24  48.89
865.9  373018.80  182345.17  48.88
867.1  373345.25  182507.87  48.88
868.3  373800.90  182713.84  48.88
869.5  374240.55  182931.79  48.88
870.8  374850.00  183171.60  48.87
872.0  375335.55  183414.90  48.87
873.2  375823.35  183579.56  48.85
874.4  376236.90  183790.62  48.85
875.6  376697.55  183971.79  48.84
876.8  377200.05  184215.35  48.84
878.0  377712.90  184441.91  48.83
879.2  378289.05  184651.12  48.81
880.4  378821.25  184878.15  48.80
881.6  379234.30  185095.21  48.81
882.8  379721.60  185261.23  48.79
884.0  380323.98  185547.54  48.79
885.2  380881.10  185771.99  48.77
886.5  381433.05  186040.05  48.77
887.7  381976.08  186243.72  48.76
888.8  382624.80  186505.25  48.74
890.0  383205.25  186749.00  48.73
891.2  383795.20  187025.20  48.73
892.4  384471.15  187300.61  48.72
893.6  385014.60  187548.49  48.71
894.8  385917.00  187953.70  48.70
896.0  386777.25  188336.80  48.69
897.2  387585.25  188724.90  48.69
898.4  388330.80  189036.76  48.68
899.6  388908.00  189274.10  48.67
900.8  389334.53  189427.64  48.65
902.0  389511.90  189472.62  48.64
903.2  389821.80  189585.94  48.63
904.3  390194.40  189739.00  48.63
905.5  390765.40  190017.50  48.63
906.7  391348.00  190286.53  48.62
907.9  391970.60  190488.81  48.60
909.1  392130.45  190592.37  48.60
910.2  392342.03  190664.25  48.60
911.4  392754.38  190728.72  48.56
912.6  392849.60  190768.67  48.56
913.8  393210.98  190818.02  48.53
915.0  393467.55  190956.92  48.53
916.2  393685.50  191003.80  48.52
917.3  393518.93  190965.24  48.53
918.5  393812.70  191073.53  48.52
919.7  394123.80  191115.84  48.49
920.8  394153.08  191094.85  48.48
922.0  394143.75  191021.60  48.46
923.2  394348.50  191081.80  48.46
924.4  394507.13  191160.45  48.46
925.5  394944.50  191238.25  48.42
926.7  395517.75  191484.88  48.41
927.9  396493.20  191797.44  48.37
929.0  397746.45  192432.96  48.38
930.2  400016.50  193448.88  48.36
931.4  402522.08  194534.46  48.33
932.5  405307.95  195770.99  48.30
933.7  406916.05  196415.86  48.27
934.9  407439.38  196645.75  48.26
936.0  406865.88  196315.38  48.25
937.2  404690.70  195186.88  48.23
938.3  402831.50  194228.30  48.22
939.5  401173.20  193339.20  48.19
940.7  401386.50  193353.12  48.17
941.8  403126.65  193949.88  48.11
943.0  404567.25  194546.00  48.09
944.2  405300.35  194802.31  48.06
945.3  404771.25  194487.80  48.05
946.5  404010.45  193930.02  48.00
947.6  404093.30  193903.76  47.98
948.8  403960.05  193688.69  47.95
949.9  404077.80  193557.28  47.90
951.1  403656.83  193172.42  47.86
952.2  403512.00  192848.00  47.79
953.4  403101.25  192493.80  47.75
954.5  403088.40  192207.60  47.68
955.7  402910.20  192008.88  47.66
956.8  402679.20  191693.89  47.60
958.0  402244.00  191346.47  47.57
959.1  402016.23  191053.64  47.52
960.3  401766.33  190695.27  47.46
961.4  401549.60  190517.15  47.45
962.6  401821.00  190361.50  47.37
963.7  401351.70  190175.94  47.38
964.9  401137.95  190042.66  47.38
966.0  400935.83  189898.02  47.36
967.2  400979.70  189800.58  47.33
968.3  400783.95  189547.02  47.29
969.5  400630.98  189440.02  47.29
970.6  400750.30  189403.60  47.26
971.8  400630.65  189396.29  47.27
972.9  400584.68  189416.50  47.29
974.0  400857.00  189456.53  47.26
975.2  401163.00  189301.63  47.19
976.3  400830.95  189253.40  47.22
977.5  400487.33  189289.19  47.26
978.6  400500.10  189327.32  47.27
979.7  400515.68  189483.98  47.31
980.9  400421.40  189268.25  47.27
982.0  400758.25  189164.29  47.20
983.2  401076.13  189042.25  47.13
984.3  400780.60  189024.88  47.16
985.4  400373.90  189001.17  47.21
986.6  400409.50  188986.73  47.20
987.7  401118.38  189319.18  47.20
988.9  400541.40  189171.36  47.23
990.0  401690.40  189687.13  47.22
993.1  380002.06  178202.90  46.90
996.9  379623.70  178313.80  46.97
1000.7  380115.63  178842.45  47.05
1004.5  380510.67  179273.37  47.11
1008.4  380283.04  179471.51  47.19
1012.2  380331.08  179751.83  47.26
1016.0  380315.40  179986.71  47.33
1019.8  380156.70  180116.48  47.38
1023.7  379644.32  180000.69  47.41
1027.5  378676.82  179672.98  47.45
1031.3  378227.18  179534.46  47.47
1035.1  377612.84  179302.75  47.48
1038.9  377391.67  179244.63  47.50
1042.7  377167.92  179222.49  47.52
1046.5  377025.50  179214.29  47.53
1050.3  377091.73  179264.41  47.54
1054.2  376812.33  179166.50  47.55
1058.0  376431.18  178954.82  47.54
1061.8  376365.43  178955.99  47.55
1065.6  375957.27  178689.75  47.53
1069.4  375604.93  178469.93  47.52
1073.2  374762.70  177979.66  47.49
1077.0  374201.58  177623.61  47.47
1080.8  374069.79  177473.96  47.44
1084.6  373659.30  177203.48  47.42
1088.4  373556.16  177108.13  47.41
1092.2  372937.50  176699.25  47.38
1096.0  372355.80  176276.31  47.34
1099.8  371821.67  175834.75  47.29
1103.6  370996.70  175276.27  47.24
1107.4  370018.58  174611.81  47.19
1111.2  369795.00  174335.88  47.14
1114.9  369275.08  173892.17  47.09
1118.7  368980.43  173489.37  47.02
1122.5  368530.07  172956.09  46.93
1126.3  367565.10  172102.40  46.82
1130.1  367134.48  171330.93  46.67
1133.9  365500.80  169770.80  46.45
1137.7  363989.10  168111.04  46.19
1141.4  362066.47  166090.17  45.87
1145.2  361240.93  164461.42  45.53
1149.0  360049.38  162764.38  45.21
1152.8  358258.15  160935.77  44.92
1156.6  356459.95  159348.57  44.70
1160.3  354634.00  157965.05  44.54
1164.1  352231.50  156509.25  44.43
1167.9  350510.42  155493.01  44.36
1171.7  349224.75  154743.75  44.31
1175.4  347891.27  154007.21  44.27
1179.2  346713.43  153289.85  44.21
1183.0  346385.33  152961.05  44.16
1186.7  346123.63  152701.90  44.12
1190.5  345486.73  152283.66  44.08
1194.3  344463.50  151713.99  44.04
1198.0  343128.23  151046.07  44.02
1201.8  341524.05  150296.45  44.01
1205.6  340360.00  149824.76  44.02
1209.3  339629.10  149625.27  44.06
1213.1  338931.98  149470.80  44.10
1216.8  338133.77  149343.71  44.17
1220.6  337013.60  149080.80  44.24
1224.3  335773.25  148742.91  44.30
1228.1  334378.40  148362.89  44.37
1231.9  332899.45  147884.04  44.42
1235.6  331282.35  147305.62  44.47
1239.4  329811.50  146804.91  44.51
1243.1  328493.56  146324.10  44.54
1246.9  327249.89  145842.59  44.57
1250.6  326225.27  145436.77  44.58
1254.3  325102.07  144968.05  44.59
1258.1  323970.50  144464.22  44.59
1261.8  322609.33  143845.49  44.59
1265.6  321345.52  143247.63  44.58
1269.3  320254.85  142721.27  44.56
1273.1  320474.40  142713.03  44.53
1276.8  320538.00  142567.54  44.48
1280.6  319886.50  142097.74  44.42
1284.3  318176.40  141133.71  44.36
1288.0  316809.95  140314.08  44.29
1291.8  315932.90  139657.45  44.20
1295.5  314906.53  138898.78  44.11
1299.2  313728.24  138000.25  43.99
1302.9  312182.28  136865.01  43.84
1306.7  310504.02  135613.45  43.68
1310.4  308890.86  134277.02  43.47
1314.1  307391.88  132941.49  43.25
1317.9  306067.71  131578.15  42.99
1321.6  304592.92  130058.03  42.70
1325.3  302931.83  128366.33  42.37
1329.0  301631.87  126770.88  42.03
1332.8  299653.20  124795.00  41.65
1336.5  297929.00  122929.38  41.26
1340.2  297782.33  121703.83  40.87
1343.9  297809.58  120528.21  40.47
1347.6  298154.10  119461.61  40.07
1351.4  299847.50  118989.07  39.68
1355.1  302120.87  118759.04  39.31
1358.8  303952.00  118285.72  38.92
1362.5  304267.93  117088.52  38.48
1366.2  302166.50  114745.75  37.97
1369.9  298973.88  111689.70  37.36
1373.6  296248.17  108393.23  36.59
1377.3  294801.90  104980.88  35.61
1381.0  294249.50  101117.88  34.36
1384.8  292110.00  95837.86  32.81
1388.4  288818.83  89616.27  31.03
1392.2  286588.92  83307.07  29.07
1395.9  285036.68  77055.07  27.03
1399.6  283139.94  70976.86  25.07
1403.3  281601.42  65518.65  23.27
1407.0  279836.80  60723.11  21.70
1410.7  277980.45  56714.39  20.40
1414.3  276057.95  53487.63  19.38
1418.1  274378.38  51028.29  18.60
1421.7  273004.96  49187.58  18.02
1425.4  271681.15  47832.57  17.61
1429.1  270523.13  46880.57  17.33
1432.8  268844.60  46147.96  17.17
1436.5  267995.08  45770.32  17.08
1440.2  267217.40  45588.09  17.06
1443.9  265976.43  45452.55  17.09
1447.6  264325.60  45342.00  17.15
1451.2  263065.73  45347.84  17.24
1454.9  261640.50  45380.74  17.34
1458.6  260436.89  45570.36  17.50
1462.3  259264.87  45905.36  17.71
1466.0  257943.98  46373.44  17.98
1469.7  256241.38  46954.79  18.32
1473.3  255177.83  47788.76  18.73
1477.0  253115.43  48554.91  19.18
1480.7  251463.35  49449.87  19.66
1484.4  249443.74  50281.72  20.16
1488.0  247837.33  51236.95  20.67
1491.7  246205.19  52161.04  21.19
1495.4  244492.65  53065.13  21.70
1499.0  242904.00  53952.43  22.21
1502.7  241594.50  54890.43  22.72
1506.4  240143.13  55745.21  23.21
1510.0  238702.17  56567.73  23.70
1513.7  237198.79  57319.79  24.17
1517.4  235826.33  58064.33  24.62
1521.0  234586.80  58794.97  25.06
1524.7  233346.75  59449.77  25.48
1528.3  232059.63  60059.50  25.88
1532.0  230821.62  60635.12  26.27
1535.7  229415.61  61103.19  26.63
1539.3  228133.23  61570.55  26.99
1543.0  227159.13  62082.93  27.33
1546.6  226445.92  62634.62  27.66
1550.3  225432.25  63054.39  27.97
1553.9  224364.93  63428.66  28.27
1557.6  223114.47  63715.14  28.56
1561.2  221832.90  63948.79  28.83
1564.9  220499.94  64150.23  29.09
1568.5  219162.30  64313.55  29.35
1572.2  217999.80  64501.54  29.59
1575.8  216902.00  64692.00  29.83
1579.5  215907.65  64879.34  30.05
1583.1  214883.75  65051.26  30.27
1586.8  213598.00  65116.00  30.49
1590.4  212450.63  65196.86  30.69
1594.0  211101.04  65202.60  30.89
1597.7  210119.85  65320.16  31.09
1601.3  209010.38  65387.25  31.28
1604.9  207880.27  65415.53  31.47
1608.6  206533.83  65336.13  31.63
1612.2  205311.98  65274.35  31.79
1615.8  204007.05  65159.44  31.94
1619.5  202807.58  65062.40  32.08
1623.1  201483.13  64903.10  32.21
1626.7  200233.80  64748.17  32.34
1630.3  199022.25  64583.27  32.45
1634.0  197904.00  64424.00  32.55
1637.6  196891.13  64280.65  32.65
1641.2  195857.00  64078.04  32.72
1644.8  194652.68  63773.70  32.76
1648.5  193549.04  63482.96  32.80
1652.1  192577.80  63180.09  32.81
1655.7  191629.00  62843.11  32.79
1659.3  190769.38  62515.11  32.77
1662.9  189323.33  61977.14  32.74
1666.6  187874.40  61437.17  32.70
1670.2  186455.68  60882.63  32.65
1673.8  184969.83  60298.09  32.60
1677.4  183788.05  59790.78  32.53
1681.0  182960.93  59350.26  32.44
1684.6  182562.25  58993.07  32.31
1688.2  181884.10  58477.91  32.15
1691.8  181197.18  57978.81  32.00
1695.4  180737.60  57532.31  31.83
1699.0  180379.03  57096.00  31.65
1702.6  180041.00  56649.43  31.46
1706.2  179412.57  56075.18  31.25
1709.8  178470.12  55406.49  31.05
1713.4  177724.98  54822.99  30.85
1717.0  176837.75  54237.86  30.67
1720.6  176014.58  53698.68  30.51
1724.2  175294.13  53192.70  30.34
1727.8  174549.90  52720.15  30.20
1731.4  174073.63  52362.75  30.08
1735.0  173896.07  52141.00  29.98
1738.6  173642.55  51867.86  29.87
1742.2  173073.00  51441.14  29.72
1745.8  172397.06  50940.20  29.55
1749.4  171421.80  50310.03  29.35
1753.0  169888.07  49511.39  29.14
1756.6  168233.04  48687.13  28.94
1760.1  166885.18  47978.35  28.75
1763.7  165155.33  47185.05  28.57
1767.3  163707.90  46520.05  28.42
1770.9  162459.91  45931.49  28.27
1774.5  160981.50  45306.10  28.14
1778.0  159846.72  44811.08  28.03
1781.6  158756.85  44374.35  27.95
1785.2  157612.25  43969.59  27.90
1788.8  156436.00  43600.17  27.87
1792.3  155212.43  43232.20  27.85
1795.9  154761.75  43100.03  27.85
1799.5  154457.67  43027.38  27.86
1803.1  154840.82  43176.23  27.88
1806.6  156423.05  43642.88  27.90
1810.2  158103.87  44117.23  27.90
1813.8  159239.60  44407.22  27.89
1817.3  159125.00  44346.34  27.87
1820.9  158252.58  44062.63  27.84
1824.5  157069.98  43683.57  27.81
1828.0  156190.38  43346.02  27.75
1831.6  155853.98  43150.49  27.69
1835.2  155677.50  42937.14  27.58
1838.7  155506.67  42628.34  27.41
1842.3  155250.00  42227.14  27.20
1845.8  154032.96  41446.97  26.91
1849.4  153419.15  40685.99  26.52
1852.9  152487.18  39669.89  26.02
1856.5  151383.85  38394.50  25.36
1860.0  150371.29  36876.58  24.52
1863.6  150424.03  35351.65  23.50
1867.1  151177.25  33672.80  22.27
1870.7  152032.55  31610.32  20.79
1874.2  150921.00  28753.01  19.05
1877.8  148287.33  25462.90  17.17
1881.3  145442.63  22081.27  15.18
1884.9  143766.61  19023.91  13.23
1888.4  142369.55  16179.54  11.36
1891.9  141022.73  13730.63  9.74
1895.5  139888.12  11759.69  8.41
1899.0  139474.13  10308.91  7.39
1901.3  176541.67  9056.28  5.13
1904.1  176536.50  8073.25  4.57
1906.8  175601.40  7313.20  4.16
1909.6  173502.70  6692.93  3.86
1912.4  171514.82  6209.62  3.62
1915.1  170105.65  5881.15  3.46
1917.9  168633.67  5624.89  3.34
1920.6  167357.97  5466.33  3.27
1923.3  166031.13  5339.99  3.22
1926.1  164290.60  5251.15  3.20
1928.8  162653.33  5206.67  3.20
1931.6  161378.67  5208.88  3.23
1934.3  160253.28  5240.94  3.27
1937.0  159180.13  5297.03  3.33
1939.8  157973.50  5366.95  3.40
1942.5  156464.00  5463.33  3.49
1945.2  154513.70  5555.92  3.60
1947.9  152897.97  5665.49  3.71
1950.7  151617.73  5804.66  3.83
1953.4  149753.55  5940.10  3.97
1956.1  148274.83  6105.14  4.12
1958.8  146979.73  6282.54  4.27
1961.5  145415.20  6464.53  4.45
1964.2  143834.60  6639.97  4.62
1966.9  142175.50  6832.75  4.81
1969.6  140886.00  7056.00  5.01
1972.3  139454.10  7265.37  5.21
1975.0  138360.90  7501.85  5.42
1977.7  137222.60  7741.03  5.64
1980.4  136032.37  7983.51  5.87
1983.1  134899.13  8234.35  6.10
1985.8  133953.90  8494.10  6.34
1988.4  132912.00  8753.33  6.59
1991.1  131977.77  9021.83  6.84
1993.8  131085.35  9288.76  7.09
1996.5  130421.87  9564.50  7.33
1999.1  129715.30  9831.62  7.58
2001.8  129007.90  10109.63  7.84
2004.5  128314.10  10374.23  8.09
2007.1  127570.20  10619.32  8.32
2009.8  126797.77  10866.49  8.57
2012.4  126182.47  11118.37  8.81
2015.1  125615.00  11361.47  9.04
2017.8  124803.47  11574.42  9.27
2020.4  124278.18  11801.96  9.50
2023.1  123914.23  12031.99  9.71
2025.7  123664.67  12266.22  9.92
2028.3  123318.00  12474.22  10.12
2031.0  122895.22  12671.88  10.31
2033.6  122609.10  12861.50  10.49
2036.2  122348.10  13044.20  10.66
2038.9  121739.10  13183.40  10.83
2041.5  121397.02  13333.60  10.98
2044.1  120816.90  13450.20  11.13
2046.8  120434.10  13586.50  11.28
2049.4  119781.60  13685.10  11.43
2052.0  119480.73  13810.31  11.56
2054.6  119087.50  13921.25  11.69
2057.2  118502.60  14011.18  11.82
2059.8  118162.00  14133.44  11.96
2062.4  117274.03  14179.11  12.09
2065.0  116738.47  14281.91  12.23
2067.6  115835.78  14315.67  12.36
2070.2  115208.18  14391.21  12.49
2072.8  114545.72  14452.23  12.62
2075.4  114091.25  14533.75  12.74
2078.0  113445.53  14592.04  12.86
2080.6  112877.60  14649.07  12.98
2083.2  112169.50  14698.78  13.10
2085.8  111662.52  14770.64  13.23
2088.4  110973.17  14825.28  13.36
2090.9  110164.25  14841.39  13.47
2093.5  109250.20  14853.66  13.60
2096.1  108474.17  14876.04  13.71
2098.7  107683.67  14893.61  13.83
2101.2  106703.87  14878.69  13.94
2103.8  105996.47  14913.62  14.07
2106.4  105324.00  14945.65  14.19
2108.9  104669.00  14974.75  14.31
2111.5  103786.93  14980.58  14.43
2114.0  103149.40  15015.51  14.56
2116.6  102628.75  15058.75  14.67
2119.1  102052.77  15087.43  14.78
2121.7  101543.75  15122.92  14.89
2124.2  101123.50  15175.10  15.01
2126.8  100305.67  15160.04  15.11
2129.3  99888.80  15200.53  15.22
2131.9  99290.40  15206.40  15.32
2134.4  98845.65  15227.90  15.41
2136.9  98453.98  15255.65  15.50
2139.4  97923.47  15259.53  15.58
2142.0  97471.27  15283.18  15.68
2144.5  97179.10  15322.83  15.77
2147.0  96935.60  15374.27  15.86
2149.5  96417.47  15374.26  15.95
2152.1  96256.42  15427.38  16.03
2154.6  96170.13  15494.94  16.11
2157.1  95629.33  15481.03  16.19
2159.6  95202.42  15481.03  16.26
2162.1  95022.20  15524.60  16.34
2164.6  94758.33  15554.07  16.41
2167.1  94432.22  15553.51  16.47
2169.6  94102.17  15548.52  16.52
2172.1  93626.00  15530.47  16.59
2174.6  93306.07  15543.29  16.66
2177.1  92842.62  15524.83  16.72
2179.5  92412.02  15509.14  16.78
2182.0  91919.85  15483.60  16.84
2184.5  91374.90  15451.22  16.91
2187.0  90758.10  15401.49  16.97
2189.5  90053.73  15340.87  17.04
2191.9  89271.50  15247.50  17.08
2194.4  88624.00  15194.05  17.14
2196.9  87849.60  15113.60  17.20
2199.3  87174.00  15034.89  17.25
2201.8  86276.27  14921.20  17.29
2204.3  85787.85  14878.80  17.34
2206.7  85133.55  14801.27  17.39
2209.2  84650.75  14745.93  17.42
2211.6  84011.40  14648.70  17.44
2214.1  83719.30  14613.23  17.46
2216.5  83142.00  14519.22  17.46
2219.0  82804.27  14459.62  17.46
2221.4  82417.42  14385.78  17.45
2223.9  81941.42  14276.69  17.42
2226.3  81405.92  14161.00  17.40
2228.7  80845.67  14017.86  17.34
2231.1  80229.60  13856.70  17.27
2233.6  79645.47  13681.51  17.18
2236.0  79085.42  13499.89  17.07
2238.4  78589.58  13308.17  16.93
2240.9  78125.67  13121.93  16.80
2243.3  77569.40  12916.65  16.65
2245.7  76983.15  12696.20  16.49
2248.1  76484.20  12488.23  16.33
2250.5  75963.18  12262.86  16.14
2252.9  75328.07  12013.16  15.95
2255.3  74764.30  11767.53  15.74
2257.7  74290.00  11546.67  15.54
2260.1  73785.13  11324.29  15.35
2262.5  73150.00  11083.33  15.15
2264.9  72628.75  10861.87  14.96
2267.3  71990.00  10626.67  14.76
2269.7  71497.53  10434.67  14.59
2272.1  70948.05  10243.71  14.44
2274.5  70372.52  10043.23  14.27
2276.8  69876.27  9876.43  14.13
2279.2  69284.70  9688.20  13.98
2281.6  68845.93  9536.49  13.85
2284.0  68377.00  9379.53  13.72
2286.3  67903.47  9228.09  13.59
2288.7  67484.95  9086.93  13.47
2291.1  66946.47  8920.05  13.32
2293.4  66486.93  8771.15  13.19
2295.8  65858.20  8590.20  13.04
2298.2  65236.05  8414.55  12.90
2300.5  64563.30  8221.35  12.73
2302.9  63798.00  8029.00  12.59
2305.2  63066.90  7845.17  12.44
2307.6  62364.25  7682.48  12.32
2309.9  61576.33  7522.67  12.22
2312.2  60977.00  7405.56  12.14
2314.6  60371.55  7300.20  12.09
2316.9  59667.75  7189.80  12.05
2319.2  59090.00  7094.25  12.01
2321.6  58447.78  6991.44  11.96
2323.9  57885.42  6881.94  11.89
2326.2  57341.60  6760.80  11.79
2328.6  56837.55  6653.17  11.71
2330.9  56311.50  6545.00  11.62
2333.2  55827.08  6431.14  11.52
2335.5  55372.50  6334.40  11.44
2337.8  54897.95  6225.58  11.34
2340.1  54315.65  6099.77  11.23
2342.4  53863.33  5990.83  11.12
2344.8  53426.17  5884.08  11.01
2347.1  52859.33  5761.15  10.90
2349.4  52307.13  5658.89  10.82
2351.6  51690.20  5545.05  10.73
2353.9  51194.67  5454.15  10.65
2356.2  50658.65  5354.53  10.57
2358.5  50075.20  5245.33  10.47
2360.8  49492.80  5140.80  10.39
2363.1  49039.27  5054.98  10.31
2365.4  48567.40  4956.93  10.21
2367.7  48085.20  4867.80  10.12
2369.9  47528.95  4770.83  10.04
2372.2  46887.20  4663.11  9.95
2374.5  46292.40  4558.40  9.85
2376.7  45665.12  4449.19  9.74
2379.0  45044.27  4335.36  9.62
2381.3  44415.00  4223.33  9.51
2383.5  43882.67  4134.05  9.42
2385.8  43254.27  4032.04  9.32
2388.0  42727.80  3925.47  9.19
2390.3  42197.87  3825.02  9.06
2392.5  41700.00  3732.00  8.95
2394.8  41236.80  3646.13  8.84
2397.0  40755.87  3546.98  8.70
2399.3  40290.28  3468.19  8.61
2401.5  39824.75  3381.00  8.49
2403.8  39302.48  3280.34  8.35
2406.0  38777.25  3186.94  8.22
2408.2  38359.93  3108.36  8.10
2410.4  37924.37  3041.77  8.02
2412.7  37511.50  2965.73  7.91
2414.9  37140.40  2875.77  7.74
2417.1  36728.40  2785.53  7.58
2419.3  36300.80  2713.60  7.48
2421.6  35908.33  2643.61  7.36
2423.8  35528.67  2576.04  7.25
2426.0  35132.90  2501.46  7.12
2428.2  34770.40  2434.76  7.00
2430.4  34486.07  2368.77  6.87
2432.6  34213.33  2297.78  6.72
2434.8  33897.87  2245.60  6.62
2437.0  33502.73  2180.68  6.51
2439.2  33142.87  2117.61  6.39
2441.4  32815.43  2058.63  6.27
2443.6  32552.07  2008.02  6.17
2445.7  32292.63  1957.55  6.06
2447.9  32008.33  1892.67  5.91
2450.1  31724.90  1835.87  5.79
2452.3  31339.00  1783.40  5.69
2454.5  30976.40  1730.37  5.59
2456.6  30573.47  1673.96  5.48
2458.8  30230.20  1634.97  5.41
2461.0  29900.17  1576.22  5.27
2463.1  29594.70  1532.60  5.18
2465.3  29310.57  1487.72  5.08
2467.5  29072.25  1445.50  4.97
2469.6  28819.00  1427.03  4.95
2471.8  28516.65  1381.53  4.84
2473.9  28190.75  1342.42  4.76
2476.1  27846.00  1299.28  4.67
2478.2  27480.93  1269.45  4.62
2480.4  27154.15  1228.00  4.52
2482.5  26817.13  1197.38  4.46
2484.6  26491.67  1173.94  4.43
2486.8  26234.70  1135.63  4.33
2488.9  25916.23  1115.36  4.30
2491.1  25545.33  1084.22  4.24
2493.2  25131.53  1053.80  4.19
2495.3  24723.40  1026.13  4.15
2497.4  24407.60  1014.30  4.16
2499.5  24064.62  992.58  4.12
2501.7  23943.37  975.04  4.07
2503.8  23821.25  964.00  4.05
2505.9  23762.92  950.97  4.00
2508.0  23787.63  940.06  3.95
2510.1  23802.72  935.89  3.93
2512.2  23891.70  929.73  3.89
2514.3  24070.87  930.18  3.86
2516.4  24368.90  958.73  3.93
