/*** Spectra Vista SIG Data ***/
name= 63_20220722_BENI_58_avg.sig
comm= Averaged Ref/Tar of files: HR.072222.0063_moc.sig,HR.072222.0064_moc.sig,HR.072222.0065_moc.sig
data=
337.3  3126.38  345.96  11.07
338.8  3222.70  335.33  10.41
340.3  3373.20  322.15  9.55
341.8  3520.83  337.93  9.60
343.2  3685.20  332.37  9.02
344.7  3881.15  331.45  8.54
346.2  4044.15  329.14  8.14
347.7  4207.78  324.34  7.71
349.2  4422.60  331.20  7.49
350.6  4627.35  328.78  7.11
352.1  4894.33  321.87  6.58
353.6  5100.90  330.48  6.48
355.1  5388.00  345.73  6.42
356.6  5637.30  362.71  6.43
358.0  5901.50  357.89  6.06
359.5  6149.10  361.38  5.88
361.0  6463.80  361.38  5.59
362.5  6791.80  378.07  5.57
364.0  7111.40  391.62  5.51
365.4  7446.50  414.27  5.56
366.9  7790.25  427.79  5.49
368.4  8127.95  431.72  5.31
369.9  8485.85  446.81  5.27
371.3  8864.40  468.90  5.29
372.8  9239.40  481.44  5.21
374.3  9621.25  496.03  5.16
375.8  9998.45  507.69  5.08
377.2  10383.40  514.43  4.95
378.7  10786.90  529.80  4.91
380.2  11163.50  540.05  4.84
381.7  11647.78  559.03  4.80
383.1  12100.55  562.61  4.65
384.6  12624.30  580.60  4.60
386.1  13080.10  594.55  4.55
387.6  13555.85  613.43  4.53
389.0  14043.20  626.35  4.46
390.5  14522.85  634.67  4.37
392.0  15050.05  654.45  4.35
393.4  15581.08  677.14  4.35
394.9  16129.80  699.48  4.34
396.4  16637.63  716.61  4.31
397.9  17168.75  735.07  4.28
399.3  17702.18  750.58  4.24
400.8  18220.18  765.79  4.20
402.2  18829.85  783.26  4.16
403.7  19380.38  799.75  4.13
405.2  19934.35  824.34  4.14
406.6  20485.60  845.81  4.13
408.1  21040.60  869.56  4.13
409.6  21620.75  885.11  4.09
411.0  22268.05  909.31  4.08
412.5  22865.85  934.15  4.09
414.0  23451.63  960.54  4.10
415.4  24128.25  985.80  4.09
416.9  24749.10  1010.38  4.08
418.4  25398.00  1035.84  4.08
419.8  26080.60  1061.15  4.07
421.3  26773.15  1088.85  4.07
422.7  27492.00  1120.23  4.07
424.2  28215.00  1151.36  4.08
425.7  28916.20  1182.60  4.09
427.1  29624.40  1209.94  4.08
428.6  30380.00  1239.11  4.08
430.0  31078.40  1267.47  4.08
431.5  31894.73  1299.19  4.07
432.9  32698.80  1332.45  4.07
434.4  33520.50  1367.56  4.08
435.9  34300.00  1401.60  4.09
437.3  35090.00  1432.88  4.08
438.8  35878.73  1468.17  4.09
440.2  36678.95  1500.47  4.09
441.7  37587.00  1536.28  4.09
443.1  38438.25  1573.34  4.09
444.6  39339.30  1613.42  4.10
446.0  40209.53  1650.42  4.10
447.5  41101.50  1692.56  4.12
448.9  41976.60  1732.29  4.13
450.4  42916.30  1774.27  4.13
451.8  43732.00  1811.58  4.14
453.3  44585.75  1850.42  4.15
454.7  45532.80  1893.69  4.16
456.2  46340.40  1927.58  4.16
457.6  47259.00  1965.46  4.16
459.1  48183.20  2005.35  4.16
460.5  49046.13  2044.21  4.17
462.0  50042.50  2084.91  4.17
463.4  51005.10  2125.98  4.17
464.8  51934.13  2163.71  4.17
466.3  52860.23  2205.00  4.17
467.7  53780.58  2241.81  4.17
469.2  54765.83  2289.27  4.18
470.6  55694.20  2324.27  4.17
472.0  56665.95  2369.43  4.18
473.5  57601.75  2410.40  4.18
474.9  58567.50  2448.56  4.18
476.4  59644.80  2496.55  4.19
477.8  60653.50  2543.72  4.19
479.2  61581.50  2584.59  4.20
480.7  62618.85  2632.52  4.20
482.1  63681.15  2675.59  4.20
483.6  64822.70  2729.26  4.21
485.0  65846.78  2780.03  4.22
486.4  66959.10  2837.39  4.24
487.9  67991.63  2889.06  4.25
489.3  69060.25  2943.32  4.26
490.7  70076.28  3001.09  4.28
492.2  71236.20  3065.72  4.30
493.6  72283.10  3128.12  4.33
495.0  73315.13  3192.15  4.35
496.5  74431.60  3268.19  4.39
497.9  75473.53  3343.66  4.43
499.3  76559.48  3428.08  4.48
500.7  77732.90  3524.93  4.53
502.2  78810.80  3626.92  4.60
503.6  79978.80  3743.72  4.68
505.0  80985.20  3867.32  4.78
506.5  82222.88  4018.80  4.89
507.9  83346.15  4181.78  5.02
509.3  84641.20  4379.11  5.17
510.7  85790.25  4594.48  5.36
512.2  87125.03  4847.61  5.56
513.6  88482.10  5142.22  5.81
515.0  89816.65  5469.99  6.09
516.4  91102.73  5832.27  6.40
517.8  92603.50  6250.51  6.75
519.3  93823.95  6684.15  7.12
520.7  95287.10  7168.44  7.52
522.1  96483.40  7662.29  7.94
523.5  97772.60  8179.56  8.37
524.9  99072.90  8696.56  8.78
526.3  100320.85  9204.23  9.17
527.8  101707.65  9711.33  9.55
529.2  102854.70  10188.48  9.91
530.6  104401.25  10661.90  10.21
532.0  106008.00  11121.33  10.49
533.4  107188.20  11513.67  10.74
534.8  108035.03  11822.39  10.94
536.3  109598.40  12171.46  11.11
537.7  111484.80  12535.20  11.24
539.1  112823.05  12819.41  11.36
540.5  113920.70  13064.50  11.47
541.9  115524.53  13365.86  11.57
543.3  116733.88  13615.95  11.66
544.7  117921.60  13862.83  11.76
546.1  119593.93  14158.82  11.84
547.5  120758.40  14384.43  11.91
549.0  122419.00  14662.89  11.98
550.4  123791.88  14885.73  12.02
551.8  125194.88  15079.42  12.04
553.2  126611.33  15241.62  12.04
554.6  127868.00  15334.16  11.99
556.0  129281.85  15400.80  11.91
557.4  130776.45  15427.52  11.80
558.8  132283.35  15417.75  11.66
560.2  133630.00  15353.62  11.49
561.6  135180.98  15270.74  11.30
563.0  136656.85  15141.46  11.08
564.4  138131.15  14976.98  10.84
565.8  139548.75  14774.42  10.59
567.2  141158.25  14560.82  10.32
568.6  142560.38  14298.86  10.03
570.0  143893.23  14013.72  9.74
571.4  145506.40  13747.25  9.45
572.8  147128.13  13489.86  9.17
574.2  148635.20  13238.61  8.91
575.6  150052.50  13006.50  8.67
577.0  151465.20  12799.13  8.45
578.4  153062.00  12635.57  8.26
579.8  154464.98  12480.65  8.08
581.2  156065.73  12360.78  7.92
582.5  157388.40  12238.87  7.78
583.9  158804.40  12142.54  7.65
585.3  160462.80  12082.64  7.53
586.7  161832.45  12019.04  7.43
588.1  163214.63  11971.42  7.33
589.5  164738.00  11954.13  7.26
590.9  166259.20  11947.22  7.19
592.3  167944.10  11972.70  7.13
593.7  169274.63  11984.27  7.08
595.0  170790.53  12017.64  7.04
596.4  172131.40  12043.99  7.00
597.8  173505.25  12068.10  6.96
599.2  174939.60  12091.70  6.91
600.6  176569.58  12111.28  6.86
602.0  177760.43  12084.03  6.80
603.3  179429.10  12072.15  6.73
604.7  180974.95  12033.48  6.65
606.1  182353.20  11960.00  6.56
607.5  183879.63  11881.87  6.46
608.9  185445.95  11791.30  6.36
610.2  186713.10  11678.58  6.25
611.6  188201.85  11577.33  6.15
613.0  189641.80  11475.23  6.05
614.4  190925.10  11370.62  5.96
615.8  192274.88  11284.65  5.87
617.1  193687.20  11217.08  5.79
618.5  195212.00  11164.84  5.72
619.9  196592.10  11126.09  5.66
621.3  198115.65  11118.75  5.61
622.6  199592.00  11122.33  5.57
624.0  200958.15  11135.77  5.54
625.4  202348.58  11159.11  5.51
626.8  203824.08  11211.50  5.50
628.1  205051.55  11250.88  5.49
629.5  206777.33  11328.60  5.48
630.9  208278.40  11392.94  5.47
632.2  209539.40  11434.04  5.46
633.6  211048.50  11477.34  5.44
635.0  212471.60  11489.27  5.41
636.3  213897.20  11476.99  5.37
637.7  215189.38  11434.41  5.31
639.1  216737.50  11377.67  5.25
640.4  218109.50  11302.24  5.18
641.8  219229.68  11199.87  5.11
643.2  220716.13  11108.89  5.03
644.5  221974.75  11018.83  4.96
645.9  223577.10  10942.08  4.89
647.2  225390.20  10887.28  4.83
648.6  227103.75  10862.48  4.78
650.0  228420.00  10834.56  4.74
651.3  228820.63  10772.09  4.71
652.7  229831.55  10728.13  4.67
654.0  231862.50  10714.58  4.62
655.4  233238.78  10701.21  4.59
656.8  233492.20  10633.11  4.55
658.1  234604.50  10604.58  4.52
659.5  236834.33  10608.10  4.48
660.8  238545.00  10599.86  4.44
662.2  239321.60  10546.77  4.41
663.5  240792.65  10553.10  4.38
664.9  242061.30  10579.38  4.37
666.2  242757.00  10579.46  4.36
667.6  244324.80  10639.88  4.35
668.9  245454.93  10698.73  4.36
670.3  246415.88  10766.00  4.37
671.6  247932.75  10869.48  4.38
673.0  249039.00  10977.79  4.41
674.3  250216.20  11097.15  4.44
675.7  251434.25  11238.07  4.47
677.0  252494.60  11383.36  4.51
678.4  253772.05  11557.04  4.55
679.7  254785.20  11734.50  4.61
681.1  255981.70  11941.94  4.67
682.4  257067.20  12169.31  4.73
683.8  258282.70  12426.94  4.81
685.1  259194.38  12700.59  4.90
686.4  260428.20  13040.49  5.01
687.8  261615.50  13446.63  5.14
689.1  262639.00  13958.17  5.31
690.5  263931.15  14660.75  5.55
691.8  264733.03  15593.37  5.89
693.1  265933.65  16863.25  6.34
694.5  267039.50  18515.47  6.93
695.8  268177.00  20579.00  7.67
697.1  269291.75  23112.27  8.58
698.5  270288.90  26116.24  9.66
699.8  271351.73  29608.80  10.91
701.1  272394.78  33559.86  12.32
702.5  273148.15  37858.66  13.86
703.8  274050.00  42507.00  15.51
705.1  275154.75  47427.38  17.24
706.5  276129.88  52534.37  19.03
707.8  277072.95  57766.45  20.85
709.1  277901.60  63067.49  22.69
710.5  278995.53  68470.14  24.54
711.8  279820.40  73823.20  26.38
713.1  280779.30  79209.17  28.21
714.4  281649.00  84531.87  30.01
715.8  282429.50  89767.48  31.78
717.1  283710.90  95049.65  33.50
718.4  284592.00  100105.81  35.18
719.7  285657.25  105087.11  36.79
721.0  286177.50  109720.72  38.34
722.4  286926.20  114264.50  39.82
723.7  287836.20  118698.08  41.24
725.0  288857.48  122979.48  42.57
726.3  289763.38  127022.65  43.84
727.6  290288.35  130700.30  45.02
729.0  291193.35  134320.85  46.13
730.3  291910.95  137684.24  47.17
731.6  292778.05  140902.36  48.13
732.9  293544.30  143883.39  49.02
734.2  294314.63  146693.04  49.84
735.5  295309.33  149413.33  50.60
736.8  296060.40  151856.96  51.29
738.1  296885.80  154162.74  51.93
739.5  297811.83  156375.41  52.51
740.8  298472.63  158311.76  53.04
742.1  299207.68  160164.95  53.53
743.4  299900.00  161887.62  53.98
744.7  300866.43  163615.44  54.38
746.0  301715.70  165174.81  54.75
747.3  302292.58  166450.23  55.06
748.6  303000.25  167726.67  55.36
749.9  303732.00  168927.70  55.62
751.2  304412.15  170032.78  55.86
752.5  305275.10  171141.54  56.06
753.8  305859.75  172024.97  56.24
755.1  306540.00  172890.59  56.40
756.4  307128.40  173652.03  56.54
757.7  308102.20  174563.93  56.66
759.0  309795.93  175866.35  56.77
760.3  310939.20  176796.02  56.86
761.6  312470.20  177899.79  56.93
762.9  313001.75  178414.35  57.00
764.2  313411.90  178814.80  57.05
765.5  313733.23  179144.86  57.10
766.8  314160.00  179527.25  57.15
768.1  314689.00  179939.19  57.18
769.3  315292.95  180373.33  57.21
770.6  315946.80  180826.92  57.23
771.9  316687.00  181310.69  57.25
773.2  317114.40  181600.42  57.27
774.5  317746.00  182006.04  57.28
775.8  318417.45  182444.65  57.30
777.1  318988.45  182816.58  57.31
778.4  319349.53  183056.57  57.32
779.6  320108.53  183528.38  57.33
780.9  320610.00  183818.86  57.33
782.2  321073.50  184121.67  57.35
783.5  321409.00  184337.35  57.35
784.8  321967.13  184671.69  57.36
786.0  322371.35  184929.54  57.37
787.3  322807.60  185184.51  57.37
788.6  323278.35  185451.25  57.37
789.9  323771.00  185737.57  57.37
791.2  324414.43  186125.48  57.37
792.4  325100.53  186527.96  57.38
793.7  325583.20  186816.06  57.38
795.0  326208.30  187195.28  57.39
796.2  326882.98  187581.68  57.38
797.5  327630.38  188002.47  57.38
798.8  328332.23  188402.76  57.38
800.0  329030.53  188792.10  57.38
801.3  329484.70  189078.74  57.39
802.6  330075.00  189423.93  57.39
803.8  330708.80  189791.48  57.39
805.1  331175.25  190085.08  57.40
806.4  331698.60  190362.11  57.39
807.7  332270.10  190674.04  57.39
808.9  332827.75  190999.67  57.39
810.2  333366.95  191303.73  57.39
811.4  333912.70  191600.86  57.38
812.7  334465.63  191945.77  57.39
814.0  335290.20  192417.40  57.39
815.2  335962.25  192772.08  57.38
816.5  336424.45  193013.96  57.37
817.7  336929.55  193283.70  57.37
819.0  337389.25  193561.06  57.37
820.2  337568.00  193678.78  57.37
821.5  338223.75  194058.25  57.38
822.7  338566.45  194266.83  57.38
824.0  338925.60  194444.64  57.37
825.2  339438.60  194706.56  57.36
826.5  339812.70  194875.65  57.35
827.7  340305.15  195177.26  57.35
829.0  340733.93  195398.39  57.35
830.2  341007.20  195560.15  57.35
831.5  341421.20  195809.48  57.35
832.7  341757.68  195970.07  57.34
834.0  342109.15  196145.14  57.33
835.2  342515.53  196340.45  57.32
836.4  342827.10  196521.08  57.32
837.7  343194.40  196758.39  57.33
838.9  343612.93  197004.85  57.33
840.1  343937.48  197219.74  57.34
841.4  344358.80  197452.75  57.34
842.6  344719.20  197670.49  57.34
843.8  345095.40  197878.25  57.34
845.1  345595.05  198164.56  57.34
846.3  345995.70  198378.08  57.34
847.5  346338.30  198609.40  57.35
848.8  346698.00  198838.26  57.35
850.0  347081.00  199044.42  57.35
851.2  347579.10  199339.35  57.35
852.5  347991.60  199561.48  57.35
853.7  348435.00  199835.27  57.35
854.9  348875.80  200094.14  57.35
856.1  349278.15  200355.21  57.36
857.4  349502.23  200448.07  57.35
858.6  349977.70  200726.06  57.35
859.8  350343.75  200935.11  57.35
861.0  350859.60  201194.54  57.34
862.2  351252.65  201449.56  57.35
863.5  351655.20  201639.45  57.34
864.7  352037.40  201919.27  57.36
865.9  352466.80  202132.41  57.35
867.1  352805.70  202320.75  57.35
868.3  353217.15  202562.63  57.35
869.5  353739.40  202829.90  57.34
870.8  354271.50  203111.14  57.33
872.0  354767.10  203386.84  57.33
873.2  355191.75  203621.69  57.33
874.4  355624.43  203845.76  57.32
875.6  355956.05  204064.45  57.33
876.8  356473.00  204344.06  57.32
878.0  356973.80  204600.90  57.32
879.2  357461.25  204868.10  57.31
880.4  357998.63  205148.85  57.30
881.6  358513.43  205401.26  57.29
882.8  358920.80  205607.94  57.29
884.0  359545.98  205951.21  57.28
885.2  360008.50  206223.63  57.28
886.5  360642.15  206570.33  57.28
887.7  361180.30  206817.43  57.26
888.8  361814.10  207175.12  57.26
890.0  362404.00  207466.61  57.25
891.2  362900.10  207769.49  57.25
892.4  363565.65  208097.51  57.24
893.6  364203.00  208415.14  57.22
894.8  365096.25  208896.41  57.22
896.0  365934.75  209353.22  57.21
897.2  366730.00  209784.53  57.20
898.4  367461.60  210192.40  57.20
899.6  368133.00  210494.28  57.18
900.8  368460.38  210725.50  57.19
902.0  368763.60  210866.69  57.18
903.2  369093.53  211042.88  57.18
904.3  369495.60  211215.84  57.16
905.5  370087.03  211520.88  57.15
906.7  370804.50  211842.89  57.13
907.9  371358.75  212115.07  57.12
909.1  371694.83  212330.31  57.12
910.2  371972.93  212458.96  57.12
911.4  372247.20  212605.32  57.11
912.6  372429.20  212652.30  57.10
913.8  372878.85  212789.62  57.07
915.0  373350.60  213005.24  57.05
916.2  373659.00  213118.66  57.04
917.3  373733.78  213148.59  57.03
918.5  373907.40  213259.92  57.04
919.7  374128.20  213371.59  57.03
920.8  374332.35  213369.57  57.00
922.0  374470.25  213438.87  57.00
923.2  374829.00  213566.60  56.98
924.4  375134.63  213653.64  56.95
925.5  375442.80  213766.43  56.94
926.7  376154.75  214045.22  56.90
927.9  376972.20  214456.95  56.89
929.0  378322.65  215169.74  56.87
930.2  380503.50  216298.39  56.85
931.4  383062.50  217570.74  56.80
932.5  385582.65  218934.43  56.78
933.7  387000.43  219619.65  56.75
934.9  387690.63  219894.08  56.72
936.0  387335.00  219643.02  56.71
937.2  385663.95  218444.42  56.64
938.3  384110.70  217530.60  56.63
939.5  382730.40  216646.90  56.61
940.7  382993.20  216623.47  56.56
941.8  384531.60  217366.61  56.53
943.0  386104.50  218019.21  56.47
944.2  386852.70  218338.07  56.44
945.3  386616.75  218041.01  56.40
946.5  385808.40  217556.05  56.39
947.6  386167.50  217488.81  56.32
948.8  386109.75  217315.39  56.28
949.9  386509.20  217098.64  56.17
951.1  386010.63  216727.42  56.15
952.2  385968.00  216403.20  56.07
953.4  385692.25  216021.61  56.01
954.5  385819.20  215826.89  55.94
955.7  385988.40  215591.28  55.85
956.8  385683.00  215297.65  55.82
958.0  385631.50  214876.10  55.72
959.1  385538.30  214580.63  55.66
960.3  385208.13  214244.71  55.62
961.4  385365.65  214150.85  55.57
962.6  385518.00  214176.67  55.56
963.7  385405.58  214054.24  55.54
964.9  385323.38  213911.55  55.51
966.0  385505.33  213803.05  55.46
967.2  385659.00  213810.56  55.44
968.3  385588.35  213741.10  55.43
969.5  385533.93  213669.85  55.42
970.6  385447.88  213755.49  55.46
971.8  385659.40  213857.89  55.45
972.9  385910.10  213906.83  55.43
974.0  386191.50  213976.63  55.41
975.2  386153.50  213862.63  55.38
976.3  386131.43  213906.26  55.40
977.5  386116.68  213939.00  55.41
978.6  386096.50  214049.69  55.44
979.7  386924.48  214158.48  55.35
980.9  386442.73  214167.90  55.42
982.0  386359.75  214368.52  55.48
983.2  386259.30  214199.23  55.45
984.3  386641.80  214308.99  55.43
985.4  386488.10  214414.38  55.48
986.6  386284.63  214581.12  55.55
987.7  387421.65  215023.05  55.50
988.9  387442.80  214961.49  55.48
990.0  387864.10  215426.92  55.54
993.1  331055.84  181792.74  54.91
996.9  331997.43  182749.50  55.05
1000.7  333263.29  183797.03  55.15
1004.5  333925.75  184512.54  55.26
1008.4  333780.33  184815.79  55.37
1012.2  333916.83  185232.89  55.47
1016.0  334106.40  185675.85  55.57
1019.8  334476.45  186166.11  55.66
1023.7  334759.33  186535.09  55.72
1027.5  334719.73  186750.54  55.79
1031.3  335183.63  187157.34  55.84
1035.1  335304.32  187335.87  55.87
1038.9  335386.33  187457.65  55.89
1042.7  335318.00  187488.22  55.91
1046.5  335208.83  187490.31  55.93
1050.3  335280.18  187555.11  55.94
1054.2  335013.00  187470.32  55.96
1058.0  334581.86  187230.03  55.96
1061.8  334467.07  187162.76  55.96
1065.6  334331.07  187044.74  55.95
1069.4  334494.53  187075.85  55.93
1073.2  334308.73  186899.28  55.91
1077.0  333968.08  186636.35  55.88
1080.8  333439.58  186237.25  55.85
1084.6  332322.90  185474.69  55.81
1088.4  331588.26  184943.54  55.78
1092.2  330788.25  184343.25  55.73
1096.0  330289.53  183880.33  55.67
1099.8  329927.87  183468.52  55.61
1103.6  329335.92  182929.71  55.55
1107.4  328575.39  182269.15  55.47
1111.2  328411.20  181942.83  55.40
1114.9  327848.50  181386.49  55.33
1118.7  327298.95  180754.12  55.23
1122.5  326644.93  180009.65  55.11
1126.3  325604.88  178940.04  54.96
1130.1  325171.73  177981.21  54.73
1133.9  323724.10  176235.93  54.44
1137.7  322457.90  174339.82  54.07
1141.4  320897.31  172053.61  53.62
1145.2  320295.62  170187.05  53.13
1149.0  319316.67  168222.48  52.68
1152.8  317873.40  166227.66  52.29
1156.6  316398.13  164551.89  52.01
1160.3  314849.00  163124.49  51.81
1164.1  312610.00  161592.10  51.69
1167.9  310955.21  160517.79  51.62
1171.7  309794.63  159775.13  51.57
1175.4  308827.90  159164.78  51.54
1179.2  307991.90  158596.92  51.49
1183.0  307761.33  158341.27  51.45
1186.7  307191.50  157929.21  51.41
1190.5  306119.53  157283.04  51.38
1194.3  304984.37  156650.07  51.36
1198.0  303983.35  156118.65  51.36
1201.8  302668.43  155487.93  51.37
1205.6  301544.67  154991.92  51.40
1209.3  300637.58  154674.77  51.45
1213.1  299700.23  154355.93  51.50
1216.8  298732.41  154066.84  51.57
1220.6  297712.80  153759.79  51.65
1224.3  296570.58  153381.52  51.72
1228.1  295520.20  153068.77  51.80
1231.9  294468.95  152691.63  51.85
1235.6  293237.03  152181.60  51.90
1239.4  292077.25  151736.99  51.95
1243.1  290956.17  151274.96  51.99
1246.9  289884.21  150796.21  52.02
1250.6  289013.60  150384.95  52.03
1254.3  288073.41  149920.02  52.04
1258.1  287222.13  149470.15  52.04
1261.8  286104.00  148877.55  52.04
1265.6  284813.75  148142.97  52.01
1269.3  283392.20  147319.50  51.98
1273.1  283255.13  147122.42  51.94
1276.8  283588.80  147117.37  51.88
1280.6  283650.70  146945.39  51.81
1284.3  282539.20  146135.45  51.72
1288.0  281224.46  145183.49  51.63
1291.8  279925.13  144160.26  51.50
1295.5  278558.13  143065.53  51.36
1299.2  277377.70  142005.61  51.20
1302.9  276080.20  140815.66  51.01
1306.7  274722.58  139510.84  50.78
1310.4  273405.47  138117.86  50.52
1314.1  272210.95  136706.53  50.22
1317.9  271164.58  135253.02  49.88
1321.6  269925.53  133618.67  49.50
1325.3  268477.65  131766.33  49.08
1329.0  267259.65  129977.47  48.63
1332.8  265357.40  127759.13  48.15
1336.5  263701.13  125644.91  47.65
1340.2  263354.00  124154.58  47.14
1343.9  262997.71  122648.69  46.63
1347.6  262495.50  121093.91  46.13
1351.4  262787.00  119947.12  45.64
1355.1  263240.27  118896.68  45.17
1358.8  263424.00  117671.87  44.67
1362.5  263005.50  116054.34  44.13
1366.2  261323.15  113651.40  43.49
1369.9  259588.00  110933.49  42.73
1373.6  257849.73  107778.96  41.80
1377.3  256260.30  104107.65  40.63
1381.0  255190.83  99879.98  39.14
1384.8  253272.50  94463.31  37.30
1388.4  251114.15  88470.79  35.23
1392.2  249452.50  82283.86  32.99
1395.9  247986.88  76061.52  30.67
1399.6  246442.23  70123.85  28.45
1403.3  245341.49  64888.56  26.45
1407.0  244292.00  60406.38  24.73
1410.7  243166.28  56737.53  23.33
1414.3  242045.48  53859.48  22.25
1418.1  241027.25  51723.46  21.46
1421.7  240204.48  50188.92  20.89
1425.4  239389.80  49113.25  20.52
1429.1  238620.00  48412.21  20.29
1432.8  237303.74  47876.87  20.18
1436.5  236544.29  47663.14  20.15
1440.2  235726.03  47592.24  20.19
1443.9  234512.85  47545.16  20.27
1447.6  233079.00  47520.25  20.39
1451.2  232099.82  47616.09  20.52
1454.9  230976.90  47733.08  20.67
1458.6  230027.18  47978.56  20.86
1462.3  229002.77  48340.52  21.11
1466.0  227799.33  48836.39  21.44
1469.7  226305.73  49439.71  21.85
1473.3  225377.67  50309.02  22.32
1477.0  223685.47  51100.17  22.84
1480.7  222289.59  52018.43  23.40
1484.4  220579.56  52873.21  23.97
1488.0  219222.67  53820.85  24.55
1491.7  217751.44  54731.49  25.13
1495.4  216205.81  55611.45  25.72
1499.0  214774.00  56486.48  26.30
1502.7  213597.33  57415.86  26.88
1506.4  212331.03  58279.11  27.45
1510.0  211089.43  59116.55  28.01
1513.7  209787.38  59893.20  28.55
1517.4  208607.33  60665.04  29.08
1521.0  207551.47  61437.02  29.60
1524.7  206461.67  62131.64  30.09
1528.3  205306.88  62771.72  30.57
1532.0  204197.58  63382.04  31.04
1535.7  202962.48  63892.39  31.48
1539.3  201841.20  64409.41  31.91
1543.0  200963.55  64966.42  32.33
1546.6  200335.42  65566.19  32.73
1550.3  199453.80  66043.03  33.11
1553.9  198501.50  66456.30  33.48
1557.6  197393.53  66765.66  33.82
1561.2  196248.60  67024.88  34.15
1564.9  195083.76  67243.49  34.47
1568.5  193908.52  67424.30  34.77
1572.2  192906.50  67625.33  35.06
1575.8  191926.00  67826.00  35.34
1579.5  191046.90  68031.86  35.61
1583.1  190154.73  68216.18  35.87
1586.8  189070.00  68304.67  36.13
1590.4  188172.97  68430.99  36.37
1594.0  187003.59  68443.26  36.60
1597.7  185954.78  68491.98  36.83
1601.3  184714.43  68451.53  37.06
1604.9  183515.78  68386.19  37.26
1608.6  182328.68  68296.38  37.46
1612.2  181455.45  68288.17  37.63
1615.8  180473.15  68216.41  37.80
1619.5  179469.33  68120.98  37.96
1623.1  178298.47  67942.29  38.11
1626.7  177175.05  67759.67  38.24
1630.3  176101.50  67575.58  38.37
1634.0  175000.00  67368.22  38.50
1637.6  173976.53  67162.75  38.60
1641.2  172927.40  66904.09  38.69
1644.8  171712.53  66558.19  38.76
1648.5  170692.36  66258.79  38.82
1652.1  169778.10  65951.30  38.85
1655.7  168937.40  65618.65  38.84
1659.3  168172.68  65284.30  38.82
1662.9  166883.33  64734.92  38.79
1666.6  165620.93  64162.76  38.74
1670.2  164398.15  63575.35  38.67
1673.8  163142.83  62948.29  38.58
1677.4  162165.10  62397.17  38.48
1681.0  161468.40  61916.82  38.35
1684.6  161099.25  61530.98  38.19
1688.2  160489.30  60998.18  38.01
1691.8  159885.68  60503.66  37.84
1695.4  159508.60  60075.69  37.66
1699.0  159242.53  59681.50  37.48
1702.6  158985.33  59277.44  37.28
1706.2  158477.26  58771.59  37.09
1709.8  157703.00  58160.49  36.88
1713.4  157083.41  57610.63  36.68
1717.0  156335.25  57028.18  36.48
1720.6  155639.85  56464.19  36.28
1724.2  154996.13  55924.21  36.08
1727.8  154337.75  55389.97  35.89
1731.4  153896.88  54963.05  35.71
1735.0  153688.33  54648.85  35.56
1738.6  153480.30  54317.30  35.39
1742.2  152927.68  53848.13  35.21
1745.8  152346.18  53327.21  35.00
1749.4  151498.88  52687.66  34.78
1753.0  150145.20  51858.15  34.54
1756.6  148631.88  50988.94  34.31
1760.1  147437.73  50235.43  34.07
1763.7  145912.00  49395.00  33.85
1767.3  144632.93  48684.05  33.66
1770.9  143529.17  48047.86  33.48
1774.5  142245.80  47374.60  33.30
1778.0  141221.73  46818.30  33.15
1781.6  140243.55  46303.93  33.02
1785.2  139206.63  45810.99  32.91
1788.8  138165.00  45360.88  32.83
1792.3  137084.77  44919.23  32.77
1795.9  136682.98  44725.92  32.72
1799.5  136237.33  44541.82  32.69
1803.1  135460.50  44251.81  32.67
1806.6  135584.63  44268.72  32.65
1810.2  136497.67  44522.77  32.62
1813.8  137464.75  44792.64  32.58
1817.3  137685.00  44813.00  32.55
1820.9  137174.10  44581.05  32.50
1824.5  136215.35  44191.43  32.44
1828.0  135548.42  43867.78  32.36
1831.6  134944.90  43538.81  32.26
1835.2  134370.83  43158.19  32.12
1838.7  134026.40  42768.60  31.91
1842.3  133710.00  42304.76  31.64
1845.8  132976.33  41594.79  31.28
1849.4  132558.85  40838.53  30.81
1852.9  131952.16  39855.07  30.20
1856.5  131125.20  38596.35  29.43
1860.0  130429.18  37124.34  28.46
1863.6  130254.33  35550.83  27.29
1867.1  130202.80  33728.33  25.90
1870.7  130174.95  31523.30  24.22
1874.2  129445.20  28764.43  22.22
1877.8  128251.00  25780.93  20.10
1881.3  126910.75  22723.98  17.91
1884.9  126107.67  19893.06  15.77
1888.4  125211.27  17221.11  13.75
1891.9  124369.67  14921.47  12.00
1895.5  123465.38  13056.60  10.58
1899.0  123081.50  11709.81  9.51
1901.3  148741.00  10481.00  7.05
1904.1  148680.56  9691.12  6.52
1906.8  148028.85  9066.30  6.12
1909.6  146546.66  8542.19  5.83
1912.4  145131.35  8177.98  5.63
1915.1  144108.53  7900.89  5.48
1917.9  142959.13  7702.83  5.39
1920.6  141983.60  7577.93  5.34
1923.3  141036.18  7492.28  5.31
1926.1  139831.48  7417.52  5.30
1928.8  138710.00  7384.67  5.32
1931.6  137821.25  7391.92  5.36
1934.3  137016.36  7419.97  5.42
1937.0  136212.05  7480.69  5.49
1939.8  135307.81  7561.02  5.59
1942.5  134178.00  7634.00  5.69
1945.2  132743.74  7709.49  5.81
1947.9  131559.58  7803.43  5.93
1950.7  130619.40  7930.53  6.07
1953.4  129118.39  8041.10  6.23
1956.1  127944.25  8183.08  6.40
1958.8  126899.99  8338.42  6.57
1961.5  125628.30  8489.30  6.76
1964.2  124317.38  8642.73  6.95
1966.9  122962.35  8801.13  7.16
1969.6  121891.50  8988.75  7.37
1972.3  120670.65  9175.90  7.60
1975.0  119747.14  9394.28  7.85
1977.7  118773.73  9601.35  8.08
1980.4  117771.40  9814.28  8.33
1983.1  116831.66  10041.60  8.59
1985.8  116021.03  10281.23  8.86
1988.4  115108.50  10510.50  9.13
1991.1  114277.28  10752.82  9.41
1993.8  113500.89  10992.72  9.69
1996.5  112951.58  11255.52  9.96
1999.1  112363.49  11514.02  10.25
2001.8  111745.55  11762.92  10.53
2004.5  111130.88  12008.36  10.81
2007.1  110501.59  12244.08  11.08
2009.8  109841.90  12477.33  11.36
2012.4  109339.04  12711.74  11.63
2015.1  108851.23  12939.21  11.89
2017.8  108151.93  13135.62  12.15
2020.4  107716.95  13357.99  12.40
2023.1  107400.83  13573.76  12.64
2025.7  107172.00  13793.00  12.87
2028.3  106873.00  13998.83  13.10
2031.0  106544.50  14184.23  13.31
2033.6  106292.25  14365.88  13.52
2036.2  106050.83  14542.05  13.71
2038.9  105528.83  14661.68  13.89
2041.5  105240.68  14805.26  14.07
2044.1  104752.35  14918.33  14.24
2046.8  104432.63  15042.30  14.40
2049.4  103878.00  15127.13  14.56
2052.0  103607.90  15252.77  14.72
2054.6  103254.38  15367.19  14.88
2057.2  102762.95  15458.00  15.04
2059.8  102494.40  15604.28  15.22
2062.4  101730.04  15683.46  15.42
2065.0  101276.10  15796.42  15.60
2067.6  100487.91  15849.08  15.77
2070.2  99964.91  15944.96  15.95
2072.8  99409.23  16038.67  16.13
2075.4  99021.56  16150.31  16.31
2078.0  98450.19  16218.43  16.47
2080.6  97957.20  16308.60  16.65
2083.2  97356.03  16371.75  16.82
2085.8  96921.89  16457.77  16.98
2088.4  96327.50  16516.13  17.15
2090.9  95610.14  16540.07  17.30
2093.5  94844.38  16553.66  17.45
2096.1  94168.31  16585.13  17.61
2098.7  93483.21  16602.70  17.76
2101.2  92636.65  16595.52  17.91
2103.8  92040.60  16626.08  18.06
2106.4  91457.65  16656.65  18.21
2108.9  90887.80  16682.85  18.36
2111.5  90128.00  16676.30  18.50
2114.0  89564.70  16691.58  18.64
2116.6  89118.75  16725.63  18.77
2119.1  88644.15  16759.68  18.91
2121.7  88213.13  16791.25  19.03
2124.2  87855.15  16829.81  19.16
2126.8  87159.21  16793.74  19.27
2129.3  86803.20  16812.40  19.37
2131.9  86281.80  16794.80  19.47
2134.4  85902.53  16799.51  19.56
2136.9  85566.49  16802.83  19.64
2139.4  85106.70  16771.30  19.71
2142.0  84707.70  16751.35  19.78
2144.5  84458.78  16763.15  19.85
2147.0  84259.20  16772.33  19.91
2149.5  83830.40  16734.37  19.96
2152.1  83686.49  16742.69  20.01
2154.6  83612.80  16762.00  20.05
2157.1  83132.94  16697.44  20.09
2159.6  82778.69  16654.29  20.12
2162.1  82623.45  16650.73  20.15
2164.6  82398.65  16634.08  20.19
2167.1  82119.66  16612.65  20.23
2169.6  81823.26  16580.79  20.26
2172.1  81417.23  16525.36  20.30
2174.6  81134.30  16503.93  20.34
2177.1  80751.08  16463.99  20.39
2179.5  80370.23  16429.94  20.44
2182.0  79935.49  16392.89  20.51
2184.5  79467.45  16334.04  20.55
2187.0  78935.78  16263.07  20.60
2189.5  78329.96  16180.94  20.66
2191.9  77648.25  16090.63  20.72
2194.4  77111.48  16020.13  20.78
2196.9  76449.60  15919.20  20.82
2199.3  75871.25  15834.00  20.87
2201.8  75087.80  15707.17  20.92
2204.3  74677.84  15642.86  20.95
2206.7  74118.79  15550.69  20.98
2209.2  73717.31  15492.12  21.02
2211.6  73165.95  15392.03  21.04
2214.1  72893.70  15347.87  21.06
2216.5  72399.10  15250.15  21.06
2219.0  72108.55  15188.07  21.06
2221.4  71771.88  15105.56  21.05
2223.9  71333.06  14998.96  21.03
2226.3  70894.25  14879.96  20.99
2228.7  70418.75  14740.99  20.93
2231.1  69891.53  14577.75  20.86
2233.6  69366.95  14405.82  20.77
2236.0  68893.56  14237.86  20.67
2238.4  68454.75  14059.35  20.54
2240.9  68040.85  13884.32  20.41
2243.3  67586.40  13683.17  20.25
2245.7  67080.41  13472.30  20.08
2248.1  66654.58  13278.09  19.92
2250.5  66204.48  13068.19  19.74
2252.9  65652.93  12827.10  19.54
2255.3  65162.55  12599.19  19.34
2257.7  64762.50  12392.50  19.14
2260.1  64338.75  12177.96  18.93
2262.5  63795.00  11955.00  18.74
2264.9  63329.28  11745.39  18.55
2267.3  62797.50  11527.50  18.36
2269.7  62367.20  11342.68  18.19
2272.1  61880.46  11151.06  18.02
2274.5  61375.04  10954.21  17.85
2276.8  60963.94  10780.44  17.68
2279.2  60450.75  10595.22  17.53
2281.6  60082.90  10439.13  17.37
2284.0  59668.28  10284.33  17.24
2286.3  59257.20  10130.80  17.10
2288.7  58900.40  9989.85  16.96
2291.1  58414.43  9829.12  16.83
2293.4  58027.20  9684.03  16.69
2295.8  57474.00  9506.90  16.54
2298.2  56945.70  9335.70  16.39
2300.5  56379.04  9164.93  16.26
2302.9  55738.00  8984.83  16.12
2305.2  55086.98  8801.35  15.98
2307.6  54510.69  8653.11  15.87
2309.9  53831.50  8496.58  15.78
2312.2  53281.25  8370.00  15.71
2314.6  52738.43  8251.54  15.65
2316.9  52117.43  8116.99  15.57
2319.2  51602.68  7997.89  15.50
2321.6  51062.64  7875.76  15.42
2323.9  50570.31  7757.82  15.34
2326.2  50095.65  7631.99  15.23
2328.6  49627.05  7513.55  15.14
2330.9  49171.50  7386.75  15.02
2333.2  48744.19  7268.11  14.91
2335.5  48350.63  7147.60  14.78
2337.8  47934.61  7036.12  14.68
2340.1  47441.28  6895.94  14.54
2342.4  47051.88  6776.25  14.40
2344.8  46693.31  6661.90  14.27
2347.1  46191.60  6544.36  14.17
2349.4  45708.15  6419.96  14.05
2351.6  45195.88  6309.80  13.96
2353.9  44767.75  6209.01  13.87
2356.2  44297.14  6105.83  13.78
2358.5  43780.80  5992.00  13.69
2360.8  43260.00  5874.40  13.58
2363.1  42861.69  5770.98  13.46
2365.4  42451.28  5672.60  13.36
2367.7  42040.35  5568.90  13.25
2369.9  41563.50  5458.79  13.13
2372.2  41013.40  5343.47  13.03
2374.5  40488.53  5232.15  12.92
2376.7  39938.10  5117.14  12.81
2379.0  39384.65  4999.43  12.69
2381.3  38850.00  4882.50  12.57
2383.5  38394.40  4775.47  12.44
2385.8  37841.60  4653.72  12.30
2388.0  37364.70  4557.75  12.20
2390.3  36917.20  4452.97  12.06
2392.5  36486.00  4350.00  11.92
2394.8  36064.05  4256.18  11.80
2397.0  35644.70  4155.67  11.66
2399.3  35243.34  4069.23  11.55
2401.5  34829.81  3972.06  11.40
2403.8  34345.03  3867.43  11.26
2406.0  33897.50  3777.77  11.14
2408.2  33547.80  3696.37  11.02
2410.4  33171.34  3610.81  10.89
2412.7  32789.58  3515.53  10.72
2414.9  32456.74  3437.64  10.59
2417.1  32108.78  3359.15  10.46
2419.3  31747.20  3286.40  10.35
2421.6  31397.19  3196.88  10.18
2423.8  31071.38  3118.49  10.04
2426.0  30731.55  3047.84  9.92
2428.2  30409.40  2975.93  9.79
2430.4  30122.38  2901.41  9.63
2432.6  29870.00  2840.00  9.51
2434.8  29603.83  2783.61  9.40
2437.0  29277.95  2713.53  9.27
2439.2  28962.84  2639.13  9.11
2441.4  28681.13  2580.11  9.00
2443.6  28455.43  2518.09  8.85
2445.7  28207.46  2460.82  8.72
2447.9  27972.50  2407.58  8.61
2450.1  27703.09  2356.89  8.51
2452.3  27368.69  2286.90  8.36
2454.5  27061.80  2226.79  8.23
2456.6  26717.90  2168.53  8.12
2458.8  26394.23  2109.25  7.99
2461.0  26112.19  2054.38  7.87
2463.1  25851.71  2015.18  7.80
2465.3  25593.70  1982.82  7.75
2467.5  25377.38  1943.31  7.66
2469.6  25160.69  1901.88  7.56
2471.8  24878.86  1854.56  7.45
2473.9  24582.06  1810.00  7.36
2476.1  24285.63  1766.92  7.28
2478.2  23969.65  1736.60  7.25
2480.4  23681.21  1703.85  7.19
2482.5  23387.58  1648.97  7.05
2484.6  23071.13  1605.09  6.96
2486.8  22831.73  1577.85  6.91
2488.9  22550.44  1558.60  6.91
2491.1  22229.20  1511.30  6.80
2493.2  21878.33  1472.93  6.73
2495.3  21524.75  1447.01  6.72
2497.4  21227.85  1420.83  6.69
2499.5  20961.46  1387.72  6.62
2501.7  20841.58  1372.19  6.58
2503.8  20737.03  1362.41  6.57
2505.9  20653.75  1349.59  6.53
2508.0  20625.88  1340.03  6.50
2510.1  20615.01  1332.31  6.46
2512.2  20726.33  1325.79  6.40
2514.3  20843.70  1328.84  6.38
2516.4  21024.83  1349.45  6.42
