/*** Spectra Vista SIG Data ***/
name= 46_20220926_QUPH_16_avg.sig
comm= Averaged Ref/Tar of files: HR.092722.0053_moc.sig,HR.092722.0054_moc.sig
data=
337.3  3225.63  198.50  6.15
338.8  3367.00  211.64  6.29
340.3  3513.75  215.51  6.13
341.8  3658.00  210.34  5.75
343.2  3862.80  186.48  4.83
344.7  4009.10  187.66  4.68
346.2  4207.55  187.91  4.47
347.7  4443.73  188.76  4.25
349.2  4611.60  196.56  4.26
350.6  4847.70  198.32  4.09
352.1  5108.68  200.06  3.92
353.6  5413.20  208.20  3.85
355.1  5724.75  208.79  3.65
356.6  5997.83  203.21  3.39
358.0  6284.30  204.16  3.25
359.5  6550.80  210.12  3.21
361.0  6882.75  215.46  3.13
362.5  7230.93  216.64  3.00
364.0  7570.20  229.40  3.03
365.4  7952.30  230.42  2.90
366.9  8315.13  243.10  2.92
368.4  8673.45  267.30  3.08
369.9  9053.38  275.66  3.04
371.3  9478.50  288.36  3.04
372.8  9903.15  302.67  3.06
374.3  10320.00  306.38  2.97
375.8  10726.10  307.23  2.86
377.2  11163.50  312.04  2.80
378.7  11593.90  322.80  2.78
380.2  11997.40  322.80  2.69
381.7  12539.60  318.90  2.54
383.1  12989.90  334.18  2.57
384.6  13514.48  339.89  2.51
386.1  13971.93  351.33  2.51
387.6  14445.20  355.74  2.46
389.0  14927.60  369.84  2.48
390.5  15399.00  382.32  2.48
392.0  16002.25  391.46  2.45
393.4  16553.25  399.38  2.41
394.9  17121.60  412.38  2.41
396.4  17646.75  419.18  2.38
397.9  18193.75  425.38  2.34
399.3  18765.83  450.79  2.40
400.8  19316.88  458.62  2.37
402.2  19959.15  466.45  2.34
403.7  20560.05  481.50  2.34
405.2  21165.45  492.44  2.33
406.6  21761.60  510.40  2.35
408.1  22328.80  533.36  2.39
409.6  22959.70  548.75  2.39
411.0  23634.45  555.10  2.35
412.5  24323.60  570.61  2.35
414.0  24959.38  586.80  2.35
415.4  25638.75  616.13  2.40
416.9  26310.38  636.08  2.42
418.4  27022.73  653.63  2.42
419.8  27755.00  666.12  2.40
421.3  28502.18  688.05  2.41
422.7  29266.80  706.44  2.41
424.2  30020.63  729.00  2.43
425.7  30790.70  753.06  2.45
427.1  31570.88  781.76  2.48
428.6  32364.00  802.90  2.48
430.0  33127.03  822.49  2.48
431.5  34014.08  841.77  2.47
432.9  34881.65  864.35  2.48
434.4  35783.85  893.88  2.50
435.9  36624.00  921.20  2.52
437.3  37496.25  940.50  2.51
438.8  38362.95  958.40  2.50
440.2  39239.20  980.98  2.50
441.7  40213.40  1015.72  2.53
443.1  41128.00  1049.40  2.55
444.6  42103.40  1079.44  2.56
446.0  43051.05  1108.07  2.57
447.5  44035.48  1139.99  2.59
448.9  44982.30  1171.32  2.60
450.4  45998.40  1206.94  2.62
451.8  46891.00  1240.20  2.64
453.3  47815.28  1273.51  2.66
454.7  48839.73  1309.60  2.68
456.2  49712.78  1338.37  2.69
457.6  50697.23  1369.98  2.70
459.1  51687.68  1399.13  2.71
460.5  52644.00  1428.45  2.71
462.0  53721.30  1463.41  2.72
463.4  54772.60  1496.04  2.73
464.8  55763.63  1526.25  2.74
466.3  56731.13  1553.97  2.74
467.7  57721.58  1587.66  2.75
469.2  58791.28  1615.81  2.75
470.6  59810.85  1646.66  2.75
472.0  60874.38  1683.37  2.77
473.5  61895.75  1714.78  2.77
474.9  62942.25  1747.05  2.78
476.4  64108.80  1788.48  2.79
477.8  65163.00  1821.20  2.79
479.2  66178.00  1858.90  2.81
480.7  67279.80  1899.12  2.82
482.1  68435.20  1939.19  2.83
483.6  69634.55  1985.43  2.85
485.0  70710.38  2029.40  2.87
486.4  71920.65  2077.74  2.89
487.9  72993.38  2129.40  2.92
489.3  74169.83  2185.19  2.95
490.7  75215.30  2247.04  2.99
492.2  76440.00  2316.72  3.03
493.6  77542.45  2387.95  3.08
495.0  78653.25  2468.70  3.14
496.5  79846.68  2559.32  3.21
497.9  80976.65  2656.18  3.28
499.3  82150.65  2767.71  3.37
500.7  83431.75  2900.70  3.48
502.2  84577.80  3051.40  3.61
503.6  85848.00  3223.68  3.76
505.0  86947.75  3413.45  3.93
506.5  88265.85  3637.61  4.12
507.9  89439.23  3890.08  4.35
509.3  90783.20  4182.48  4.61
510.7  92005.88  4507.43  4.90
512.2  93392.70  4878.08  5.22
513.6  94896.55  5303.76  5.59
515.0  96345.93  5772.51  5.99
516.4  97736.63  6285.20  6.43
517.8  99383.50  6847.80  6.89
519.3  100748.85  7434.42  7.38
520.7  102312.10  8064.70  7.88
522.1  103610.65  8698.04  8.39
523.5  104958.90  9349.14  8.91
524.9  106466.40  10013.31  9.41
526.3  107940.70  10664.92  9.88
527.8  109444.50  11303.82  10.33
529.2  110453.70  11884.24  10.76
530.6  111973.05  12499.25  11.16
532.0  113652.00  13101.20  11.53
533.4  115007.40  13623.87  11.85
534.8  115943.58  14063.47  12.13
536.3  117531.90  14543.46  12.37
537.7  119473.20  15044.40  12.59
539.1  120920.58  15460.48  12.79
540.5  122126.75  15838.52  12.97
541.9  123896.55  16277.76  13.14
543.3  125206.78  16651.80  13.30
544.7  126540.00  17033.88  13.46
546.1  128343.33  17476.25  13.62
547.5  129584.00  17825.92  13.76
549.0  131219.00  18218.20  13.88
550.4  132748.75  18568.25  13.99
551.8  134351.63  18902.90  14.07
553.2  135860.75  19175.54  14.11
554.6  137196.80  19373.12  14.12
556.0  138710.70  19536.66  14.08
557.4  140337.40  19654.67  14.01
558.8  142002.00  19735.38  13.90
560.2  143486.25  19739.48  13.76
561.6  145168.13  19726.19  13.59
563.0  146765.23  19649.01  13.39
564.4  148375.20  19532.27  13.16
565.8  149897.50  19356.63  12.91
567.2  151661.00  19167.25  12.64
568.6  153152.63  18900.75  12.34
570.0  154593.85  18580.68  12.02
571.4  156324.35  18274.49  11.69
572.8  158097.38  17969.10  11.37
574.2  159723.20  17653.44  11.05
575.6  161302.50  17349.75  10.76
577.0  162833.00  17074.30  10.49
578.4  164550.75  16844.10  10.24
579.8  166100.63  16627.28  10.01
581.2  167814.35  16455.02  9.81
582.5  169252.20  16274.70  9.62
583.9  170781.40  16130.60  9.45
585.3  172578.60  16027.20  9.29
586.7  174085.93  15928.32  9.15
588.1  175557.88  15847.38  9.03
589.5  177233.00  15802.50  8.92
590.9  178870.00  15785.20  8.82
592.3  180682.35  15797.94  8.74
593.7  182152.43  15813.33  8.68
595.0  183756.60  15856.83  8.63
596.4  185223.85  15889.65  8.58
597.8  186711.00  15922.74  8.53
599.2  188271.60  15942.96  8.47
600.6  190054.48  15960.69  8.40
602.0  191346.53  15914.00  8.32
603.3  193141.70  15867.05  8.22
604.7  194814.05  15778.22  8.10
606.1  196305.00  15638.16  7.97
607.5  197957.80  15467.89  7.81
608.9  199664.55  15275.16  7.65
610.2  201044.03  15039.68  7.48
611.6  202655.78  14806.32  7.31
613.0  204207.40  14568.49  7.13
614.4  205606.05  14331.75  6.97
615.8  207075.38  14116.05  6.82
617.1  208622.40  13923.84  6.67
618.5  210248.80  13764.00  6.55
619.9  211770.83  13626.53  6.43
621.3  213386.63  13540.37  6.35
622.6  214979.25  13484.05  6.27
624.0  216454.50  13453.86  6.22
625.4  217929.53  13449.15  6.17
626.8  219510.20  13475.74  6.14
628.1  220789.80  13508.94  6.12
629.5  222558.70  13580.25  6.10
630.9  224030.13  13651.50  6.09
632.2  225275.23  13695.43  6.08
633.6  226786.38  13730.83  6.05
635.0  228226.80  13715.28  6.01
636.3  229726.70  13642.78  5.94
637.7  231104.88  13507.33  5.84
639.1  232732.50  13324.50  5.73
640.4  234211.43  13075.97  5.58
641.8  235414.78  12773.40  5.43
643.2  236992.70  12469.70  5.26
644.5  238363.25  12139.90  5.09
645.9  239923.80  11815.38  4.92
647.2  240974.48  11486.97  4.77
648.6  242493.75  11222.55  4.63
650.0  243864.00  10994.40  4.51
651.3  244843.78  10787.10  4.41
652.7  246957.70  10626.05  4.30
654.0  249014.60  10456.14  4.20
655.4  250433.90  10262.42  4.10
656.8  250653.40  10019.78  4.00
658.1  252106.20  9788.24  3.88
659.5  254375.10  9558.26  3.76
660.8  255735.00  9292.50  3.63
662.2  256748.80  9031.68  3.52
663.5  258291.15  8811.27  3.41
664.9  259321.40  8610.16  3.32
666.2  260095.20  8440.44  3.25
667.6  261827.60  8362.95  3.19
668.9  262776.65  8307.22  3.16
670.3  264629.13  8301.13  3.14
671.6  265654.88  8310.15  3.13
673.0  266849.63  8372.10  3.14
674.3  268095.10  8464.30  3.16
675.7  269425.38  8591.59  3.19
677.0  270489.03  8739.52  3.23
678.4  271788.50  8928.94  3.29
679.7  272823.68  9140.38  3.35
681.1  274083.20  9403.95  3.43
682.4  275167.10  9724.00  3.53
683.8  276338.40  10126.22  3.66
685.1  277314.75  10628.85  3.83
686.4  278632.20  11308.68  4.06
687.8  279816.00  12193.00  4.36
689.1  280884.00  13376.70  4.76
690.5  282213.45  14961.09  5.30
691.8  283005.20  17004.59  6.01
693.1  284325.45  19633.02  6.91
694.5  285489.75  22768.20  7.98
695.8  286718.25  26403.65  9.21
697.1  287878.50  30498.65  10.59
698.5  288925.60  34976.16  12.11
699.8  289967.90  39771.95  13.72
701.1  291124.33  44814.87  15.39
702.5  291887.20  49916.68  17.10
703.8  292815.00  55107.00  18.82
705.1  293969.33  60296.34  20.51
706.5  294969.63  65420.03  22.18
707.8  295914.00  70433.79  23.80
709.1  296721.58  75284.37  25.37
710.5  297837.83  80084.24  26.89
711.8  298663.90  84686.48  28.36
713.1  299645.10  89217.84  29.77
714.4  300559.40  93593.10  31.14
715.8  301317.60  97816.72  32.46
717.1  302619.00  102072.45  33.73
718.4  303564.80  106077.44  34.94
719.7  304648.63  109992.65  36.10
721.0  305145.00  113553.00  37.21
722.4  305890.75  117052.54  38.27
723.7  306839.55  120470.82  39.26
725.0  307855.58  123787.62  40.21
726.3  308776.60  126907.00  41.10
727.6  309301.58  129705.35  41.93
729.0  310175.25  132492.75  42.72
730.3  310929.60  135087.68  43.45
731.6  311830.50  137566.56  44.12
732.9  312559.98  139850.17  44.74
734.2  313341.88  142012.48  45.32
735.5  314388.10  144142.38  45.85
736.8  315162.60  146058.36  46.34
738.1  316005.80  147864.52  46.79
739.5  316934.25  149594.90  47.20
740.8  317587.60  151103.76  47.58
742.1  318234.88  152504.99  47.92
743.4  318850.00  153800.00  48.24
744.7  319722.50  155118.28  48.52
746.0  320576.10  156348.66  48.77
747.3  321155.55  157366.73  49.00
748.6  321875.00  158383.10  49.21
749.9  322478.00  159265.60  49.39
751.2  323057.10  160069.38  49.55
752.5  323763.15  160900.95  49.70
753.8  324268.70  161565.92  49.82
755.1  324896.00  162255.60  49.94
756.4  325440.78  162863.25  50.04
757.7  326406.85  163636.27  50.13
759.0  328153.43  164761.19  50.21
760.3  329287.20  165559.68  50.28
761.6  330797.60  166531.96  50.34
762.9  331298.75  166936.05  50.39
764.2  331650.10  167248.06  50.43
765.5  331867.00  167479.33  50.47
766.8  332193.60  167769.60  50.50
768.1  332636.00  168088.04  50.53
769.3  333182.50  168438.27  50.55
770.6  333778.90  168812.41  50.58
771.9  334409.08  169207.78  50.60
773.2  334750.80  169411.68  50.61
774.5  335277.80  169741.00  50.63
775.8  335871.70  170093.83  50.64
777.1  336361.85  170381.75  50.65
778.4  336622.00  170559.07  50.67
779.6  337319.30  170948.48  50.68
780.9  337710.00  171180.00  50.69
782.2  338074.00  171420.70  50.71
783.5  338306.00  171580.80  50.72
784.8  338735.93  171830.88  50.73
786.0  339036.60  172028.99  50.74
787.3  339363.45  172224.91  50.75
788.6  339700.05  172434.22  50.76
789.9  340064.20  172649.96  50.77
791.2  340636.78  172966.74  50.78
792.4  341192.33  173316.60  50.80
793.7  341615.20  173539.72  50.80
795.0  342139.88  173833.44  50.81
796.2  342729.15  174143.65  50.81
797.5  343326.08  174486.18  50.82
798.8  343831.23  174814.63  50.84
800.0  344442.13  175128.58  50.84
801.3  344827.20  175352.14  50.85
802.6  345368.48  175643.91  50.86
803.8  345950.55  175971.58  50.87
805.1  346300.50  176182.83  50.88
806.4  346671.90  176395.38  50.88
807.7  347121.45  176661.81  50.89
808.9  347589.80  176926.48  50.90
810.2  348079.55  177176.09  50.90
811.4  348509.10  177418.44  50.91
812.7  349050.00  177742.50  50.92
814.0  349816.15  178146.58  50.93
815.2  350407.75  178472.90  50.93
816.5  350755.68  178696.43  50.95
817.7  351198.60  178924.46  50.95
819.0  351597.40  179170.42  50.96
820.2  351736.00  179256.00  50.96
821.5  352422.45  179600.16  50.96
822.7  352692.25  179796.08  50.98
824.0  352971.00  179973.90  50.99
825.2  353457.68  180207.99  50.98
826.5  353711.55  180373.04  50.99
827.7  354232.40  180641.24  51.00
829.0  354620.55  180847.71  51.00
830.2  354902.65  181026.56  51.01
831.5  355413.05  181262.16  51.00
832.7  355711.13  181435.59  51.01
834.0  356023.18  181606.48  51.01
835.2  356382.13  181810.04  51.02
836.4  356644.75  181976.85  51.02
837.7  357015.40  182209.56  51.04
838.9  357546.90  182441.45  51.03
840.1  357887.70  182652.71  51.04
841.4  358356.20  182910.74  51.04
842.6  358706.80  183145.08  51.06
843.8  359042.20  183324.24  51.06
845.1  359542.30  183605.16  51.07
846.3  359938.90  183821.86  51.07
847.5  360406.20  184051.98  51.07
848.8  360850.20  184299.96  51.07
850.0  361239.90  184516.78  51.08
851.2  361728.45  184804.47  51.09
852.5  362137.60  185042.54  51.10
853.7  362594.25  185323.05  51.11
854.9  363087.30  185569.14  51.11
856.1  363605.45  185799.64  51.10
857.4  363881.13  185921.89  51.09
858.6  364325.55  186192.53  51.11
859.8  364704.38  186438.38  51.12
861.0  365180.40  186689.88  51.12
862.2  365680.88  186941.47  51.12
863.5  366092.03  187147.22  51.12
864.7  366630.00  187395.12  51.11
865.9  367073.40  187595.72  51.11
867.1  367339.10  187777.46  51.12
868.3  367812.90  188023.20  51.12
869.5  368264.20  188262.59  51.12
870.8  368806.50  188541.90  51.12
872.0  369381.53  188796.72  51.11
873.2  369805.80  189013.59  51.11
874.4  370234.80  189271.49  51.12
875.6  370634.65  189481.58  51.12
876.8  371070.65  189688.80  51.12
878.0  371670.80  189950.56  51.11
879.2  372172.95  190194.18  51.10
880.4  372716.63  190464.30  51.10
881.6  373144.90  190682.80  51.10
882.8  373558.40  190870.88  51.10
884.0  374177.15  191157.60  51.09
885.2  374566.70  191378.94  51.09
886.5  375213.55  191684.99  51.09
887.7  375674.33  191897.29  51.08
888.8  376326.83  192170.39  51.06
890.0  376918.65  192425.43  51.05
891.2  377423.60  192703.42  51.06
892.4  378009.45  192976.77  51.05
893.6  378462.80  193220.29  51.05
894.8  379270.00  193662.30  51.06
896.0  380226.75  194073.45  51.04
897.2  380935.75  194407.20  51.03
898.4  381681.30  194738.28  51.02
899.6  382260.00  194952.60  51.00
900.8  382481.90  195141.68  51.02
902.0  382667.10  195205.14  51.01
903.2  382876.20  195345.00  51.02
904.3  383258.10  195471.54  51.00
905.5  383835.35  195695.67  50.98
906.7  384424.50  195901.00  50.96
907.9  384831.30  196123.48  50.96
909.1  385007.18  196252.07  50.97
910.2  385236.53  196230.23  50.94
911.4  385319.03  196293.24  50.94
912.6  385313.50  196351.87  50.96
913.8  385571.03  196371.36  50.93
915.0  385970.55  196471.38  50.90
916.2  386080.50  196538.55  50.91
917.3  385938.90  196489.67  50.91
918.5  386006.70  196529.06  50.91
919.7  386230.80  196535.70  50.89
920.8  386304.60  196451.32  50.85
922.0  386328.25  196357.70  50.83
923.2  386431.50  196396.20  50.82
924.4  386343.00  196492.50  50.86
925.5  386666.80  196560.30  50.83
926.7  387117.63  196733.78  50.82
927.9  387961.80  196974.12  50.77
929.0  389358.90  197563.59  50.74
930.2  391460.80  198522.26  50.71
931.4  393635.03  199682.82  50.73
932.5  396384.60  200916.27  50.69
933.7  397675.20  201577.99  50.69
934.9  398212.50  201663.88  50.64
936.0  397674.88  201282.90  50.61
937.2  395590.95  199995.96  50.56
938.3  393638.25  198941.93  50.54
939.5  392036.40  198065.52  50.52
940.7  392103.90  197994.42  50.50
941.8  393302.85  198581.10  50.49
943.0  394708.50  199075.05  50.44
944.2  395619.90  199234.62  50.36
945.3  394953.00  198810.30  50.34
946.5  394252.65  198158.40  50.26
947.6  393986.20  198099.16  50.28
948.8  393870.75  197789.09  50.22
949.9  393813.00  197597.40  50.18
951.1  393430.05  197075.97  50.09
952.2  393108.00  196574.40  50.01
953.4  392738.75  196141.40  49.94
954.5  392558.40  195858.00  49.89
955.7  392200.20  195521.76  49.85
956.8  392002.10  195107.66  49.77
958.0  391612.00  194521.30  49.67
959.1  391407.15  194123.50  49.60
960.3  390727.53  193592.96  49.55
961.4  390291.20  193363.02  49.54
962.6  390552.75  193238.50  49.48
963.7  390312.08  192972.65  49.44
964.9  390092.85  192737.00  49.41
966.0  389877.30  192521.21  49.38
967.2  389621.25  192301.20  49.36
968.3  389387.25  192061.53  49.32
969.5  389168.40  191900.28  49.31
970.6  389201.30  191944.38  49.32
971.8  389252.50  191931.43  49.31
972.9  389344.58  191768.60  49.25
974.0  389450.50  191759.56  49.24
975.2  389223.63  191507.58  49.20
976.3  388999.63  191595.76  49.25
977.5  389142.08  191507.82  49.21
978.6  388897.20  191487.86  49.24
979.7  389048.10  191550.98  49.24
980.9  389148.28  191282.39  49.15
982.0  388759.50  191212.08  49.19
983.2  388813.93  190881.58  49.09
984.3  387729.40  190765.04  49.20
985.4  387645.25  190582.61  49.16
986.6  386898.75  190501.58  49.24
987.7  387421.65  190841.04  49.26
988.9  388132.20  190550.16  49.09
990.0  388591.80  190657.40  49.06
993.1  390468.05  192166.93  49.21
996.9  389121.23  192111.13  49.37
1000.7  389132.98  192614.69  49.50
1004.5  389205.75  193115.31  49.62
1008.4  388804.21  193355.52  49.73
1012.2  388541.38  193696.67  49.85
1016.0  388155.60  193918.25  49.96
1019.8  387514.05  193963.00  50.05
1023.7  386359.99  193715.70  50.14
1027.5  384705.22  193199.29  50.22
1031.3  383719.18  192954.72  50.29
1035.1  382661.59  192658.70  50.35
1038.9  382182.90  192611.18  50.40
1042.7  381835.92  192639.13  50.45
1046.5  381657.50  192717.40  50.49
1050.3  381660.44  192809.25  50.52
1054.2  381264.33  192716.84  50.55
1058.0  380837.98  192571.01  50.57
1061.8  380744.21  192614.34  50.59
1065.6  380222.00  192354.21  50.59
1069.4  379444.27  191970.89  50.59
1073.2  378114.09  191289.90  50.59
1077.0  377354.20  190851.06  50.58
1080.8  377422.92  190799.43  50.55
1084.6  377406.17  190673.64  50.52
1088.4  377621.43  190708.84  50.50
1092.2  377120.25  190320.70  50.47
1096.0  376429.53  189812.75  50.42
1099.8  375738.57  189278.31  50.38
1103.6  374806.97  188622.88  50.33
1107.4  373654.93  187814.21  50.26
1111.2  373312.90  187416.22  50.20
1114.9  372757.00  186822.39  50.12
1118.7  372438.00  186289.01  50.02
1122.5  371995.87  185609.01  49.90
1126.3  371057.34  184515.66  49.73
1130.1  370670.96  183427.11  49.49
1133.9  368997.30  181397.44  49.16
1137.7  367432.90  179161.43  48.76
1141.4  365297.40  176432.64  48.30
1145.2  364348.17  174131.55  47.79
1149.0  363024.38  171775.56  47.32
1152.8  361204.15  169424.23  46.91
1156.6  359337.18  167450.22  46.60
1160.3  357529.67  165849.63  46.39
1164.1  355139.50  164270.85  46.26
1167.9  353457.29  163222.99  46.18
1171.7  352130.63  162446.07  46.13
1175.4  350679.83  161639.79  46.09
1179.2  349266.75  160832.71  46.05
1183.0  348917.67  160494.38  46.00
1186.7  348833.80  160297.66  45.95
1190.5  348418.33  159964.43  45.91
1194.3  347457.83  159439.48  45.89
1198.0  345981.35  158745.16  45.88
1201.8  344272.10  158011.80  45.90
1205.6  343174.00  157618.57  45.93
1209.3  342557.32  157514.05  45.98
1213.1  342009.83  157510.68  46.05
1216.8  341366.48  157533.47  46.15
1220.6  340257.87  157367.96  46.25
1224.3  339006.67  157123.87  46.35
1228.1  337501.80  156799.12  46.46
1231.9  335886.38  156361.50  46.55
1235.6  334124.93  155805.56  46.63
1239.4  332549.38  155321.86  46.71
1243.1  331141.96  154856.52  46.76
1246.9  329851.30  154396.58  46.81
1250.6  328753.87  153999.94  46.84
1254.3  327578.90  153524.50  46.87
1258.1  326331.13  152991.11  46.88
1261.8  324862.53  152321.81  46.89
1265.6  323630.90  151706.74  46.88
1269.3  322776.68  151228.10  46.85
1273.1  323115.13  151257.23  46.81
1276.8  322932.40  151011.20  46.76
1280.6  321801.40  150308.74  46.71
1284.3  319816.40  149127.94  46.63
1288.0  318515.33  148205.60  46.53
1291.8  317995.59  147563.28  46.40
1295.5  317213.60  146753.03  46.26
1299.2  316066.77  145704.81  46.10
1302.9  314445.48  144321.71  45.90
1306.7  312676.35  142768.48  45.66
1310.4  310955.58  141094.48  45.37
1314.1  309354.83  139381.41  45.06
1317.9  307923.13  137588.34  44.68
1321.6  306355.15  135627.95  44.27
1325.3  304667.48  133465.25  43.81
1329.0  303358.88  131370.08  43.31
1332.8  301393.40  128885.54  42.76
1336.5  299715.20  126494.51  42.20
1340.2  299572.00  124750.17  41.64
1343.9  299558.54  123057.15  41.08
1347.6  299822.70  121501.01  40.52
1351.4  301382.00  120528.74  39.99
1355.1  303539.87  119808.65  39.47
1358.8  305296.00  118853.34  38.93
1362.5  305578.10  117160.15  38.34
1366.2  303555.40  114297.01  37.65
1369.9  300307.38  110636.28  36.84
1373.6  297449.60  106592.96  35.84
1377.3  295914.90  102304.01  34.57
1381.0  295413.50  97457.68  32.99
1384.8  293426.25  91179.52  31.07
1388.4  290145.45  83980.62  28.94
1392.2  287843.42  76760.01  26.67
1395.9  286334.70  69805.29  24.38
1399.6  284479.04  63236.42  22.23
1403.3  282988.15  57507.41  20.32
1407.0  281281.20  52625.65  18.71
1410.7  279422.55  48647.37  17.41
1414.3  277500.07  45537.72  16.41
1418.1  275769.92  43222.62  15.67
1421.7  274370.37  41532.09  15.14
1425.4  272994.80  40338.00  14.78
1429.1  271753.13  39524.73  14.54
1432.8  270046.45  38946.03  14.42
1436.5  269212.53  38690.09  14.37
1440.2  268587.27  38627.57  14.38
1443.9  267463.63  38597.12  14.43
1447.6  265865.60  38577.00  14.51
1451.2  264633.05  38640.92  14.60
1454.9  263170.65  38729.53  14.72
1458.6  261930.97  38952.67  14.87
1462.3  260693.03  39317.54  15.08
1466.0  259315.55  39812.35  15.35
1469.7  257577.13  40431.53  15.70
1473.3  256512.83  41302.71  16.10
1477.0  254473.97  42111.73  16.55
1480.7  252819.58  43046.37  17.03
1484.4  250755.75  43938.24  17.52
1488.0  249172.00  44926.79  18.03
1491.7  247562.22  45909.55  18.54
1495.4  245861.13  46868.13  19.06
1499.0  244296.00  47833.09  19.58
1502.7  243007.33  48834.75  20.10
1506.4  241578.96  49772.48  20.60
1510.0  240124.47  50675.34  21.10
1513.7  238599.38  51519.08  21.59
1517.4  237231.00  52359.67  22.07
1521.0  235956.40  53191.23  22.54
1524.7  234684.67  53957.95  22.99
1528.3  233373.25  54673.17  23.43
1532.0  232120.35  55359.52  23.85
1535.7  230713.58  55955.67  24.25
1539.3  229435.79  56551.75  24.65
1543.0  228447.90  57178.02  25.03
1546.6  227755.67  57845.95  25.40
1550.3  226738.90  58392.14  25.75
1553.9  225670.03  58876.19  26.09
1557.6  224396.33  59280.03  26.42
1561.2  223102.35  59628.61  26.73
1564.9  221774.91  59946.86  27.03
1568.5  220439.57  60220.61  27.32
1572.2  219292.40  60520.71  27.60
1575.8  218176.00  60810.00  27.87
1579.5  217140.30  61100.92  28.14
1583.1  216065.96  61363.24  28.40
1586.8  214732.00  61522.00  28.65
1590.4  213517.17  61707.24  28.90
1594.0  212165.42  61826.00  29.14
1597.7  211311.59  62088.51  29.38
1601.3  210357.00  62297.10  29.61
1604.9  209359.89  62469.70  29.84
1608.6  208002.08  62498.18  30.05
1612.2  206644.35  62490.39  30.24
1615.8  205222.88  62437.31  30.42
1619.5  203976.58  62407.97  30.60
1623.1  202656.33  62318.27  30.75
1626.7  201407.70  62233.67  30.90
1630.3  200191.25  62130.63  31.04
1634.0  199066.00  62012.34  31.15
1637.6  198044.60  61894.68  31.25
1641.2  197009.10  61697.23  31.32
1644.8  195781.34  61378.98  31.35
1648.5  194676.38  61046.45  31.36
1652.1  193719.90  60685.40  31.33
1655.7  192765.00  60298.95  31.28
1659.3  191944.53  59924.14  31.22
1662.9  190499.17  59364.07  31.16
1666.6  189041.93  58813.07  31.11
1670.2  187594.40  58278.16  31.07
1673.8  186103.16  57731.62  31.02
1677.4  184912.05  57259.10  30.97
1681.0  184086.93  56855.63  30.89
1684.6  183660.75  56518.77  30.77
1688.2  182945.35  56017.16  30.62
1691.8  182286.08  55547.12  30.47
1695.4  181831.00  55109.52  30.31
1699.0  181446.53  54684.13  30.14
1702.6  181101.67  54232.56  29.95
1706.2  180464.38  53662.12  29.74
1709.8  179524.36  52985.10  29.51
1713.4  178762.18  52366.71  29.29
1717.0  177855.50  51726.15  29.08
1720.6  177004.50  51115.17  28.88
1724.2  176264.25  50550.27  28.68
1727.8  175543.20  50028.71  28.50
1731.4  175071.88  49638.81  28.35
1735.0  174900.37  49371.20  28.23
1738.6  174708.60  49062.21  28.08
1742.2  174174.09  48600.54  27.90
1745.8  173535.25  48075.05  27.70
1749.4  172597.43  47424.72  27.48
1753.0  171084.13  46612.58  27.25
1756.6  169423.33  45766.24  27.01
1760.1  168079.32  45036.94  26.80
1763.7  166305.33  44233.75  26.60
1767.3  164846.03  43554.78  26.42
1770.9  163577.93  42952.64  26.26
1774.5  162088.06  42338.31  26.12
1778.0  160925.33  41825.92  25.99
1781.6  159832.50  41370.32  25.88
1785.2  158664.00  40928.82  25.80
1788.8  157477.90  40533.07  25.74
1792.3  156233.07  40146.00  25.70
1795.9  155691.25  39971.09  25.67
1799.5  155491.67  39897.41  25.66
1803.1  156439.03  40140.51  25.66
1806.6  158596.84  40685.96  25.65
1810.2  160438.13  41142.13  25.64
1813.8  161312.75  41359.12  25.64
1817.3  160853.60  41214.25  25.62
1820.9  159629.83  40868.10  25.60
1824.5  158207.50  40459.97  25.57
1828.0  157080.92  40076.91  25.51
1831.6  156578.75  39824.86  25.43
1835.2  156329.17  39558.40  25.30
1838.7  156088.00  39216.12  25.12
1842.3  155850.00  38767.15  24.87
1845.8  154614.04  37953.19  24.55
1849.4  153991.73  37130.79  24.11
1852.9  153119.52  36047.52  23.54
1856.5  152060.75  34688.06  22.81
1860.0  151015.63  33078.08  21.90
1863.6  150989.84  31418.68  20.81
1867.1  151640.30  29599.68  19.52
1870.7  152499.90  27432.42  17.99
1874.2  151474.50  24604.40  16.24
1877.8  148804.40  21451.67  14.42
1881.3  145852.38  18319.91  12.56
1884.9  143960.03  15554.39  10.80
1888.4  142369.55  13076.81  9.19
1891.9  140769.13  11031.10  7.84
1895.5  139366.40  9458.95  6.79
1899.0  138653.25  8353.27  6.02
1901.3  178251.33  7154.59  4.01
1904.1  178181.25  6450.00  3.62
1906.8  177067.80  5893.80  3.33
1909.6  174770.05  5442.15  3.11
1912.4  172673.55  5102.89  2.96
1915.1  171143.50  4894.18  2.86
1917.9  169556.50  4708.33  2.78
1920.6  168204.37  4602.30  2.74
1923.3  166760.07  4514.42  2.71
1926.1  164991.10  4459.85  2.70
1928.8  163298.67  4429.33  2.71
1931.6  161972.78  4421.34  2.73
1934.3  160785.60  4453.29  2.77
1937.0  159669.47  4495.75  2.82
1939.8  158402.08  4546.46  2.87
1942.5  156772.00  4603.50  2.94
1945.2  154754.05  4655.48  3.01
1947.9  153098.63  4725.70  3.09
1950.7  151793.53  4819.85  3.18
1953.4  149887.25  4908.70  3.27
1956.1  148425.50  5009.67  3.38
1958.8  147128.80  5138.14  3.49
1961.5  145562.40  5262.40  3.62
1964.2  143980.20  5396.30  3.75
1966.9  142347.45  5529.55  3.88
1969.6  141048.00  5692.50  4.04
1972.3  139623.20  5842.85  4.18
1975.0  138555.60  6018.00  4.34
1977.7  137398.93  6202.53  4.51
1980.4  136225.23  6390.90  4.69
1983.1  135090.90  6572.37  4.87
1985.8  134136.60  6777.30  5.05
1988.4  133085.33  6972.34  5.24
1991.1  132141.80  7174.30  5.43
1993.8  131257.68  7384.49  5.63
1996.5  130602.82  7599.90  5.82
1999.1  129904.87  7828.24  6.03
2001.8  129206.47  8037.63  6.22
2004.5  128513.05  8256.43  6.42
2007.1  127769.15  8464.03  6.62
2009.8  126996.33  8663.55  6.82
2012.4  126397.88  8875.17  7.02
2015.1  125830.83  9077.95  7.21
2017.8  125019.30  9250.62  7.40
2020.4  124510.83  9443.87  7.58
2023.1  124155.97  9634.80  7.76
2025.7  123898.67  9819.33  7.93
2028.3  123552.00  9992.67  8.09
2031.0  123138.35  10159.50  8.25
2033.6  122861.40  10309.50  8.39
2036.2  122591.70  10448.70  8.52
2038.9  121974.00  10548.75  8.65
2041.5  121614.93  10669.20  8.77
2044.1  121051.80  10766.25  8.89
2046.8  120651.60  10866.30  9.01
2049.4  119999.10  10931.55  9.11
2052.0  119716.53  11030.20  9.21
2054.6  119306.25  11108.13  9.31
2057.2  118738.40  11178.67  9.41
2059.8  118397.80  11283.47  9.53
2062.4  117500.67  11327.31  9.64
2065.0  116965.53  11405.73  9.75
2067.6  116053.70  11436.27  9.85
2070.2  115434.82  11501.64  9.96
2072.8  114763.63  11558.30  10.07
2075.4  114327.50  11633.13  10.18
2078.0  113682.68  11681.84  10.28
2080.6  113106.40  11739.20  10.38
2083.2  112397.43  11778.02  10.48
2085.8  111882.10  11839.93  10.58
2088.4  111202.83  11885.25  10.69
2090.9  110393.48  11906.91  10.79
2093.5  109486.90  11909.52  10.88
2096.1  108693.75  11932.16  10.98
2098.7  107929.60  11954.12  11.08
2101.2  106948.40  11938.47  11.16
2103.8  106249.73  11955.94  11.25
2106.4  105577.27  11986.50  11.35
2108.9  104904.80  11999.60  11.44
2111.5  104031.47  11990.87  11.53
2114.0  103376.47  12012.70  11.62
2116.6  102847.50  12040.00  11.71
2119.1  102280.70  12049.79  11.78
2121.7  101780.00  12066.25  11.86
2124.2  101360.20  12089.24  11.93
2126.8  100551.60  12072.70  12.01
2129.3  100144.00  12091.20  12.07
2131.9  99536.80  12073.60  12.13
2134.4  99102.30  12084.68  12.19
2136.9  98702.72  12116.87  12.28
2139.4  98162.87  12116.30  12.34
2142.0  97692.93  12116.30  12.40
2144.5  97401.60  12152.95  12.48
2147.0  97167.87  12202.94  12.56
2149.5  96649.73  12207.40  12.63
2152.1  96489.98  12244.28  12.69
2154.6  96424.00  12294.40  12.75
2157.1  95892.75  12294.29  12.82
2159.6  95465.83  12289.75  12.87
2162.1  95295.20  12321.40  12.93
2164.6  95050.60  12343.70  12.99
2167.1  94716.90  12360.77  13.05
2169.6  94378.67  12373.38  13.11
2172.1  93912.23  12358.82  13.16
2174.6  93584.07  12371.00  13.22
2177.1  93139.68  12370.04  13.28
2179.5  92719.47  12363.22  13.33
2182.0  92237.75  12356.03  13.40
2184.5  91684.55  12339.08  13.46
2187.0  91059.97  12315.22  13.52
2189.5  90357.20  12276.18  13.59
2191.9  89556.50  12236.00  13.66
2194.4  88920.05  12204.90  13.73
2196.9  88147.20  12153.60  13.79
2199.3  87464.00  12093.00  13.83
2201.8  86558.53  12010.94  13.88
2204.3  86082.35  11986.15  13.92
2206.7  85419.20  11933.28  13.97
2209.2  84927.48  11904.48  14.02
2211.6  84288.60  11840.40  14.05
2214.1  83968.05  11825.58  14.08
2216.5  83380.40  11746.17  14.09
2219.0  83032.73  11706.44  14.10
2221.4  82665.33  11637.21  14.08
2223.9  82179.42  11552.92  14.06
2226.3  81673.67  11438.88  14.01
2228.7  81102.63  11321.36  13.96
2231.1  80496.90  11177.10  13.89
2233.6  79883.87  11016.07  13.79
2236.0  79313.50  10848.84  13.68
2238.4  78787.92  10665.38  13.54
2240.9  78314.40  10504.50  13.41
2243.3  77758.13  10310.80  13.26
2245.7  77182.15  10124.13  13.12
2248.1  76683.53  9921.82  12.94
2250.5  76152.87  9733.75  12.78
2252.9  75517.43  9523.15  12.61
2255.3  74953.35  9323.15  12.44
2257.7  74470.00  9130.00  12.26
2260.1  73945.67  8949.74  12.10
2262.5  73330.00  8760.00  11.95
2264.9  72798.47  8585.67  11.79
2267.3  72180.00  8420.00  11.67
2269.7  71668.10  8272.49  11.54
2272.1  71098.30  8133.54  11.44
2274.5  70512.28  7986.67  11.33
2276.8  70026.52  7863.09  11.23
2279.2  69425.40  7728.45  11.13
2281.6  68986.87  7615.44  11.04
2284.0  68508.30  7499.25  10.95
2286.3  68025.07  7387.20  10.86
2288.7  67607.15  7276.00  10.76
2291.1  67028.33  7147.98  10.66
2293.4  66569.07  7027.53  10.56
2295.8  65940.60  6885.55  10.44
2298.2  65339.55  6743.03  10.32
2300.5  64656.45  6587.78  10.19
2302.9  63891.00  6442.84  10.08
2305.2  63128.70  6293.30  9.97
2307.6  62446.78  6164.21  9.87
2309.9  61669.33  6029.50  9.78
2312.2  61049.33  5921.00  9.70
2314.6  60423.30  5832.23  9.65
2316.9  59729.85  5733.90  9.60
2319.2  59162.57  5660.20  9.57
2321.6  58510.08  5565.47  9.51
2323.9  57947.92  5473.96  9.45
2326.2  57404.20  5373.17  9.36
2328.6  56868.90  5256.35  9.24
2330.9  56353.50  5171.25  9.18
2333.2  55858.83  5080.00  9.09
2335.5  55404.60  4991.55  9.01
2337.8  54941.08  4895.63  8.91
2340.1  54358.78  4787.80  8.81
2342.4  53906.67  4690.83  8.70
2344.8  53458.92  4606.83  8.62
2347.1  52881.27  4512.79  8.53
2349.4  52329.17  4417.69  8.44
2351.6  51734.27  4346.08  8.40
2353.9  51216.73  4275.42  8.35
2356.2  50692.00  4190.99  8.27
2358.5  50097.60  4110.40  8.20
2360.8  49515.20  4026.40  8.13
2363.1  49061.70  3959.49  8.07
2365.4  48590.00  3875.90  7.98
2367.7  48108.00  3796.20  7.89
2369.9  47574.75  3726.98  7.83
2372.2  46933.07  3640.67  7.76
2374.5  46327.05  3545.85  7.65
2376.7  45688.35  3450.15  7.55
2379.0  45055.90  3367.85  7.47
2381.3  44415.00  3278.34  7.38
2383.5  43894.40  3203.20  7.30
2385.8  43277.80  3124.05  7.22
2388.0  42739.60  3044.40  7.12
2390.3  42209.73  2966.67  7.03
2392.5  41712.00  2886.00  6.92
2394.8  41248.90  2825.35  6.85
2397.0  40755.87  2772.47  6.80
2399.3  40290.28  2692.52  6.68
2401.5  39837.00  2621.50  6.58
2403.8  39302.48  2543.40  6.47
2406.0  38777.25  2483.34  6.40
2408.2  38372.40  2412.30  6.29
2410.4  37936.85  2346.87  6.19
2412.7  37524.07  2274.57  6.06
2414.9  37140.40  2226.40  5.99
2417.1  36728.40  2171.70  5.91
2419.3  36300.80  2112.00  5.82
2421.6  35895.42  2053.75  5.72
2423.8  35502.73  1996.87  5.62
2426.0  35145.88  1941.01  5.52
2428.2  34796.53  1888.14  5.43
2430.4  34499.30  1832.82  5.31
2432.6  34226.67  1780.00  5.20
2434.8  33924.60  1744.35  5.14
2437.0  33543.03  1692.60  5.05
2439.2  33169.90  1649.04  4.97
2441.4  32829.07  1595.10  4.86
2443.6  32593.52  1540.56  4.73
2445.7  32320.40  1506.34  4.66
2447.9  32050.08  1468.21  4.58
2450.1  31767.05  1426.08  4.49
2452.3  31395.47  1390.49  4.43
2454.5  31004.77  1361.60  4.39
2456.6  30616.27  1312.54  4.29
2458.8  30244.50  1272.70  4.21
2461.0  29929.00  1232.63  4.12
2463.1  29623.80  1200.38  4.05
2465.3  29339.83  1177.98  4.01
2467.5  29087.00  1157.88  3.98
2469.6  28848.83  1126.21  3.90
2471.8  28531.67  1096.22  3.84
2473.9  28205.83  1055.84  3.74
2476.1  27846.00  1031.34  3.70
2478.2  27480.93  1013.02  3.69
2480.4  27184.85  990.08  3.64
2482.5  26832.62  975.45  3.64
2484.6  26507.25  935.00  3.53
2486.8  26250.40  910.60  3.47
2488.9  25963.58  891.76  3.43
2491.1  25608.80  888.53  3.47
2493.2  25227.33  862.20  3.42
2495.3  24803.57  849.77  3.43
2497.4  24455.90  829.15  3.39
2499.5  24113.17  809.17  3.36
2501.7  23992.67  797.02  3.32
2503.8  23888.12  794.04  3.32
2505.9  23814.17  777.29  3.26
2508.0  23822.67  779.49  3.27
2510.1  23874.25  760.04  3.18
2512.2  23965.10  761.53  3.18
2514.3  24146.80  787.81  3.26
2516.4  24368.90  817.55  3.35
