/*** Spectra Vista SIG Data ***/
name= 5_20220720_ACSA_7_avg.sig
comm= Averaged Ref/Tar of files: 4_20220720_ACSA_7_1_avg.sig,5_20220720_ACSA_7_2_avg.sig
data=
337.3  3176.00  250.97  7.90
338.8  3270.80  240.04  7.34
340.3  3466.90  242.73  7.00
341.8  3658.00  247.35  6.76
343.2  3862.80  249.91  6.47
344.7  4009.10  238.03  5.94
346.2  4166.70  240.05  5.76
347.7  4404.40  237.83  5.40
349.2  4536.00  232.92  5.13
350.6  4774.25  237.84  4.98
352.1  5037.23  242.93  4.82
353.6  5309.10  247.20  4.66
355.1  5590.05  252.72  4.52
356.6  5866.73  258.14  4.40
358.0  6124.80  258.85  4.23
359.5  6427.20  265.45  4.13
361.0  6703.20  269.04  4.01
362.5  7026.00  272.96  3.88
364.0  7369.48  283.48  3.85
365.4  7727.50  296.26  3.83
366.9  8066.50  302.83  3.75
368.4  8400.70  318.21  3.79
369.9  8702.05  327.39  3.76
371.3  9078.00  336.68  3.71
372.8  9478.35  344.90  3.64
374.3  9890.00  350.40  3.54
375.8  10267.95  362.67  3.53
377.2  10679.30  369.68  3.46
378.7  11055.90  374.04  3.38
380.2  11405.60  383.52  3.36
381.7  11863.98  392.25  3.31
383.1  12316.15  400.66  3.25
384.6  12786.15  408.22  3.19
386.1  13215.23  422.88  3.20
387.6  13609.75  431.97  3.17
389.0  14043.20  442.58  3.15
390.5  14496.30  450.34  3.11
392.0  15023.60  464.77  3.09
393.4  15528.53  475.96  3.07
394.9  16025.40  486.96  3.04
396.4  16508.25  495.57  3.00
397.9  17015.00  505.92  2.97
399.3  17524.90  514.22  2.93
400.8  18020.78  531.26  2.95
402.2  18633.45  542.91  2.91
403.7  19187.78  560.15  2.92
405.2  19744.95  570.91  2.89
406.6  20276.80  583.98  2.88
408.1  20837.20  599.23  2.88
409.6  21401.25  609.38  2.85
411.0  22033.20  624.84  2.84
412.5  22657.60  642.80  2.84
414.0  23247.88  658.21  2.83
415.4  23909.63  680.30  2.85
416.9  24537.08  694.27  2.83
418.4  25192.58  716.23  2.84
419.8  25844.00  739.44  2.86
421.3  26523.60  758.67  2.86
422.7  27248.40  782.34  2.87
424.2  27995.63  812.25  2.90
425.7  28704.30  836.74  2.92
427.1  29402.85  858.92  2.92
428.6  30132.00  888.67  2.95
430.0  30820.43  911.80  2.96
431.5  31641.00  939.85  2.97
432.9  32464.40  970.39  2.99
434.4  33291.30  999.48  3.00
435.9  34076.00  1027.47  3.02
437.3  34856.25  1054.43  3.03
438.8  35634.38  1081.87  3.04
440.2  36436.40  1109.96  3.05
441.7  37332.40  1139.77  3.05
443.1  38186.50  1168.40  3.06
444.6  39090.40  1200.46  3.07
446.0  39963.00  1232.63  3.08
447.5  40855.93  1266.53  3.10
448.9  41718.60  1296.76  3.11
450.4  42631.40  1328.30  3.12
451.8  43446.00  1355.47  3.12
453.3  44298.10  1385.70  3.13
454.7  45242.95  1417.01  3.13
456.2  46062.68  1445.05  3.14
457.6  46953.68  1476.43  3.14
459.1  47863.40  1507.12  3.15
460.5  48738.50  1534.18  3.15
462.0  49704.38  1564.39  3.15
463.4  50662.60  1594.03  3.15
464.8  51587.25  1624.83  3.15
466.3  52495.58  1657.49  3.16
467.7  53414.63  1685.92  3.16
469.2  54399.88  1717.69  3.16
470.6  55314.85  1744.48  3.15
472.0  56271.85  1774.39  3.15
473.5  57206.25  1806.93  3.16
474.9  58140.00  1835.67  3.16
476.4  59212.80  1872.55  3.16
477.8  60218.50  1908.75  3.17
479.2  61161.00  1941.21  3.17
480.7  62184.60  1974.25  3.17
482.1  63233.20  2009.24  3.18
483.6  64316.95  2045.99  3.18
485.0  65325.68  2083.85  3.19
486.4  66420.75  2125.14  3.20
487.9  67421.25  2166.73  3.21
489.3  68515.43  2211.70  3.23
490.7  69502.00  2253.63  3.24
492.2  70633.50  2302.02  3.26
493.6  71667.80  2350.42  3.28
495.0  72686.25  2402.40  3.31
496.5  73785.90  2461.35  3.34
497.9  74798.48  2518.65  3.37
499.3  75855.08  2588.11  3.41
500.7  77000.40  2658.91  3.45
502.2  78066.20  2738.41  3.51
503.6  79205.00  2823.36  3.56
505.0  80179.45  2915.49  3.64
506.5  81395.48  3026.20  3.72
507.9  82486.30  3147.85  3.82
509.3  83768.00  3290.82  3.93
510.7  84942.00  3442.03  4.05
512.2  86213.10  3619.30  4.20
513.6  87578.05  3817.10  4.36
515.0  88877.80  4041.39  4.55
516.4  90138.83  4286.39  4.76
517.8  91628.88  4567.49  4.98
519.3  92838.70  4860.03  5.23
520.7  94275.50  5184.99  5.50
522.1  95463.23  5510.94  5.77
523.5  96716.20  5857.46  6.06
524.9  98012.70  6203.50  6.33
526.3  99302.00  6545.52  6.59
527.8  100742.40  6892.24  6.84
529.2  101811.70  7215.15  7.09
530.6  103057.40  7533.96  7.31
532.0  104650.00  7855.60  7.51
533.4  105925.73  8132.46  7.68
534.8  106725.75  8348.12  7.82
536.3  108243.90  8594.23  7.94
537.7  110073.60  8851.68  8.04
539.1  111430.33  9062.40  8.13
540.5  112571.10  9247.52  8.21
541.9  114252.83  9469.45  8.29
543.3  115425.90  9648.15  8.36
544.7  116724.60  9837.77  8.43
546.1  118342.40  10053.87  8.50
547.5  119425.60  10214.62  8.55
549.0  120978.00  10405.90  8.60
550.4  122315.00  10562.16  8.64
551.8  123689.80  10700.92  8.65
553.2  125113.40  10818.38  8.65
554.6  126349.60  10889.89  8.62
556.0  127739.70  10940.74  8.56
557.4  129207.05  10962.79  8.48
558.8  130699.80  10957.10  8.38
560.2  132011.50  10904.13  8.26
561.6  133512.98  10837.34  8.12
563.0  134970.38  10738.77  7.96
564.4  136411.50  10614.21  7.78
565.8  137785.00  10461.58  7.59
567.2  139395.25  10308.85  7.40
568.6  140766.00  10126.70  7.19
570.0  142038.45  9929.77  6.99
571.4  143616.85  9751.57  6.79
572.8  145203.50  9583.18  6.60
574.2  146708.80  9423.04  6.42
575.6  148128.75  9276.11  6.26
577.0  149499.00  9144.83  6.12
578.4  151071.38  9046.27  5.99
579.8  152456.85  8951.38  5.87
581.2  154028.53  8881.77  5.77
582.5  155317.50  8809.55  5.67
583.9  156704.00  8753.24  5.59
585.3  158328.23  8722.52  5.51
586.7  159655.93  8687.09  5.44
588.1  161020.00  8663.02  5.38
589.5  162520.75  8657.48  5.33
590.9  163990.00  8661.69  5.28
592.3  165647.45  8681.73  5.24
593.7  166955.10  8692.76  5.21
595.0  168443.55  8718.07  5.18
596.4  169748.60  8731.14  5.14
597.8  171086.38  8742.45  5.11
599.2  172497.60  8753.61  5.07
600.6  174104.45  8761.51  5.03
602.0  175276.80  8740.32  4.99
603.3  176895.25  8730.72  4.94
604.7  178404.05  8703.68  4.88
606.1  179758.80  8655.23  4.81
607.5  181247.80  8607.38  4.75
608.9  182776.45  8554.04  4.68
610.2  184019.85  8485.70  4.61
611.6  185465.78  8429.51  4.55
613.0  186867.40  8371.51  4.48
614.4  188131.50  8310.97  4.42
615.8  189452.25  8263.27  4.36
617.1  190850.10  8225.42  4.31
618.5  192311.20  8202.02  4.26
619.9  193696.65  8187.72  4.23
621.3  195145.88  8188.45  4.20
622.6  196572.50  8201.74  4.17
624.0  197883.60  8217.34  4.15
625.4  199197.90  8242.66  4.14
626.8  200623.15  8279.79  4.13
628.1  201822.78  8316.01  4.12
629.5  203505.38  8371.88  4.11
630.9  204940.18  8421.53  4.11
632.2  206195.33  8456.46  4.10
633.6  207657.75  8488.46  4.09
635.0  209031.60  8503.85  4.07
636.3  210402.60  8493.81  4.04
637.7  211627.50  8461.13  4.00
639.1  213132.50  8419.83  3.95
640.4  214486.13  8363.81  3.90
641.8  215539.90  8285.40  3.84
643.2  216948.90  8215.11  3.79
644.5  218142.25  8140.72  3.73
645.9  219721.05  8084.09  3.68
647.2  221117.40  8030.03  3.63
648.6  222871.50  8005.12  3.59
650.0  224229.60  7978.43  3.56
651.3  224575.18  7923.10  3.53
652.7  225705.60  7905.71  3.50
654.0  227397.00  7906.39  3.48
655.4  228911.53  7906.62  3.45
656.8  229133.80  7858.74  3.43
658.1  230132.60  7827.83  3.40
659.5  232251.60  7829.23  3.37
660.8  233820.00  7822.29  3.35
662.2  234640.00  7797.76  3.32
663.5  236229.75  7804.19  3.30
664.9  237442.40  7803.41  3.29
666.2  238228.20  7807.00  3.28
667.6  239949.10  7861.17  3.28
668.9  240904.88  7909.06  3.28
670.3  242052.75  7971.90  3.29
671.6  243375.00  8056.87  3.31
673.0  244414.88  8155.07  3.34
674.3  245508.90  8263.09  3.37
675.7  246710.20  8389.55  3.40
677.0  247693.15  8519.06  3.44
678.4  248948.58  8674.71  3.48
679.7  249961.73  8838.32  3.54
681.1  251147.28  9025.95  3.59
682.4  252183.10  9234.01  3.66
683.8  253288.10  9466.38  3.74
685.1  254172.00  9729.94  3.83
686.4  255388.80  10045.40  3.93
687.8  256564.75  10424.87  4.06
689.1  257454.75  10886.18  4.23
690.5  258656.55  11491.73  4.44
691.8  259428.93  12268.79  4.73
693.1  260633.55  13308.06  5.11
694.5  261647.75  14623.70  5.59
695.8  262717.00  16266.90  6.19
697.1  263831.75  18281.47  6.93
698.5  264772.80  20689.00  7.81
699.8  265751.00  23497.35  8.84
701.1  266816.73  26689.34  10.00
702.5  267533.20  30178.99  11.28
703.8  268402.50  33946.29  12.65
705.1  269436.38  37936.27  14.08
706.5  270379.50  42066.71  15.56
707.8  271284.30  46291.11  17.06
709.1  272097.10  50554.86  18.58
710.5  273146.38  54886.97  20.09
711.8  273888.60  59167.64  21.60
713.1  274780.60  63465.37  23.10
714.4  275605.70  67701.53  24.56
715.8  276341.60  71872.90  26.01
717.1  277564.65  76089.19  27.41
718.4  278432.00  80140.16  28.78
719.7  279454.15  84146.19  30.11
721.0  279922.50  87897.65  31.40
722.4  280612.20  91595.53  32.64
723.7  281494.20  95222.54  33.83
725.0  282449.03  98749.65  34.96
726.3  283303.90  102114.71  36.04
727.6  283806.05  105193.04  37.07
729.0  284613.88  108243.56  38.03
730.3  285325.80  111109.00  38.94
731.6  286157.15  113874.63  39.79
732.9  286887.65  116455.47  40.59
734.2  287606.00  118899.50  41.34
735.5  288557.65  121291.09  42.03
736.8  289282.20  123458.94  42.68
738.1  290026.50  125503.91  43.27
739.5  290897.78  127473.63  43.82
740.8  291546.20  129228.47  44.33
742.1  292196.35  130901.43  44.80
743.4  292900.00  132471.19  45.23
744.7  293792.25  134024.27  45.62
746.0  294567.00  135433.95  45.98
747.3  295069.00  136601.54  46.29
748.6  295764.50  137770.59  46.58
749.9  296452.00  138860.55  46.84
751.2  297116.30  139870.87  47.08
752.5  297953.10  140895.70  47.29
753.8  298532.68  141742.71  47.48
755.1  299156.00  142540.42  47.65
756.4  299673.58  143233.82  47.80
757.7  300540.45  144044.26  47.93
759.0  302190.68  145162.37  48.04
760.3  303283.20  145987.98  48.14
761.6  304703.00  146941.44  48.22
762.9  305217.50  147412.89  48.30
764.2  305557.10  147775.28  48.36
765.5  305814.90  148067.66  48.42
766.8  306190.40  148403.72  48.47
768.1  306688.20  148763.74  48.51
769.3  307246.80  149149.89  48.54
770.6  307813.35  149542.62  48.58
771.9  308488.08  149954.33  48.61
773.2  308878.40  150204.90  48.63
774.5  309452.00  150541.96  48.65
775.8  310050.95  150887.43  48.67
777.1  310593.25  151211.88  48.68
778.4  310875.13  151409.84  48.70
779.6  311636.90  151808.97  48.71
780.9  312060.00  152060.86  48.73
782.2  312482.50  152312.50  48.74
783.5  312777.50  152487.80  48.75
784.8  313274.48  152761.07  48.76
786.0  313649.35  152967.86  48.77
787.3  314026.08  153163.05  48.77
788.6  314367.35  153389.83  48.79
789.9  314819.40  153620.38  48.80
791.2  315423.73  153940.46  48.80
792.4  316032.40  154261.45  48.81
793.7  316498.40  154495.36  48.81
795.0  317075.55  154796.73  48.82
796.2  317676.45  155107.38  48.83
797.5  318324.08  155451.26  48.83
798.8  318962.38  155780.39  48.84
800.0  319576.65  156098.17  48.85
801.3  320062.60  156317.13  48.84
802.6  320612.85  156606.44  48.85
803.8  321192.00  156902.58  48.85
805.1  321618.50  157142.43  48.86
806.4  322097.40  157384.94  48.86
807.7  322535.93  157636.11  48.87
808.9  323090.25  157891.06  48.87
810.2  323558.55  158132.20  48.87
811.4  324048.10  158373.23  48.87
812.7  324634.38  158680.87  48.88
814.0  325373.05  159076.50  48.89
815.2  325942.25  159376.06  48.90
816.5  326320.73  159577.26  48.90
817.7  326774.10  159799.49  48.90
819.0  327221.95  160049.11  48.91
820.2  327448.00  160137.79  48.90
821.5  328088.20  160477.63  48.91
822.7  328379.58  160659.41  48.92
824.0  328689.90  160822.68  48.93
825.2  329145.53  161064.78  48.93
826.5  329412.20  161215.86  48.94
827.7  329931.75  161466.91  48.94
829.0  330306.78  161661.20  48.94
830.2  330573.25  161830.54  48.95
831.5  331040.15  162061.88  48.96
832.7  331318.05  162216.50  48.96
834.0  331608.98  162379.06  48.97
835.2  331958.00  162546.87  48.97
836.4  332210.45  162710.89  48.98
837.7  332571.20  162910.23  48.99
838.9  332983.45  163137.40  48.99
840.1  333292.73  163325.69  49.00
841.4  333718.50  163541.44  49.01
842.6  334141.80  163749.05  49.01
843.8  334430.20  163917.60  49.01
845.1  334912.05  164172.84  49.02
846.3  335297.90  164387.24  49.03
847.5  335619.90  164586.02  49.04
848.8  336006.60  164791.76  49.04
850.0  336367.85  164980.72  49.05
851.2  336856.05  165228.03  49.05
852.5  337253.50  165425.53  49.05
853.7  337734.00  165668.51  49.05
854.9  338101.50  165886.45  49.06
856.1  338499.20  166106.78  49.07
857.4  338785.88  166218.41  49.06
858.6  339268.30  166455.98  49.06
859.8  339590.63  166644.04  49.07
861.0  339978.60  166852.70  49.08
862.2  340449.25  167079.73  49.08
863.5  340809.63  167240.07  49.07
864.7  341292.60  167477.14  49.07
865.9  341677.00  167672.16  49.07
867.1  341979.80  167835.35  49.08
868.3  342438.75  168041.10  49.07
869.5  342845.80  168257.13  49.08
870.8  343408.50  168492.34  49.06
872.0  343864.28  168721.68  49.07
873.2  344250.75  168904.48  49.06
874.4  344646.90  169110.30  49.07
875.6  345106.65  169287.11  49.05
876.8  345585.25  169504.80  49.05
878.0  346114.35  169722.36  49.04
879.2  346551.45  169948.08  49.04
880.4  346960.13  170175.28  49.05
881.6  347434.10  170388.02  49.04
882.8  347792.80  170580.42  49.05
884.0  348377.80  170821.55  49.03
885.2  348870.60  171034.22  49.03
886.5  349447.05  171291.80  49.02
887.7  349927.18  171501.06  49.01
888.8  350587.28  171786.51  49.00
890.0  351032.65  172025.68  49.01
891.2  351656.10  172284.85  48.99
892.4  352162.65  172550.92  49.00
893.6  352737.35  172795.01  48.99
894.8  353659.50  173170.18  48.97
896.0  354322.50  173521.14  48.97
897.2  355143.75  173878.19  48.96
898.4  355799.40  174221.77  48.97
899.6  356395.13  174465.49  48.95
900.8  356758.20  174648.06  48.95
902.0  357106.05  174736.95  48.93
903.2  357481.35  174862.72  48.92
904.3  357714.90  174977.21  48.92
905.5  358350.65  175249.36  48.90
906.7  358887.00  175511.00  48.90
907.9  359268.00  175749.61  48.92
909.1  359667.00  175889.84  48.90
910.2  359893.58  175976.17  48.90
911.4  360374.63  176064.75  48.86
912.6  360517.30  176141.00  48.86
913.8  360679.58  176211.75  48.86
915.0  361105.50  176394.89  48.85
916.2  361237.50  176467.39  48.85
917.3  361271.70  176469.59  48.85
918.5  361547.90  176538.27  48.83
919.7  361894.05  176655.36  48.81
920.8  361961.03  176658.47  48.81
922.0  362073.25  176702.17  48.80
923.2  362271.00  176746.70  48.79
924.4  362542.50  176811.62  48.77
925.5  362815.80  176886.23  48.75
926.7  363483.38  177123.99  48.73
927.9  364247.40  177443.48  48.72
929.0  365520.60  178050.10  48.71
930.2  367444.80  178974.95  48.71
931.4  369731.93  179954.74  48.67
932.5  372119.35  181038.90  48.65
933.7  373457.80  181591.05  48.62
934.9  374255.00  181828.79  48.58
936.0  374040.88  181592.59  48.55
937.2  372097.05  180630.44  48.54
938.3  370738.70  179848.63  48.51
939.5  369194.40  179113.51  48.51
940.7  369413.10  179075.60  48.48
941.8  370848.45  179645.23  48.44
943.0  372123.00  180185.52  48.42
944.2  372971.30  180446.03  48.38
945.3  372723.00  180204.14  48.35
946.5  372109.95  179788.36  48.32
947.6  372437.10  179737.48  48.26
948.8  372139.95  179539.65  48.25
949.9  372099.00  179414.04  48.22
951.1  371973.88  179107.02  48.15
952.2  371892.00  178818.63  48.08
953.4  371806.50  178513.31  48.01
954.5  371919.60  178318.04  47.95
955.7  371851.20  178116.48  47.90
956.8  371519.50  177841.68  47.87
958.0  371234.00  177486.90  47.81
959.1  370866.18  177252.17  47.79
960.3  370949.68  176938.39  47.70
961.4  371058.10  176783.69  47.64
962.6  371133.00  176750.55  47.62
963.7  370931.40  176612.98  47.61
964.9  370763.93  176465.79  47.60
966.0  370589.18  176368.17  47.59
967.2  370602.45  176336.48  47.58
968.3  370664.10  176175.93  47.53
969.5  370436.88  176071.01  47.53
970.6  370434.18  176061.76  47.53
971.8  370688.15  176198.78  47.53
972.9  370611.08  176005.70  47.49
974.0  370548.30  176079.12  47.52
975.2  370461.75  175958.77  47.50
976.3  370356.33  175861.64  47.48
977.5  370611.50  175822.57  47.44
978.6  370092.50  175777.27  47.50
979.7  370360.20  175856.38  47.48
980.9  370209.43  175779.16  47.48
982.0  370041.45  175679.99  47.48
983.2  369398.78  175568.43  47.53
984.3  369784.00  175378.09  47.43
985.4  370288.00  175473.54  47.39
986.6  369703.25  175464.29  47.46
987.7  370463.80  175901.98  47.48
988.9  370207.80  175810.14  47.49
990.0  371127.00  176165.78  47.47
993.1  322478.45  152279.62  47.22
996.9  322153.28  152495.20  47.34
1000.7  322606.43  153029.07  47.44
1004.5  322812.17  153459.58  47.54
1008.4  322505.38  153607.39  47.63
1012.2  322384.46  153822.63  47.71
1016.0  322280.40  154022.70  47.79
1019.8  322106.40  154172.29  47.86
1023.7  321631.51  154129.90  47.92
1027.5  320832.88  153921.56  47.98
1031.3  320526.85  153915.75  48.02
1035.1  320057.09  153794.55  48.05
1038.9  319831.23  153778.90  48.08
1042.7  319595.92  153733.73  48.10
1046.5  319447.17  153726.80  48.12
1050.3  319399.98  153751.67  48.14
1054.2  319060.00  153642.59  48.15
1058.0  318595.84  153419.31  48.15
1061.8  318511.50  153396.67  48.16
1065.6  318113.07  153193.60  48.16
1069.4  317867.27  153035.41  48.14
1073.2  317166.22  152666.27  48.13
1077.0  316583.60  152329.70  48.12
1080.8  316341.67  152122.69  48.09
1084.6  315854.82  151789.11  48.06
1088.4  315656.00  151619.08  48.03
1092.2  315081.00  151230.86  48.00
1096.0  314572.47  150859.90  47.96
1099.8  314061.58  150468.16  47.91
1103.6  313338.40  149963.21  47.86
1107.4  312420.04  149337.85  47.80
1111.2  312095.90  149010.18  47.74
1114.9  311425.92  148473.00  47.68
1118.7  310855.05  147928.99  47.59
1122.5  310283.13  147298.42  47.47
1126.3  309343.30  146451.37  47.34
1130.1  308967.24  145708.40  47.16
1133.9  307640.20  144312.95  46.91
1137.7  306421.10  142791.04  46.60
1141.4  304868.85  140954.88  46.23
1145.2  304183.11  139386.98  45.82
1149.0  303177.29  137767.30  45.44
1152.8  301793.15  136140.27  45.11
1156.6  300427.05  134784.10  44.86
1160.3  298959.33  133657.79  44.71
1164.1  296979.50  132502.67  44.62
1167.9  295478.13  131714.36  44.58
1171.7  294391.13  131166.01  44.56
1175.4  293268.17  130634.14  44.54
1179.2  292203.45  130105.80  44.53
1183.0  291833.67  129857.31  44.50
1186.7  291496.10  129623.40  44.47
1190.5  290833.33  129279.57  44.45
1194.3  289989.67  128866.57  44.44
1198.0  288941.68  128398.78  44.44
1201.8  287576.68  127843.86  44.46
1205.6  286514.33  127477.07  44.49
1209.3  285798.35  127327.10  44.55
1213.1  285156.30  127212.13  44.61
1216.8  284521.05  127127.04  44.68
1220.6  283606.40  126913.60  44.75
1224.3  282592.58  126638.33  44.81
1228.1  281455.20  126331.42  44.89
1231.9  280257.28  125946.86  44.94
1235.6  278873.55  125445.77  44.98
1239.4  277624.25  125024.31  45.03
1243.1  276500.32  124607.49  45.07
1246.9  275421.83  124180.22  45.09
1250.6  274595.20  123836.07  45.10
1254.3  273672.39  123441.08  45.11
1258.1  272758.85  123034.80  45.11
1261.8  271624.13  122507.46  45.10
1265.6  270448.48  121934.16  45.09
1269.3  269446.00  121405.44  45.06
1273.1  269503.43  121329.81  45.02
1276.8  269599.60  121233.49  44.97
1280.6  269100.73  120854.98  44.91
1284.3  267631.60  120014.03  44.84
1288.0  266379.58  119238.20  44.76
1291.8  265502.53  118565.33  44.66
1295.5  264570.53  117847.09  44.54
1299.2  263569.27  117042.16  44.41
1302.9  262282.43  116044.62  44.24
1306.7  260850.68  114921.98  44.06
1310.4  259507.15  113737.71  43.83
1314.1  258226.83  112529.42  43.58
1317.9  257112.08  111284.81  43.28
1321.6  255888.43  109901.95  42.95
1325.3  254470.65  108335.67  42.57
1329.0  253260.12  106821.77  42.18
1332.8  251497.40  104970.80  41.74
1336.5  249976.40  103203.76  41.29
1340.2  249597.83  101905.92  40.83
1343.9  249051.67  100531.43  40.37
1347.6  248142.45  99000.29  39.90
1351.4  247876.00  97777.33  39.45
1355.1  247631.27  96580.97  39.00
1358.8  247536.00  95392.00  38.54
1362.5  247056.95  93939.78  38.02
1366.2  245916.05  92037.70  37.43
1369.9  244554.38  89789.00  36.72
1373.6  242752.77  87020.36  35.85
1377.3  240932.70  83718.04  34.75
1381.0  239832.50  79985.74  33.35
1384.8  238371.25  75388.40  31.63
1388.4  236537.35  70245.61  29.70
1392.2  234945.33  64841.11  27.60
1395.9  233596.43  59403.53  25.43
1399.6  232333.85  54259.74  23.35
1403.3  231442.64  49713.04  21.48
1407.0  230570.20  45838.39  19.88
1410.7  229701.45  42707.66  18.59
1414.3  228790.28  40305.85  17.62
1418.1  227876.42  38565.59  16.92
1421.7  227102.69  37351.49  16.45
1425.4  226268.58  36545.44  16.15
1429.1  225428.25  36051.09  15.99
1432.8  224160.43  35729.73  15.94
1436.5  223495.73  35666.16  15.96
1440.2  222899.10  35734.40  16.03
1443.9  221902.63  35812.31  16.14
1447.6  220635.80  35900.70  16.27
1451.2  219728.67  36055.90  16.41
1454.9  218644.80  36206.34  16.56
1458.6  217652.02  36448.53  16.75
1462.3  216600.27  36793.01  16.99
1466.0  215410.51  37252.73  17.29
1469.7  213957.47  37822.93  17.68
1473.3  213036.33  38601.63  18.12
1477.0  211370.07  39338.40  18.61
1480.7  210009.78  40167.89  19.13
1484.4  208388.20  40944.98  19.65
1488.0  207064.00  41800.00  20.19
1491.7  205684.13  42617.05  20.72
1495.4  204253.42  43410.87  21.25
1499.0  202913.00  44175.29  21.77
1502.7  201818.92  44990.30  22.29
1506.4  200614.63  45730.27  22.80
1510.0  199394.97  46436.15  23.29
1513.7  198111.08  47084.92  23.77
1517.4  196954.33  47724.88  24.23
1521.0  195909.87  48360.95  24.69
1524.7  194857.00  48930.53  25.11
1528.3  193780.88  49465.75  25.53
1532.0  192748.97  49971.99  25.93
1535.7  191562.95  50380.86  26.30
1539.3  190457.90  50779.88  26.66
1543.0  189616.80  51224.48  27.01
1546.6  189012.42  51701.93  27.35
1550.3  188185.70  52080.34  27.67
1553.9  187246.77  52395.46  27.98
1557.6  186177.20  52639.14  28.27
1561.2  185102.55  52831.64  28.54
1564.9  184010.95  53007.14  28.81
1568.5  182857.38  53135.48  29.06
1572.2  181863.20  53287.64  29.30
1575.8  180964.00  53452.00  29.54
1579.5  180119.25  53598.51  29.76
1583.1  179250.60  53733.86  29.98
1586.8  178150.00  53784.00  30.19
1590.4  177184.87  53844.90  30.39
1594.0  176047.63  53842.18  30.58
1597.7  175186.03  53916.57  30.78
1601.3  174224.93  53947.02  30.96
1604.9  173242.95  53943.91  31.14
1608.6  172106.87  53863.80  31.30
1612.2  171090.98  53797.90  31.44
1615.8  170047.80  53703.93  31.58
1619.5  169031.83  53593.08  31.71
1623.1  167907.27  53432.48  31.82
1626.7  166875.48  53269.71  31.92
1630.3  165858.83  53098.05  32.01
1634.0  164906.00  52920.00  32.09
1637.6  164059.53  52738.95  32.15
1641.2  163218.85  52508.87  32.17
1644.8  162203.51  52167.58  32.16
1648.5  161279.13  51827.14  32.14
1652.1  160458.00  51474.07  32.08
1655.7  159679.00  51116.96  32.01
1659.3  158969.77  50805.16  31.96
1662.9  157760.00  50368.58  31.93
1666.6  156547.93  49945.71  31.90
1670.2  155330.53  49527.52  31.89
1673.8  154090.23  49084.77  31.85
1677.4  153116.90  48687.27  31.80
1681.0  152418.18  48330.53  31.71
1684.6  152085.92  48028.19  31.58
1688.2  151532.35  47584.43  31.40
1691.8  150976.43  47158.42  31.24
1695.4  150619.40  46781.90  31.06
1699.0  150289.77  46426.08  30.89
1702.6  149998.33  46058.12  30.71
1706.2  149472.05  45594.15  30.50
1709.8  148691.40  45061.09  30.31
1713.4  148070.07  44598.20  30.12
1717.0  147337.75  44143.59  29.96
1720.6  146627.10  43731.89  29.83
1724.2  146011.28  43351.80  29.69
1727.8  145413.10  42986.03  29.56
1731.4  145018.50  42676.27  29.43
1735.0  144832.23  42430.59  29.30
1738.6  144612.00  42140.98  29.14
1742.2  144103.43  41734.03  28.96
1745.8  143552.48  41284.51  28.76
1749.4  142720.88  40746.04  28.55
1753.0  141462.07  40080.44  28.33
1756.6  140037.04  39397.78  28.13
1760.1  138892.63  38806.29  27.94
1763.7  137432.67  38138.39  27.75
1767.3  136210.80  37560.30  27.58
1770.9  135144.04  37032.69  27.40
1774.5  133908.72  36481.78  27.24
1778.0  132911.89  36027.04  27.11
1781.6  131956.50  35624.14  27.00
1785.2  130972.93  35244.36  26.91
1788.8  129965.70  34903.65  26.86
1792.3  128874.00  34553.55  26.81
1795.9  128379.44  34372.69  26.77
1799.5  127887.00  34210.41  26.75
1803.1  127671.13  34130.02  26.73
1806.6  128583.53  34335.21  26.70
1810.2  129722.60  34608.35  26.68
1813.8  130269.70  34716.07  26.65
1817.3  129953.20  34594.97  26.62
1820.9  128871.25  34263.55  26.59
1824.5  127559.70  33860.52  26.54
1828.0  126483.50  33487.41  26.48
1831.6  125536.50  33124.76  26.39
1835.2  124780.00  32767.50  26.26
1838.7  124405.33  32435.29  26.07
1842.3  124170.00  32080.72  25.84
1845.8  123602.54  31546.71  25.52
1849.4  123181.00  30923.48  25.10
1852.9  122720.09  30148.75  24.57
1856.5  122035.40  29136.64  23.88
1860.0  121392.40  27942.21  23.02
1863.6  120968.28  26600.52  21.99
1867.1  120547.35  25031.65  20.76
1870.7  120450.48  23190.32  19.25
1874.2  120091.05  21002.69  17.49
1877.8  119294.67  18652.66  15.64
1881.3  118101.13  16218.38  13.73
1884.9  117133.13  13943.96  11.90
1888.4  116149.93  11836.86  10.19
1891.9  114965.33  10045.88  8.74
1895.5  113688.87  8635.87  7.60
1899.0  112758.38  7631.30  6.77
1901.3  147403.00  6638.90  4.50
1904.1  147205.13  6018.66  4.09
1906.8  146421.45  5541.30  3.78
1909.6  144794.74  5159.49  3.56
1912.4  143226.13  4882.84  3.41
1915.1  142063.35  4703.40  3.31
1917.9  140755.63  4571.80  3.25
1920.6  139682.45  4500.91  3.22
1923.3  138675.43  4462.65  3.22
1926.1  137484.80  4448.18  3.24
1928.8  136345.00  4455.00  3.27
1931.6  135437.88  4485.24  3.31
1934.3  134552.78  4536.05  3.37
1937.0  133679.75  4602.80  3.44
1939.8  132710.25  4681.12  3.53
1942.5  131538.00  4761.63  3.62
1945.2  130071.15  4838.35  3.72
1947.9  128858.10  4932.64  3.83
1950.7  127901.83  5045.71  3.94
1953.4  126432.45  5154.62  4.08
1956.1  125267.56  5278.05  4.21
1958.8  124244.74  5408.33  4.35
1961.5  123027.00  5546.45  4.51
1964.2  121771.65  5692.06  4.67
1966.9  120450.98  5834.99  4.84
1969.6  119414.25  6004.13  5.03
1972.3  118220.93  6163.25  5.21
1975.0  117324.45  6342.14  5.41
1977.7  116380.00  6521.03  5.60
1980.4  115424.13  6714.18  5.82
1983.1  114484.70  6906.87  6.03
1985.8  113685.08  7110.08  6.25
1988.4  112807.50  7308.17  6.48
1991.1  112004.55  7516.40  6.71
1993.8  111251.94  7727.00  6.95
1996.5  110702.63  7948.88  7.18
1999.1  110121.00  8162.14  7.41
2001.8  109524.63  8373.26  7.65
2004.5  108951.08  8582.97  7.88
2007.1  108321.79  8781.92  8.11
2009.8  107698.68  8975.44  8.33
2012.4  107212.88  9177.83  8.56
2015.1  106746.85  9366.10  8.77
2017.8  106073.45  9523.65  8.98
2020.4  105648.95  9699.14  9.18
2023.1  105354.73  9876.54  9.37
2025.7  105144.00  10054.42  9.56
2028.3  104858.00  10212.59  9.74
2031.0  104532.14  10354.88  9.91
2033.6  104295.60  10494.38  10.06
2036.2  104073.75  10620.53  10.20
2038.9  103564.80  10711.88  10.34
2041.5  103279.43  10815.21  10.47
2044.1  102814.43  10890.23  10.59
2046.8  102494.70  10980.49  10.71
2049.4  101966.18  11033.78  10.82
2052.0  101708.40  11115.35  10.93
2054.6  101351.25  11186.88  11.04
2057.2  100870.00  11244.17  11.15
2059.8  100614.55  11331.50  11.26
2062.4  99866.85  11357.82  11.37
2065.0  99415.90  11422.11  11.49
2067.6  98650.88  11450.44  11.61
2070.2  98140.95  11494.02  11.71
2072.8  97598.34  11534.33  11.82
2075.4  97223.44  11587.19  11.92
2078.0  96664.98  11617.06  12.02
2080.6  96188.40  11655.60  12.12
2083.2  95600.50  11679.40  12.22
2085.8  95189.38  11716.97  12.31
2088.4  94631.50  11731.78  12.40
2090.9  93950.40  11731.68  12.49
2093.5  93187.48  11717.75  12.57
2096.1  92528.03  11711.48  12.66
2098.7  91875.86  11698.30  12.73
2101.2  91051.55  11665.55  12.81
2103.8  90475.15  11662.28  12.89
2106.4  89905.30  11660.09  12.97
2108.9  89348.55  11650.27  13.04
2111.5  88614.95  11616.43  13.11
2114.0  88051.65  11603.33  13.18
2116.6  87609.38  11598.13  13.24
2119.1  87151.63  11592.83  13.30
2121.7  86736.56  11588.28  13.36
2124.2  86395.50  11585.15  13.41
2126.8  85723.14  11539.11  13.46
2129.3  85384.20  11536.80  13.51
2131.9  84869.40  11510.40  13.56
2134.4  84508.65  11501.69  13.61
2136.9  84180.69  11492.82  13.65
2139.4  83730.15  11474.58  13.70
2142.0  83357.75  11457.95  13.75
2144.5  83123.78  11468.77  13.80
2147.0  82932.60  11491.62  13.86
2149.5  82517.20  11482.68  13.92
2152.1  82372.68  11502.04  13.96
2154.6  82293.60  11527.14  14.01
2157.1  81838.56  11506.32  14.06
2159.6  81504.75  11501.77  14.11
2162.1  81374.48  11521.74  14.16
2164.6  81172.50  11528.55  14.20
2167.1  80914.35  11526.24  14.24
2169.6  80620.49  11520.84  14.29
2172.1  80212.28  11508.20  14.35
2174.6  79938.90  11512.68  14.40
2177.1  79595.30  11505.53  14.46
2179.5  79238.25  11494.44  14.51
2182.0  78813.49  11480.64  14.57
2184.5  78362.56  11453.54  14.62
2187.0  77825.00  11423.77  14.68
2189.5  77234.64  11387.12  14.74
2191.9  76572.38  11339.44  14.81
2194.4  76051.43  11308.40  14.87
2196.9  75398.40  11252.40  14.92
2199.3  74820.00  11206.09  14.98
2201.8  74051.20  11128.85  15.03
2204.3  73647.09  11102.65  15.08
2206.7  73114.09  11049.24  15.11
2209.2  72716.63  11019.92  15.15
2211.6  72163.58  10961.78  15.19
2214.1  71901.19  10933.81  15.21
2216.5  71423.15  10872.03  15.22
2219.0  71140.05  10844.72  15.24
2221.4  70812.44  10805.45  15.26
2223.9  70373.63  10736.04  15.26
2226.3  69942.25  10656.70  15.24
2228.7  69469.95  10561.58  15.20
2231.1  68948.55  10445.74  15.15
2233.6  68428.25  10321.98  15.08
2236.0  67963.88  10196.82  15.00
2238.4  67547.38  10066.66  14.90
2240.9  67161.75  9937.06  14.80
2243.3  66699.85  9788.06  14.67
2245.7  66207.30  9624.14  14.54
2248.1  65794.95  9469.58  14.39
2250.5  65343.41  9303.22  14.24
2252.9  64793.30  9119.51  14.07
2255.3  64296.90  8938.83  13.90
2257.7  63915.00  8780.00  13.74
2260.1  63503.48  8618.64  13.57
2262.5  62985.00  8446.25  13.41
2264.9  62513.14  8282.43  13.25
2267.3  61980.00  8117.50  13.10
2269.7  61562.03  7971.49  12.95
2272.1  61091.65  7833.04  12.82
2274.5  60611.31  7693.41  12.69
2276.8  60197.66  7567.59  12.57
2279.2  59689.46  7435.75  12.46
2281.6  59327.90  7324.76  12.35
2284.0  58925.93  7206.36  12.23
2286.3  58527.60  7089.54  12.11
2288.7  58190.11  6987.04  12.01
2291.1  57723.68  6864.01  11.89
2293.4  57334.20  6754.18  11.78
2295.8  56794.20  6629.34  11.67
2298.2  56270.36  6501.10  11.55
2300.5  55703.70  6373.02  11.44
2302.9  55048.25  6237.46  11.33
2305.2  54430.35  6107.90  11.22
2307.6  53853.00  5997.86  11.14
2309.9  53157.25  5878.38  11.06
2312.2  52630.25  5784.08  10.99
2314.6  52101.90  5691.21  10.92
2316.9  51488.66  5587.71  10.85
2319.2  50957.35  5499.52  10.79
2321.6  50392.91  5396.74  10.71
2323.9  49914.06  5298.18  10.61
2326.2  49454.00  5211.45  10.54
2328.6  49007.89  5129.65  10.47
2330.9  48565.13  5038.69  10.38
2333.2  48148.88  4959.62  10.30
2335.5  47756.78  4884.55  10.23
2337.8  47376.58  4802.63  10.14
2340.1  46883.24  4708.28  10.04
2342.4  46507.50  4631.25  9.96
2344.8  46136.56  4553.62  9.87
2347.1  45615.85  4467.55  9.79
2349.4  45121.51  4388.77  9.73
2351.6  44617.50  4308.90  9.66
2353.9  44205.05  4238.19  9.59
2356.2  43755.20  4164.59  9.52
2358.5  43243.20  4086.60  9.45
2360.8  42730.80  4009.60  9.38
2363.1  42331.70  3941.26  9.31
2365.4  41942.78  3871.67  9.23
2367.7  41535.90  3800.48  9.15
2369.9  41056.84  3726.98  9.08
2372.2  40514.60  3644.97  9.00
2374.5  39994.76  3564.62  8.91
2376.7  39441.49  3477.74  8.82
2379.0  38896.05  3396.94  8.73
2381.3  38368.75  3310.42  8.63
2383.5  37928.00  3238.40  8.54
2385.8  37382.70  3150.53  8.43
2388.0  36931.05  3078.33  8.34
2390.3  36481.10  3008.20  8.25
2392.5  36063.00  2928.00  8.12
2394.8  35673.83  2855.61  8.00
2397.0  35244.30  2786.12  7.91
2399.3  34823.01  2719.93  7.81
2401.5  34434.75  2656.72  7.72
2403.8  33984.76  2581.88  7.60
2406.0  33534.31  2500.41  7.46
2408.2  33173.80  2443.47  7.37
2410.4  32796.84  2382.76  7.27
2412.7  32431.43  2324.84  7.17
2414.9  32115.19  2265.93  7.06
2417.1  31765.88  2203.46  6.94
2419.3  31411.20  2142.40  6.82
2421.6  31077.50  2086.04  6.71
2423.8  30740.73  2027.67  6.60
2426.0  30410.21  1971.85  6.48
2428.2  30095.80  1915.90  6.37
2430.4  29814.70  1867.56  6.26
2432.6  29570.00  1820.00  6.15
2434.8  29313.10  1771.09  6.04
2437.0  28985.78  1722.83  5.94
2439.2  28678.99  1676.07  5.84
2441.4  28384.60  1625.78  5.73
2443.6  28165.28  1585.47  5.63
2445.7  27926.33  1548.00  5.54
2447.9  27680.25  1501.27  5.42
2450.1  27429.11  1457.69  5.31
2452.3  27114.59  1422.26  5.25
2454.5  26806.50  1379.33  5.15
2456.6  26482.50  1332.15  5.03
2458.8  26147.55  1288.79  4.93
2461.0  25895.94  1256.06  4.85
2463.1  25633.46  1220.39  4.76
2465.3  25385.18  1190.79  4.69
2467.5  25156.13  1172.63  4.66
2469.6  24925.75  1142.99  4.59
2471.8  24642.35  1107.48  4.49
2473.9  24367.13  1084.12  4.45
2476.1  24080.88  1057.88  4.39
2478.2  23752.58  1035.87  4.36
2480.4  23473.99  1003.51  4.27
2482.5  23166.94  981.26  4.24
2484.6  22872.44  954.48  4.17
2486.8  22643.33  936.12  4.13
2488.9  22372.88  909.52  4.07
2491.1  22062.60  888.53  4.03
2493.2  21698.70  870.19  4.01
2495.3  21344.38  849.77  3.98
2497.4  21046.73  829.16  3.94
2499.5  20742.99  811.20  3.91
2501.7  20644.38  809.35  3.92
2503.8  20536.43  798.22  3.89
2505.9  20500.00  787.97  3.84
2508.0  20494.50  770.74  3.76
2510.1  20467.48  766.75  3.75
2512.2  20561.18  768.41  3.74
2514.3  20687.09  773.57  3.74
2516.4  20803.20  807.71  3.88
