/*** Spectra Vista SIG Data ***/
name= 20_20221020_BENI_47_avg.sig
comm= Averaged Ref/Tar of files: HR.102022.0057_moc.sig,HR.102022.0058_moc.sig,HR.102022.0059_moc.sig
data=
337.3  3027.13  263.72  8.71
338.8  3126.50  255.62  8.18
340.3  3326.35  248.97  7.48
341.8  3475.10  251.71  7.24
343.2  3685.20  244.41  6.63
344.7  3838.50  236.40  6.16
346.2  4003.30  235.76  5.89
347.7  4207.78  226.96  5.39
349.2  4347.00  221.76  5.10
350.6  4553.90  227.35  4.99
352.1  4858.60  222.52  4.58
353.6  5135.60  236.62  4.61
355.1  5421.68  237.33  4.38
356.6  5702.85  247.22  4.33
358.0  5933.40  243.66  4.11
359.5  6210.90  257.21  4.14
361.0  6493.73  257.07  3.96
362.5  6850.35  262.08  3.83
364.0  7197.43  270.91  3.76
365.4  7558.90  282.07  3.73
366.9  7900.75  288.88  3.66
368.4  8237.05  303.92  3.69
369.9  8566.93  310.92  3.63
371.3  8971.20  332.61  3.71
372.8  9398.70  353.49  3.76
374.3  9809.38  349.12  3.56
375.8  10187.10  359.85  3.53
377.2  10598.60  361.74  3.41
378.7  10975.20  369.43  3.37
380.2  11351.80  382.75  3.37
381.7  11863.98  390.70  3.29
383.1  12316.15  395.78  3.21
384.6  12786.15  403.34  3.15
386.1  13242.25  410.27  3.10
387.6  13663.65  422.47  3.09
389.0  14096.80  438.50  3.11
390.5  14549.40  446.55  3.07
392.0  15076.50  460.48  3.05
393.4  15633.63  473.95  3.03
394.9  16155.90  486.21  3.01
396.4  16663.50  503.21  3.02
397.9  17194.38  513.48  2.99
399.3  17727.50  519.04  2.93
400.8  18245.10  540.28  2.96
402.2  18854.40  557.87  2.96
403.7  19428.53  570.00  2.93
405.2  19981.70  595.71  2.98
406.6  20555.20  611.15  2.97
408.1  21108.40  629.36  2.98
409.6  21708.55  641.36  2.95
411.0  22353.45  662.46  2.96
412.5  22969.98  685.84  2.99
414.0  23594.25  709.83  3.01
415.4  24247.50  732.16  3.02
416.9  24903.30  755.58  3.03
418.4  25584.75  787.91  3.08
419.8  26280.80  814.32  3.10
421.3  26987.05  846.09  3.14
422.7  27700.80  872.65  3.15
424.2  28451.25  903.54  3.18
425.7  29177.00  934.22  3.20
427.1  29925.08  966.68  3.23
428.6  30690.00  1001.74  3.26
430.0  31412.25  1036.52  3.30
431.5  32252.93  1071.76  3.32
432.9  33079.70  1110.05  3.36
434.4  33935.93  1144.64  3.37
435.9  34762.00  1178.40  3.39
437.3  35571.25  1216.02  3.42
438.8  36394.58  1253.55  3.44
440.2  37231.43  1293.86  3.48
441.7  38163.20  1334.13  3.50
443.1  39034.50  1370.43  3.51
444.6  39981.20  1413.80  3.54
446.0  40884.23  1453.94  3.56
447.5  41825.30  1498.81  3.58
448.9  42724.80  1542.84  3.61
450.4  43693.30  1588.78  3.64
451.8  44538.00  1630.32  3.66
453.3  45435.63  1674.10  3.68
454.7  46428.70  1716.77  3.70
456.2  47266.15  1758.80  3.72
457.6  48201.53  1793.77  3.72
459.1  49155.93  1836.31  3.74
460.5  50049.25  1881.42  3.76
462.0  51097.45  1926.99  3.77
463.4  52114.80  1971.23  3.78
464.8  53071.88  2007.78  3.78
466.3  54010.28  2045.25  3.79
467.7  54962.88  2087.12  3.80
469.2  55990.35  2128.68  3.80
470.6  56944.65  2172.80  3.82
472.0  57974.93  2220.90  3.83
473.5  58971.88  2262.69  3.84
474.9  59978.25  2306.60  3.85
476.4  61099.20  2355.02  3.85
477.8  62132.50  2400.37  3.86
479.2  63104.00  2450.36  3.88
480.7  64167.68  2498.80  3.89
482.1  65270.65  2552.28  3.91
483.6  66412.20  2607.33  3.93
485.0  67453.50  2662.30  3.95
486.4  68617.80  2722.37  3.97
487.9  69658.88  2778.19  3.99
489.3  70783.08  2845.43  4.02
490.7  71813.83  2914.15  4.06
492.2  72985.50  2998.52  4.11
493.6  74055.75  3073.99  4.15
495.0  75157.88  3159.56  4.20
496.5  76295.33  3255.05  4.27
497.9  77366.60  3359.60  4.34
499.3  78496.58  3480.07  4.43
500.7  79710.65  3620.92  4.54
502.2  80840.20  3770.69  4.66
503.6  82066.60  3946.17  4.81
505.0  83124.10  4129.07  4.97
506.5  84394.80  4353.98  5.16
507.9  85525.43  4599.42  5.38
509.3  86831.60  4892.46  5.63
510.7  88027.88  5211.51  5.92
512.2  89397.60  5574.39  6.24
513.6  90835.50  5984.09  6.59
515.0  92234.90  6436.20  6.98
516.4  93583.35  6925.23  7.40
517.8  95160.13  7474.95  7.86
519.3  96455.98  8034.55  8.33
520.7  97984.70  8650.79  8.83
522.1  99250.45  9266.62  9.34
523.5  100580.40  9900.77  9.84
524.9  102002.40  10544.34  10.34
526.3  103391.75  11171.68  10.81
527.8  104826.15  11799.39  11.26
529.2  105864.50  12386.87  11.70
530.6  107377.95  13011.33  12.12
532.0  109004.00  13621.33  12.50
533.4  110310.45  14162.99  12.84
534.8  111169.35  14610.22  13.14
536.3  112694.40  15121.50  13.42
537.7  114571.80  15658.80  13.67
539.1  115953.60  16112.18  13.90
540.5  117126.00  16527.32  14.11
541.9  118797.98  17006.46  14.32
543.3  120079.05  17421.81  14.51
544.7  121364.40  17833.73  14.69
546.1  123134.28  18315.32  14.87
547.5  124331.20  18704.85  15.04
549.0  125939.00  19138.74  15.20
550.4  127393.75  19535.02  15.33
551.8  128931.25  19901.87  15.44
553.2  130403.28  20224.53  15.51
554.6  131695.20  20471.16  15.54
556.0  133173.45  20692.71  15.54
557.4  134741.25  20885.61  15.50
558.8  136350.90  21042.44  15.43
560.2  137769.63  21122.91  15.33
561.6  139392.68  21184.79  15.20
563.0  140951.60  21195.21  15.04
564.4  142509.40  21174.55  14.86
565.8  143990.00  21113.60  14.66
567.2  145705.50  21041.13  14.44
568.6  147160.50  20895.12  14.20
570.0  148535.65  20686.52  13.93
571.4  150202.65  20481.65  13.64
572.8  151923.00  20270.17  13.34
574.2  153507.20  20043.73  13.06
575.6  155025.00  19821.86  12.79
577.0  156516.30  19617.23  12.53
578.4  158192.13  19455.58  12.30
579.8  159663.15  19296.80  12.09
581.2  161343.93  19180.11  11.89
582.5  162735.30  19048.94  11.71
583.9  164220.60  18948.33  11.54
585.3  165960.23  18894.20  11.38
586.7  167412.05  18826.34  11.25
588.1  168852.75  18777.35  11.12
589.5  170471.00  18766.07  11.01
590.9  172050.00  18775.02  10.91
592.3  173804.95  18816.16  10.83
593.7  175244.55  18848.09  10.76
595.0  176805.45  18907.96  10.69
596.4  178230.85  18963.24  10.64
597.8  179689.73  19025.00  10.59
599.2  181170.00  19080.16  10.53
600.6  182872.30  19143.84  10.47
602.0  184137.30  19130.75  10.39
603.3  185878.90  19137.50  10.30
604.7  187511.60  19097.07  10.18
606.1  188963.40  19004.31  10.06
607.5  190549.70  18884.69  9.91
608.9  192218.05  18743.24  9.75
610.2  193559.63  18548.73  9.58
611.6  195120.83  18358.65  9.41
613.0  196650.05  18159.93  9.23
614.4  197996.40  17949.16  9.07
615.8  199397.25  17754.75  8.90
617.1  200904.90  17582.60  8.75
618.5  202478.80  17452.16  8.62
619.9  203979.98  17341.43  8.50
621.3  205547.63  17273.65  8.40
622.6  207095.00  17239.47  8.32
624.0  208528.65  17228.66  8.26
625.4  209966.63  17249.67  8.22
626.8  211468.08  17304.26  8.18
628.1  212709.75  17360.13  8.16
629.5  214444.93  17471.17  8.15
630.9  215894.25  17550.48  8.13
632.2  217161.18  17591.92  8.10
633.6  218652.00  17608.41  8.05
635.0  220056.80  17555.47  7.98
636.3  221509.20  17438.07  7.87
637.7  222834.38  17231.04  7.73
639.1  224420.00  16980.00  7.57
640.4  225868.83  16669.71  7.38
641.8  227037.03  16295.11  7.18
643.2  228557.00  15921.74  6.97
644.5  229877.00  15538.92  6.76
645.9  231399.90  15175.74  6.56
647.2  232352.58  14810.92  6.37
648.6  233786.25  14530.24  6.22
650.0  235072.80  14285.21  6.08
651.3  236101.80  14075.42  5.96
652.7  238337.00  13959.96  5.86
654.0  240427.10  13833.78  5.75
655.4  241756.63  13670.64  5.65
656.8  241936.60  13416.78  5.55
658.1  243298.60  13201.89  5.43
659.5  245435.40  12988.15  5.29
660.8  246712.50  12709.71  5.15
662.2  247699.20  12405.76  5.01
663.5  249165.35  12146.22  4.87
664.9  250172.00  11894.85  4.75
666.2  250926.60  11674.24  4.65
667.6  252607.38  11538.84  4.57
668.9  253496.35  11417.82  4.50
670.3  255343.50  11376.73  4.46
671.6  256340.25  11339.38  4.42
673.0  257490.75  11354.55  4.41
674.3  258724.70  11409.07  4.41
675.7  260021.43  11492.46  4.42
677.0  261062.33  11597.32  4.44
678.4  262339.78  11748.34  4.48
679.7  263374.95  11932.10  4.53
681.1  264613.03  12181.20  4.60
682.4  265686.20  12503.55  4.71
683.8  266857.50  12935.02  4.85
685.1  267867.38  13507.63  5.04
686.4  269152.80  14303.14  5.31
687.8  270359.75  15388.10  5.69
689.1  271427.75  16823.97  6.20
690.5  272737.05  18735.26  6.87
691.8  273520.75  21149.62  7.73
693.1  274857.75  24216.52  8.81
694.5  276025.75  27833.87  10.08
695.8  277277.00  31952.70  11.52
697.1  278414.50  36510.93  13.11
698.5  279437.00  41415.61  14.82
699.8  280467.08  46595.18  16.61
701.1  281623.50  51974.56  18.46
702.5  282393.65  57353.46  20.31
703.8  283320.00  62743.71  22.15
705.1  284461.13  68089.99  23.94
706.5  285437.88  73278.76  25.67
707.8  286392.90  78317.38  27.35
709.1  287188.80  83147.23  28.95
710.5  288282.73  87904.79  30.49
711.8  289097.20  92422.24  31.97
713.1  290056.10  96832.55  33.38
714.4  290948.10  101059.78  34.73
715.8  291750.90  105097.56  36.02
717.1  293008.50  109159.53  37.25
718.4  293955.20  112931.84  38.42
719.7  295006.85  116587.03  39.52
721.0  295515.00  119867.57  40.56
722.4  296239.35  123059.00  41.54
723.7  297190.65  126167.83  42.45
725.0  298174.73  129138.17  43.31
726.3  299053.15  131906.76  44.11
727.6  299600.95  134340.99  44.84
729.0  300455.05  136761.82  45.52
730.3  301236.08  138992.06  46.14
731.6  302130.65  141113.14  46.71
732.9  302854.30  143052.14  47.23
734.2  303617.88  144867.56  47.71
735.5  304578.18  146663.36  48.15
736.8  305350.80  148242.37  48.55
738.1  306182.90  149738.28  48.90
739.5  307119.20  151191.37  49.23
740.8  307797.60  152423.77  49.52
742.1  308423.98  153586.12  49.80
743.4  309050.00  154647.14  50.04
744.7  309904.25  155776.67  50.27
746.0  310765.65  156822.34  50.46
747.3  311328.43  157666.71  50.64
748.6  312038.50  158538.58  50.81
749.9  312702.00  159303.24  50.94
751.2  313277.00  160010.11  51.08
752.5  314009.20  160748.78  51.19
753.8  314490.58  161335.71  51.30
755.1  315120.00  161947.31  51.39
756.4  315648.20  162495.15  51.48
757.7  316602.65  163217.08  51.55
759.0  318292.83  164303.87  51.62
760.3  319413.60  165056.32  51.67
761.6  320875.80  165988.56  51.73
762.9  321347.75  166381.94  51.78
764.2  321670.20  166677.52  51.82
765.5  321867.75  166905.37  51.86
766.8  322238.40  167204.36  51.89
768.1  322689.80  167539.26  51.92
769.3  323228.50  167902.39  51.95
770.6  323828.70  168297.33  51.97
771.9  324463.30  168705.46  52.00
773.2  324782.40  168929.15  52.01
774.5  325325.00  169273.32  52.03
775.8  325918.45  169635.25  52.05
777.1  326392.55  169951.72  52.07
778.4  326646.93  170143.76  52.09
779.6  327331.70  170545.63  52.10
780.9  327720.00  170800.57  52.12
782.2  328152.00  171066.92  52.13
783.5  328363.00  171238.04  52.15
784.8  328779.45  171510.89  52.17
786.0  329099.75  171717.19  52.18
787.3  329385.88  171915.85  52.19
788.6  329738.83  172137.48  52.20
789.9  330114.40  172381.01  52.22
791.2  330701.40  172713.27  52.23
792.4  331266.85  173047.15  52.24
793.7  331662.00  173297.01  52.25
795.0  332195.33  173602.79  52.26
796.2  332803.90  173939.27  52.26
797.5  333394.73  174285.77  52.28
798.8  333968.23  174636.16  52.29
800.0  334524.48  174945.44  52.30
801.3  334863.60  175173.02  52.31
802.6  335392.88  175467.17  52.32
803.8  335950.48  175797.39  52.33
805.1  336367.50  176038.42  52.34
806.4  336727.80  176273.82  52.35
807.7  337194.90  176539.42  52.36
808.9  337696.50  176816.68  52.36
810.2  338112.95  177066.48  52.37
811.4  338564.30  177321.44  52.37
812.7  339137.50  177653.51  52.38
814.0  339857.85  178083.88  52.40
815.2  340429.50  178397.35  52.40
816.5  340821.05  178613.08  52.41
817.7  341257.40  178856.72  52.41
819.0  341690.80  179133.18  52.43
820.2  341836.00  179234.21  52.43
821.5  342465.50  179592.51  52.44
822.7  342822.30  179796.94  52.45
824.0  343056.60  179952.48  52.46
825.2  343537.20  180193.80  52.45
826.5  343831.08  180374.39  52.46
827.7  344387.28  180683.77  52.47
829.0  344729.38  180903.40  52.48
830.2  345012.65  181075.54  52.48
831.5  345483.35  181345.27  52.49
832.7  345780.75  181513.19  52.49
834.0  346143.70  181705.49  52.49
835.2  346559.95  181905.58  52.49
836.4  346828.35  182093.20  52.50
837.7  347259.40  182358.74  52.51
838.9  347688.48  182614.01  52.52
840.1  348083.33  182830.38  52.52
841.4  348512.50  183055.43  52.52
842.6  348938.60  183283.25  52.53
843.8  349314.60  183502.83  52.53
845.1  349749.55  183806.38  52.55
846.3  350262.80  184058.25  52.55
847.5  350601.30  184307.76  52.57
848.8  351085.80  184537.15  52.56
850.0  351466.50  184757.83  52.57
851.2  352020.60  185054.04  52.57
852.5  352428.30  185279.53  52.57
853.7  352937.25  185590.89  52.58
854.9  353436.70  185845.50  52.58
856.1  353897.70  186117.17  52.59
857.4  354182.15  186240.99  52.58
858.6  354714.55  186527.93  52.59
859.8  355130.63  186750.89  52.59
861.0  355492.80  187008.79  52.61
862.2  355943.60  187258.93  52.61
863.5  356395.65  187468.72  52.60
864.7  356974.20  187749.13  52.59
865.9  357384.60  187976.70  52.60
867.1  357699.60  188144.68  52.60
868.3  358082.40  188372.50  52.61
869.5  358581.00  188642.28  52.61
870.8  359167.50  188918.57  52.60
872.0  359715.90  189212.07  52.60
873.2  360115.20  189437.09  52.60
874.4  360599.85  189660.34  52.60
875.6  360981.88  189862.98  52.60
876.8  361473.30  190123.54  52.60
878.0  362036.10  190358.03  52.58
879.2  362502.90  190630.26  52.59
880.4  363016.13  190888.00  52.58
881.6  363503.35  191137.89  52.58
882.8  363971.20  191329.86  52.57
884.0  364480.75  191612.74  52.57
885.2  365007.40  191842.50  52.56
886.5  365617.75  192156.32  52.56
887.7  365951.63  192365.42  52.57
888.8  366651.68  192696.30  52.56
890.0  367211.40  192966.92  52.55
891.2  367678.80  193229.03  52.55
892.4  368316.90  193508.91  52.54
893.6  368924.15  193749.76  52.52
894.8  369690.50  194170.60  52.52
896.0  370500.25  194582.93  52.52
897.2  371263.75  194973.32  52.52
898.4  371962.80  195326.75  52.51
899.6  372495.75  195544.19  52.50
900.8  372888.23  195710.97  52.49
902.0  373041.60  195767.39  52.48
903.2  373326.00  195861.79  52.46
904.3  373459.20  196007.36  52.48
905.5  373999.15  196266.25  52.48
906.7  374663.50  196519.30  52.45
907.9  375043.55  196744.19  52.46
909.1  375314.85  196840.39  52.45
910.2  375407.25  196860.70  52.44
911.4  375605.10  196944.26  52.43
912.6  375711.05  196982.77  52.43
913.8  375959.48  197026.21  52.41
915.0  376224.45  197187.76  52.41
916.2  376320.75  197165.06  52.39
917.3  376303.28  197117.36  52.38
918.5  376379.30  197174.60  52.39
919.7  376496.10  197194.70  52.38
920.8  376460.75  197168.39  52.37
922.0  376491.50  197158.50  52.37
923.2  376603.50  197194.40  52.36
924.4  376795.13  197204.14  52.34
925.5  376986.10  197237.75  52.32
926.7  377578.50  197385.99  52.28
927.9  378273.60  197768.73  52.28
929.0  379647.00  198428.27  52.27
930.2  381704.30  199424.29  52.25
931.4  383981.85  200526.29  52.22
932.5  386521.95  201761.64  52.20
933.7  387797.05  202303.30  52.17
934.9  388338.13  202538.00  52.16
936.0  387827.38  202205.13  52.14
937.2  385663.95  200972.90  52.11
938.3  383776.40  199952.79  52.10
939.5  382222.80  198959.86  52.05
940.7  382477.50  198893.21  52.00
941.8  383654.48  199496.65  52.00
943.0  384849.75  200073.73  51.99
944.2  385756.80  200372.27  51.94
945.3  385134.75  199907.69  51.91
946.5  384494.85  199273.58  51.83
947.6  384260.50  199130.76  51.82
948.8  383975.48  198855.30  51.79
949.9  383943.00  198708.48  51.75
951.1  383604.33  198218.01  51.67
952.2  383316.00  197821.71  51.61
953.4  382998.00  197452.01  51.55
954.5  382870.80  197109.57  51.48
955.7  382775.40  196713.12  51.39
956.8  382196.60  196267.72  51.35
958.0  381644.50  195865.07  51.32
959.1  381475.25  195538.04  51.26
960.3  381068.58  195132.69  51.21
961.4  380674.65  194868.61  51.19
962.6  380962.75  194786.60  51.13
963.7  380499.08  194432.91  51.10
964.9  380051.85  194226.41  51.11
966.0  379847.48  194017.72  51.08
967.2  379847.70  193926.35  51.05
968.3  379618.65  193759.41  51.04
969.5  379103.70  193508.50  51.04
970.6  379384.65  193412.75  50.98
971.8  379371.48  193354.41  50.97
972.9  379041.15  193359.46  51.01
974.0  379347.60  193385.96  50.98
975.2  379331.00  193226.20  50.94
976.3  378960.93  193111.81  50.96
977.5  378931.35  193157.38  50.97
978.6  379294.80  193153.04  50.92
979.7  379279.43  193051.67  50.90
980.9  378777.00  192952.95  50.94
982.0  378680.55  192811.91  50.92
983.2  378084.50  192691.71  50.97
984.3  377941.00  192484.48  50.93
985.4  377809.48  192538.74  50.96
986.6  378301.00  192226.97  50.81
987.7  378290.50  192710.75  50.94
988.9  377791.20  192506.74  50.96
990.0  378404.00  192584.07  50.89
993.1  386297.39  195487.59  50.61
996.9  384753.75  195219.20  50.74
1000.7  384655.83  195578.92  50.85
1004.5  384714.25  196013.67  50.95
1008.4  384335.79  196229.31  51.06
1012.2  384222.67  196519.69  51.15
1016.0  383775.60  196681.47  51.25
1019.8  382986.45  196627.20  51.34
1023.7  381693.17  196234.30  51.41
1027.5  379825.08  195532.27  51.48
1031.3  378604.75  195110.93  51.53
1035.1  377444.55  194672.32  51.58
1038.9  376899.42  194551.78  51.62
1042.7  376616.83  194528.81  51.65
1046.5  376510.83  194565.44  51.68
1050.3  376493.08  194651.48  51.70
1054.2  376132.17  194562.02  51.73
1058.0  375792.96  194432.37  51.74
1061.8  375765.59  194452.64  51.75
1065.6  375116.33  194122.12  51.75
1069.4  374187.33  193646.78  51.75
1073.2  372805.25  192884.62  51.74
1077.0  372159.88  192473.60  51.72
1080.8  372468.75  192527.78  51.69
1084.6  372722.58  192574.17  51.67
1088.4  373107.78  192681.68  51.64
1092.2  372703.50  192335.00  51.61
1096.0  372037.99  191827.83  51.56
1099.8  371310.77  191291.05  51.52
1103.6  370380.33  190625.40  51.47
1107.4  369213.59  189799.15  51.41
1111.2  368908.60  189431.06  51.35
1114.9  368397.75  188919.11  51.28
1118.7  368190.90  188475.65  51.19
1122.5  367885.27  187863.67  51.07
1126.3  367031.93  186857.14  50.91
1130.1  366659.43  185891.17  50.70
1133.9  365008.70  184010.87  50.41
1137.7  363423.70  181950.29  50.07
1141.4  361359.70  179462.64  49.66
1145.2  360388.95  177446.41  49.24
1149.0  359132.08  175370.74  48.83
1152.8  357300.70  173224.80  48.48
1156.6  355460.23  171371.48  48.21
1160.3  353660.67  169825.04  48.02
1164.1  351359.10  168260.11  47.89
1167.9  349767.71  167197.22  47.80
1171.7  348468.75  166383.00  47.75
1175.4  346953.93  165512.24  47.70
1179.2  345565.60  164646.52  47.65
1183.0  345249.33  164283.48  47.58
1186.7  345369.50  164144.45  47.53
1190.5  345137.73  163885.23  47.48
1194.3  344233.17  163342.16  47.45
1198.0  342694.55  162579.94  47.44
1201.8  341005.98  161774.55  47.44
1205.6  339980.33  161370.74  47.46
1209.3  339474.98  161294.10  47.51
1213.1  339083.70  161314.98  47.57
1216.8  338469.63  161327.96  47.66
1220.6  337321.60  161086.28  47.75
1224.3  336054.42  160764.85  47.84
1228.1  334494.80  160343.16  47.94
1231.9  332880.43  159814.23  48.01
1235.6  331094.10  159196.75  48.08
1239.4  329550.75  158643.61  48.14
1243.1  328144.12  158131.55  48.19
1246.9  326886.06  157624.73  48.22
1250.6  325830.73  157211.57  48.25
1254.3  324659.78  156724.58  48.27
1258.1  323389.15  156165.88  48.29
1261.8  321963.07  155476.62  48.29
1265.6  320847.20  154909.66  48.28
1269.3  320221.00  154532.77  48.26
1273.1  320623.88  154630.96  48.23
1276.8  320292.00  154331.29  48.18
1280.6  318986.33  153533.88  48.13
1284.3  316946.40  152326.84  48.06
1288.0  315770.48  151466.17  47.97
1291.8  315445.65  150953.66  47.85
1295.5  314793.60  150240.77  47.73
1299.2  313648.70  149220.17  47.58
1302.9  312010.58  147873.35  47.39
1306.7  310209.20  146373.89  47.19
1310.4  308459.43  144766.43  46.93
1314.1  306844.08  143134.73  46.65
1317.9  305413.75  141461.16  46.32
1321.6  303894.10  139628.30  45.95
1325.3  302231.48  137620.47  45.53
1329.0  300959.40  135702.41  45.09
1332.8  299068.00  133425.60  44.61
1336.5  297425.20  131239.05  44.13
1340.2  297342.50  129742.41  43.63
1343.9  297398.96  128304.26  43.14
1347.6  297752.40  127026.47  42.66
1351.4  299553.00  126387.00  42.19
1355.1  302089.33  126056.25  41.73
1358.8  304176.00  125464.89  41.25
1362.5  304639.95  124051.47  40.72
1366.2  302537.95  121315.21  40.10
1369.9  299053.25  117718.42  39.36
1373.6  296105.89  113798.92  38.43
1377.3  294690.60  109763.00  37.25
1381.0  294330.33  105241.41  35.76
1384.8  292337.50  99182.78  33.93
1388.4  288930.72  92085.31  31.87
1392.2  286637.17  85002.20  29.65
1395.9  285148.85  78130.78  27.40
1399.6  283267.48  71556.83  25.26
1403.3  281695.97  65740.26  23.34
1407.0  279868.20  60696.20  21.69
1410.7  277917.75  56517.08  20.34
1414.3  275873.85  53153.76  19.27
1418.1  274072.54  50598.42  18.46
1421.7  272590.73  48674.00  17.86
1425.4  271177.08  47247.27  17.42
1429.1  269892.75  46210.42  17.12
1432.8  268197.45  45420.34  16.94
1436.5  267417.58  45004.03  16.83
1440.2  266812.67  44797.41  16.79
1443.9  265728.56  44640.10  16.80
1447.6  264140.80  44495.73  16.85
1451.2  262898.35  44459.72  16.91
1454.9  261413.25  44456.83  17.01
1458.6  260165.24  44607.61  17.15
1462.3  258949.17  44902.90  17.34
1466.0  257586.18  45337.90  17.60
1469.7  255885.18  45893.73  17.94
1473.3  254836.67  46708.52  18.33
1477.0  252761.03  47456.78  18.78
1480.7  251080.07  48336.29  19.25
1484.4  249060.46  49174.92  19.74
1488.0  247470.67  50127.41  20.26
1491.7  245884.18  51077.32  20.77
1495.4  244245.16  52018.54  21.30
1499.0  242730.00  52954.00  21.82
1502.7  241435.92  53924.74  22.34
1506.4  240013.90  54839.26  22.85
1510.0  238544.13  55717.13  23.36
1513.7  237055.88  56541.01  23.85
1517.4  235683.00  57355.63  24.34
1521.0  234429.87  58163.62  24.81
1524.7  233177.75  58912.15  25.26
1528.3  231876.00  59610.64  25.71
1532.0  230652.22  60284.44  26.14
1535.7  229260.42  60857.08  26.54
1539.3  227991.64  61418.85  26.94
1543.0  227019.05  62019.56  27.32
1546.6  226305.08  62664.57  27.69
1550.3  225305.80  63190.65  28.05
1553.9  224266.70  63664.55  28.39
1557.6  223030.87  64043.80  28.72
1561.2  221735.25  64362.20  29.03
1564.9  220416.79  64641.42  29.33
1568.5  219079.00  64884.53  29.62
1572.2  217915.50  65145.17  29.89
1575.8  216818.00  65411.11  30.17
1579.5  215796.85  65664.39  30.43
1583.1  214716.85  65891.50  30.69
1586.8  213388.00  66011.56  30.93
1590.4  212155.93  66140.66  31.18
1594.0  210817.21  66221.47  31.41
1597.7  210048.06  66472.70  31.65
1601.3  209180.48  66669.75  31.87
1604.9  208218.47  66813.29  32.09
1608.6  206855.45  66787.51  32.29
1612.2  205452.23  66718.48  32.47
1615.8  203993.08  66611.06  32.65
1619.5  202710.17  66527.85  32.82
1623.1  201357.43  66397.53  32.97
1626.7  200135.98  66275.66  33.12
1630.3  198966.58  66141.27  33.24
1634.0  197848.00  66008.44  33.36
1637.6  196863.00  65872.64  33.46
1641.2  195828.90  65666.58  33.53
1644.8  194582.13  65343.53  33.58
1648.5  193492.68  65000.16  33.59
1652.1  192535.50  64631.27  33.57
1655.7  191600.60  64218.71  33.52
1659.3  190769.38  63822.62  33.46
1662.9  189323.33  63214.82  33.39
1666.6  187888.47  62631.05  33.33
1670.2  186455.68  62084.72  33.30
1673.8  184983.83  61532.24  33.26
1677.4  183788.05  61064.42  33.23
1681.0  182960.93  60675.76  33.16
1684.6  182562.25  60373.69  33.07
1688.2  181869.95  59914.24  32.94
1691.8  181168.89  59454.71  32.82
1695.4  180737.60  59046.76  32.67
1699.0  180364.80  58631.85  32.51
1702.6  180012.33  58190.15  32.33
1706.2  179383.75  57620.52  32.12
1709.8  178412.35  56941.89  31.92
1713.4  177666.55  56345.96  31.71
1717.0  176778.75  55725.50  31.52
1720.6  175955.48  55137.02  31.34
1724.2  175219.50  54572.43  31.15
1727.8  174504.75  54046.22  30.97
1731.4  174028.25  53646.69  30.83
1735.0  173865.63  53380.06  30.70
1738.6  173658.00  53075.90  30.56
1742.2  173135.03  52618.05  30.39
1745.8  172521.79  52100.42  30.20
1749.4  171578.55  51462.77  29.99
1753.0  170090.00  50652.47  29.78
1756.6  168434.00  49803.32  29.57
1760.1  167102.29  49068.37  29.36
1763.7  165354.67  48252.30  29.18
1767.3  163874.83  47565.19  29.03
1770.9  162610.99  46949.99  28.87
1774.5  161117.93  46303.66  28.74
1778.0  159953.06  45791.06  28.63
1781.6  158862.90  45338.90  28.54
1785.2  157702.40  44914.73  28.48
1788.8  156541.70  44524.87  28.44
1792.3  155288.60  44136.04  28.42
1795.9  154730.77  43972.23  28.42
1799.5  154598.67  43953.70  28.43
1803.1  155895.95  44339.73  28.44
1806.6  158282.02  45034.97  28.45
1810.2  160125.00  45568.81  28.46
1813.8  160919.80  45792.98  28.46
1817.3  160331.00  45622.53  28.46
1820.9  159013.35  45229.18  28.44
1824.5  157579.90  44774.61  28.41
1828.0  156456.21  44376.44  28.36
1831.6  156072.78  44145.94  28.29
1835.2  155932.50  43922.97  28.17
1838.7  155782.80  43612.92  28.00
1842.3  155580.00  43193.33  27.76
1845.8  154308.21  42347.72  27.44
1849.4  153651.28  41517.71  27.02
1852.9  152755.93  40430.69  26.47
1856.5  151673.95  39052.47  25.75
1860.0  150596.81  37410.71  24.84
1863.6  150623.73  35764.79  23.74
1867.1  151451.65  33968.43  22.43
1870.7  152481.93  31795.78  20.85
1874.2  151382.25  28851.70  19.06
1877.8  148490.47  25463.48  17.15
1881.3  145275.00  22035.44  15.17
1884.9  143263.73  19006.41  13.27
1888.4  141626.16  16274.25  11.49
1891.9  139944.93  13962.09  9.98
1895.5  138527.12  12148.18  8.77
1899.0  137882.13  10856.56  7.87
1901.3  176987.67  10245.61  5.79
1904.1  176891.25  9374.00  5.30
1906.8  175827.00  8638.60  4.91
1909.6  173577.25  8026.55  4.62
1912.4  171470.25  7583.76  4.42
1915.1  169942.85  7264.95  4.27
1917.9  168388.83  7024.83  4.17
1920.6  167058.20  6853.49  4.10
1923.3  165650.10  6715.02  4.05
1926.1  163885.87  6589.89  4.02
1928.8  162213.33  6512.00  4.01
1931.6  160936.53  6470.81  4.02
1934.3  159811.85  6474.36  4.05
1937.0  158727.50  6508.14  4.10
1939.8  157510.17  6540.72  4.15
1942.5  155925.00  6581.67  4.22
1945.2  153918.05  6621.82  4.30
1947.9  152265.87  6685.55  4.39
1950.7  150953.60  6774.81  4.49
1953.4  149037.30  6853.72  4.60
1956.1  147559.17  6974.61  4.73
1958.8  146243.72  7096.19  4.85
1961.5  144688.40  7215.87  4.99
1964.2  143097.50  7337.63  5.13
1966.9  141460.55  7469.27  5.28
1969.6  140166.00  7623.00  5.44
1972.3  138733.20  7778.60  5.61
1975.0  137644.05  7967.95  5.79
1977.7  136499.63  8146.60  5.97
1980.4  135322.27  8334.18  6.16
1983.1  134201.80  8530.71  6.36
1985.8  133266.60  8743.50  6.56
1988.4  132227.33  8938.22  6.76
1991.1  131278.47  9157.09  6.98
1993.8  130378.78  9372.06  7.19
1996.5  129706.68  9598.97  7.40
1999.1  129017.35  9831.62  7.62
2001.8  128325.87  10066.47  7.84
2004.5  127630.75  10284.85  8.06
2007.1  126886.85  10498.22  8.27
2009.8  126115.73  10711.09  8.49
2012.4  125527.60  10931.68  8.71
2015.1  124958.87  11148.51  8.92
2017.8  124155.97  11341.32  9.13
2020.4  123631.93  11543.46  9.34
2023.1  123258.10  11752.84  9.54
2025.7  123032.00  11962.89  9.72
2028.3  122685.33  12153.56  9.91
2031.0  122261.33  12336.12  10.09
2033.6  121982.70  12504.80  10.25
2036.2  121713.00  12673.00  10.41
2038.9  121095.30  12791.90  10.56
2041.5  120734.55  12923.91  10.70
2044.1  120173.10  13026.80  10.84
2046.8  119790.30  13148.60  10.98
2049.4  119137.80  13232.70  11.11
2052.0  118843.20  13347.45  11.23
2054.6  118431.25  13445.83  11.35
2057.2  117856.33  13533.75  11.48
2059.8  117515.73  13650.20  11.62
2062.4  116629.00  13688.07  11.74
2065.0  116092.20  13769.56  11.86
2067.6  115182.03  13804.29  11.98
2070.2  114571.87  13876.94  12.11
2072.8  113926.83  13935.04  12.23
2075.4  113478.75  14023.33  12.36
2078.0  112839.48  14079.68  12.48
2080.6  112252.80  14132.80  12.59
2083.2  111547.07  14169.86  12.70
2085.8  111038.90  14231.93  12.82
2088.4  110372.50  14271.72  12.93
2090.9  109555.90  14297.69  13.05
2093.5  108662.83  14298.43  13.16
2096.1  107876.90  14305.12  13.26
2098.7  107095.18  14319.76  13.37
2101.2  106110.00  14299.38  13.48
2103.8  105411.33  14322.67  13.59
2106.4  104738.87  14343.05  13.69
2108.9  104083.87  14357.60  13.79
2111.5  103236.73  14345.95  13.90
2114.0  102573.00  14366.34  14.01
2116.6  102033.75  14393.75  14.11
2119.1  101474.17  14409.48  14.20
2121.7  100983.75  14446.25  14.31
2124.2  100562.43  14467.92  14.39
2126.8  99743.53  14436.87  14.47
2129.3  99334.40  14458.40  14.56
2131.9  98744.80  14440.80  14.62
2134.4  98305.80  14455.00  14.70
2136.9  97903.22  14467.99  14.78
2139.4  97356.00  14473.35  14.87
2142.0  96894.93  14476.31  14.94
2144.5  96636.20  14512.93  15.02
2147.0  96390.67  14561.33  15.11
2149.5  95863.60  14564.31  15.19
2152.1  95699.45  14618.88  15.28
2154.6  95635.20  14697.07  15.37
2157.1  95084.33  14699.86  15.46
2159.6  94666.50  14721.05  15.55
2162.1  94512.60  14772.33  15.63
2164.6  94256.00  14811.22  15.71
2167.1  93917.95  14828.02  15.79
2169.6  93576.82  14848.05  15.87
2172.1  93118.17  14844.12  15.94
2174.6  92796.40  14863.73  16.02
2177.1  92350.60  14862.62  16.09
2179.5  91918.23  14863.19  16.17
2182.0  91424.30  14847.80  16.24
2184.5  90877.58  14841.30  16.33
2187.0  90258.13  14800.90  16.40
2189.5  89560.60  14752.91  16.47
2191.9  88777.50  14690.17  16.55
2194.4  88127.40  14643.33  16.62
2196.9  87369.60  14582.40  16.69
2199.3  86690.67  14532.22  16.76
2201.8  85789.60  14424.80  16.81
2204.3  85306.83  14394.51  16.87
2206.7  84650.90  14325.18  16.92
2209.2  84166.47  14284.71  16.97
2211.6  83526.30  14206.50  17.01
2214.1  83231.75  14182.07  17.04
2216.5  82655.27  14102.02  17.06
2219.0  82317.53  14045.73  17.06
2221.4  81921.58  13979.19  17.06
2223.9  81445.58  13889.94  17.05
2226.3  80939.83  13784.17  17.03
2228.7  80361.38  13639.00  16.97
2231.1  79754.40  13490.40  16.91
2233.6  79148.80  13317.29  16.83
2236.0  78599.50  13142.89  16.72
2238.4  78103.67  12964.39  16.60
2240.9  77638.93  12794.13  16.48
2243.3  77082.67  12595.46  16.34
2245.7  76495.60  12371.17  16.17
2248.1  75985.87  12165.98  16.01
2250.5  75464.02  11956.70  15.84
2252.9  74829.73  11710.83  15.65
2255.3  74246.90  11475.67  15.46
2257.7  73780.00  11260.00  15.26
2260.1  73283.47  11050.04  15.08
2262.5  72670.00  10833.33  14.91
2264.9  72119.60  10622.27  14.73
2267.3  71500.00  10413.33  14.56
2269.7  70995.87  10230.65  14.41
2272.1  70437.20  10046.71  14.26
2274.5  69853.38  9866.86  14.13
2276.8  69365.42  9702.81  13.99
2279.2  68782.20  9534.10  13.86
2281.6  68342.60  9395.56  13.75
2284.0  67872.00  9244.87  13.62
2286.3  67406.93  9092.98  13.49
2288.7  66996.15  8954.55  13.37
2291.1  66434.80  8793.84  13.24
2293.4  65973.60  8651.38  13.11
2295.8  65353.50  8487.20  12.99
2298.2  64749.60  8314.50  12.84
2300.5  64066.50  8138.55  12.70
2302.9  63312.33  7949.78  12.56
2305.2  62562.20  7776.50  12.43
2307.6  61879.37  7624.02  12.32
2309.9  61101.00  7464.11  12.22
2312.2  60501.67  7347.00  12.14
2314.6  59895.45  7251.90  12.11
2316.9  59191.65  7138.05  12.06
2319.2  58623.50  7025.15  11.98
2321.6  57990.92  6911.84  11.92
2323.9  57427.08  6809.03  11.86
2326.2  56882.53  6691.25  11.76
2328.6  56346.40  6583.50  11.68
2330.9  55849.50  6475.00  11.59
2333.2  55382.58  6367.64  11.50
2335.5  54923.10  6255.93  11.39
2337.8  54455.83  6153.69  11.30
2340.1  53851.97  6027.88  11.19
2342.4  53408.33  5918.61  11.08
2344.8  52978.58  5811.31  10.97
2347.1  52420.67  5691.70  10.86
2349.4  51866.47  5585.45  10.77
2351.6  51293.60  5486.30  10.70
2353.9  50786.43  5395.30  10.62
2356.2  50258.45  5298.94  10.54
2358.5  49649.60  5196.80  10.47
2360.8  49089.60  5107.20  10.40
2363.1  48635.47  5013.85  10.31
2365.4  48160.60  4919.27  10.21
2367.7  47674.80  4826.00  10.12
2369.9  47128.20  4740.30  10.06
2372.2  46520.27  4628.71  9.95
2374.5  45911.25  4531.45  9.87
2376.7  45281.77  4425.95  9.77
2379.0  44648.73  4323.72  9.68
2381.3  44030.00  4211.67  9.57
2383.5  43507.20  4122.31  9.48
2385.8  42889.50  4008.51  9.35
2388.0  42362.00  3917.60  9.25
2390.3  41830.00  3828.98  9.15
2392.5  41352.00  3736.00  9.03
2394.8  40873.80  3654.20  8.94
2397.0  40391.87  3563.16  8.82
2399.3  39924.78  3476.31  8.71
2401.5  39469.50  3397.33  8.61
2403.8  38932.98  3313.18  8.51
2406.0  38417.17  3228.33  8.40
2408.2  38010.87  3154.07  8.30
2410.4  37587.32  3070.90  8.17
2412.7  37159.63  2990.87  8.05
2414.9  36798.85  2926.37  7.95
2417.1  36385.50  2853.27  7.84
2419.3  35955.20  2790.40  7.76
2421.6  35585.42  2721.11  7.65
2423.8  35191.53  2662.49  7.57
2426.0  34808.32  2592.34  7.45
2428.2  34456.80  2530.58  7.34
2430.4  34155.23  2474.63  7.25
2432.6  33906.67  2408.89  7.10
2434.8  33603.80  2356.99  7.01
2437.0  33193.77  2292.62  6.91
2439.2  32845.50  2239.26  6.82
2441.4  32515.50  2176.79  6.69
2443.6  32261.92  2123.16  6.58
2445.7  32014.97  2068.62  6.46
2447.9  31743.92  2027.20  6.39
2450.1  31429.85  1976.37  6.29
2452.3  31042.55  1924.57  6.20
2454.5  30678.55  1867.47  6.09
2456.6  30288.13  1816.62  6.00
2458.8  29915.60  1777.97  5.94
2461.0  29626.25  1734.81  5.86
2463.1  29332.80  1692.65  5.77
2465.3  29032.53  1648.69  5.68
2467.5  28792.00  1607.75  5.58
2469.6  28550.50  1586.14  5.56
2471.8  28261.37  1541.71  5.46
2473.9  27934.33  1493.25  5.35
2476.1  27573.00  1461.06  5.30
2478.2  27191.50  1421.78  5.23
2480.4  26908.55  1386.62  5.15
2482.5  26569.40  1367.69  5.15
2484.6  26226.75  1329.78  5.07
2486.8  25967.80  1297.87  5.00
2488.9  25647.92  1273.19  4.96
2491.1  25307.33  1258.75  4.97
2493.2  24923.97  1218.79  4.89
2495.3  24514.97  1197.15  4.88
2497.4  24182.20  1169.93  4.84
2499.5  23854.23  1154.41  4.84
2501.7  23713.30  1139.38  4.80
2503.8  23620.65  1125.59  4.77
2505.9  23557.92  1121.81  4.76
2508.0  23559.92  1115.23  4.73
2510.1  23588.12  1120.69  4.75
2512.2  23708.20  1119.35  4.72
2514.3  23900.02  1126.35  4.71
2516.4  24112.80  1162.30  4.82
