/*** Spectra Vista SIG Data ***/
name= 3_20220926_QURU_46_avg.sig
comm= Averaged Ref/Tar of files: HR.092622.0006_moc.sig,HR.092622.0007_moc.sig,HR.092622.0008_moc.sig
data=
337.3  6417.60  410.65  6.40
338.8  6541.60  375.64  5.74
340.3  6900.33  378.10  5.48
341.8  6985.83  380.18  5.44
343.2  7461.30  389.14  5.22
344.7  7814.63  384.39  4.92
346.2  8225.00  376.00  4.57
347.7  8706.50  361.83  4.16
349.2  8920.80  338.40  3.79
350.6  9350.40  340.90  3.65
352.1  9834.25  343.64  3.49
353.6  10320.00  373.48  3.62
355.1  10777.05  380.14  3.53
356.6  11518.28  378.05  3.28
358.0  12031.75  385.98  3.21
359.5  12560.85  394.89  3.14
361.0  13223.90  378.39  2.86
362.5  13842.00  406.47  2.94
364.0  14596.35  414.88  2.84
365.4  15214.38  437.33  2.87
366.9  15819.10  443.72  2.80
368.4  16516.05  468.32  2.84
369.9  17225.00  479.52  2.78
371.3  18173.65  515.25  2.84
372.8  18909.80  519.50  2.75
374.3  19777.60  531.01  2.68
375.8  20654.58  533.28  2.58
377.2  21428.55  541.54  2.53
378.7  22228.85  551.83  2.48
380.2  23040.83  562.40  2.44
381.7  24001.25  582.76  2.43
383.1  24991.65  602.57  2.41
384.6  25972.05  605.86  2.33
386.1  26942.48  627.68  2.33
387.6  27864.75  635.91  2.28
389.0  28886.18  654.07  2.26
390.5  29966.40  678.80  2.27
392.0  31050.00  690.00  2.22
393.4  32160.75  704.57  2.19
394.9  33135.90  731.99  2.21
396.4  34357.40  756.59  2.20
397.9  35470.80  777.74  2.19
399.3  36451.18  789.20  2.17
400.8  37674.45  811.25  2.15
402.2  38854.20  824.84  2.12
403.7  40142.25  862.98  2.15
405.2  41305.60  873.71  2.12
406.6  42582.00  910.31  2.14
408.1  43672.80  935.01  2.14
409.6  44913.75  953.27  2.12
411.0  46134.28  976.82  2.12
412.5  47484.05  1015.68  2.14
414.0  48861.75  1044.20  2.14
415.4  50193.90  1083.60  2.16
416.9  51521.83  1104.31  2.14
418.4  52889.20  1134.72  2.15
419.8  54262.25  1161.50  2.14
421.3  55751.85  1194.60  2.14
422.7  57223.40  1232.89  2.15
424.2  58765.58  1261.06  2.15
425.7  60214.00  1298.13  2.16
427.1  61768.40  1336.18  2.16
428.6  63262.68  1366.85  2.16
430.0  64793.85  1406.80  2.17
431.5  66498.58  1437.99  2.16
432.9  68156.75  1472.80  2.16
434.4  69894.73  1507.71  2.16
435.9  71571.10  1548.57  2.16
437.3  73272.00  1584.82  2.16
438.8  74936.30  1619.04  2.16
440.2  76686.58  1658.87  2.16
441.7  78578.68  1703.64  2.17
443.1  80412.75  1746.64  2.17
444.6  82230.28  1787.22  2.17
446.0  84076.48  1829.28  2.18
447.5  86075.00  1878.57  2.18
448.9  87835.70  1922.79  2.19
450.4  89750.00  1971.43  2.20
451.8  91580.63  2019.57  2.21
453.3  93416.40  2060.52  2.21
454.7  95292.90  2106.64  2.21
456.2  97115.55  2151.07  2.21
457.6  99060.30  2196.13  2.22
459.1  100919.18  2236.85  2.22
460.5  102783.50  2279.98  2.22
462.0  104843.70  2324.14  2.22
463.4  106862.70  2373.22  2.22
464.8  108867.15  2419.95  2.22
466.3  110817.98  2459.96  2.22
467.7  112880.00  2507.58  2.22
469.2  114790.20  2549.51  2.22
470.6  116827.38  2601.42  2.23
472.0  118917.80  2647.62  2.23
473.5  120964.63  2688.53  2.22
474.9  123176.05  2739.26  2.22
476.4  125294.60  2787.94  2.23
477.8  127428.00  2840.00  2.23
479.2  129503.53  2898.58  2.24
480.7  131678.33  2949.36  2.24
482.1  133928.30  3010.58  2.25
483.6  136152.00  3055.71  2.24
485.0  138448.28  3117.21  2.25
486.4  140571.53  3171.14  2.26
487.9  142860.25  3231.26  2.26
489.3  145052.78  3291.88  2.27
490.7  147285.65  3359.81  2.28
492.2  149564.63  3429.32  2.29
493.6  151857.80  3506.50  2.31
495.0  154155.30  3581.50  2.32
496.5  156378.60  3658.50  2.34
497.9  158729.75  3750.91  2.36
499.3  161056.50  3853.59  2.39
500.7  163347.60  3964.69  2.43
502.2  165793.65  4083.22  2.46
503.6  168128.40  4221.94  2.51
505.0  170459.85  4372.84  2.57
506.5  172927.35  4548.97  2.63
507.9  175404.98  4757.32  2.71
509.3  177736.50  4980.21  2.80
510.7  180422.78  5248.38  2.91
512.2  183096.38  5573.68  3.04
513.6  185979.30  5948.99  3.20
515.0  188753.25  6376.82  3.38
516.4  191663.00  6863.05  3.58
517.8  194483.25  7409.40  3.81
519.3  197417.60  8025.29  4.07
520.7  200133.50  8690.07  4.34
522.1  202852.00  9400.15  4.63
523.5  205452.68  10144.96  4.94
524.9  208372.58  10913.60  5.24
526.3  211077.23  11663.04  5.53
527.8  213886.00  12415.07  5.80
529.2  216432.00  13154.74  6.08
530.6  219210.30  13886.23  6.33
532.0  222193.08  14574.21  6.56
533.4  224759.25  15174.47  6.75
534.8  227285.03  15727.41  6.92
536.3  230356.85  16267.72  7.06
537.7  233382.00  16767.14  7.18
539.1  236324.73  17222.09  7.29
540.5  239219.25  17656.71  7.38
541.9  242191.68  18079.53  7.46
543.3  244764.80  18472.90  7.55
544.7  247742.00  18901.14  7.63
546.1  250548.20  19317.13  7.71
547.5  253497.60  19734.17  7.78
549.0  256668.40  20154.13  7.85
550.4  259582.05  20529.60  7.91
551.8  262500.43  20856.22  7.95
553.2  265422.30  21118.42  7.96
554.6  268309.10  21302.65  7.94
556.0  271280.10  21403.50  7.89
557.4  274401.10  21433.24  7.81
558.8  277316.15  21370.99  7.71
560.2  280520.00  21268.57  7.58
561.6  283499.15  21082.57  7.44
563.0  286331.50  20833.18  7.28
564.4  289518.60  20559.07  7.10
565.8  292557.70  20218.23  6.91
567.2  295735.20  19842.09  6.71
568.6  298788.08  19408.44  6.50
570.0  301707.25  18940.07  6.28
571.4  305147.33  18486.96  6.06
572.8  308352.60  18024.92  5.85
574.2  311251.50  17576.70  5.65
575.6  314319.38  17166.13  5.46
577.0  317402.25  16806.87  5.30
578.4  320840.63  16512.50  5.15
579.8  323950.63  16232.48  5.01
581.2  327030.50  15998.81  4.89
582.5  329940.00  15788.57  4.79
583.9  333054.40  15608.95  4.69
585.3  335965.90  15456.41  4.60
586.7  338969.40  15329.60  4.52
588.1  341997.40  15229.32  4.45
589.5  345384.30  15175.17  4.39
590.9  348369.15  15127.74  4.34
592.3  351326.48  15105.34  4.30
593.7  354317.95  15111.62  4.26
595.0  357315.00  15139.54  4.24
596.4  360637.75  15176.12  4.21
597.8  363347.60  15189.09  4.18
599.2  366484.95  15219.66  4.15
600.6  369686.63  15215.91  4.12
602.0  372681.00  15192.51  4.08
603.3  375622.00  15127.05  4.03
604.7  378689.00  15030.67  3.97
606.1  381743.03  14896.60  3.90
607.5  385080.53  14754.75  3.83
608.9  388187.80  14576.10  3.75
610.2  391386.60  14395.54  3.68
611.6  394322.50  14195.24  3.60
613.0  397188.35  13991.88  3.52
614.4  399997.70  13810.91  3.45
615.8  403291.20  13661.95  3.39
617.1  406016.63  13504.99  3.33
618.5  409320.00  13408.48  3.28
619.9  412072.95  13307.24  3.23
621.3  415044.83  13253.16  3.19
622.6  418011.75  13226.57  3.16
624.0  420734.25  13221.22  3.14
625.4  423907.13  13241.59  3.12
626.8  426875.15  13281.98  3.11
628.1  429745.40  13323.30  3.10
629.5  432522.13  13384.95  3.09
630.9  435375.30  13454.01  3.09
632.2  438459.50  13526.38  3.08
633.6  440905.40  13548.91  3.07
635.0  443876.48  13566.86  3.06
636.3  446966.78  13544.88  3.03
637.7  449687.55  13479.17  3.00
639.1  452723.70  13375.27  2.95
640.4  455483.25  13240.29  2.91
641.8  458348.40  13093.71  2.86
643.2  460966.10  12928.28  2.80
644.5  463855.00  12776.67  2.75
645.9  466549.30  12621.63  2.71
647.2  469366.98  12505.17  2.66
648.6  472234.80  12408.61  2.63
650.0  475023.60  12325.37  2.59
651.3  477438.80  12269.65  2.57
652.7  480864.75  12242.50  2.55
654.0  483840.90  12211.18  2.52
655.4  486253.43  12167.80  2.50
656.8  487865.70  12088.95  2.48
658.1  490567.35  12018.40  2.45
659.5  493819.20  11947.88  2.42
660.8  496969.20  11894.10  2.39
662.2  499818.70  11835.04  2.37
663.5  502651.40  11786.07  2.34
664.9  504640.98  11746.19  2.33
666.2  506770.23  11726.37  2.31
667.6  509280.75  11754.22  2.31
668.9  512049.60  11824.46  2.31
670.3  515014.50  11894.75  2.31
671.6  517237.60  11993.14  2.32
673.0  519569.60  12126.40  2.33
674.3  522090.80  12269.40  2.35
675.7  524646.90  12460.37  2.38
677.0  527010.23  12639.35  2.40
678.4  529230.20  12852.91  2.43
679.7  531654.98  13093.77  2.46
681.1  534268.48  13374.70  2.50
682.4  536509.88  13673.00  2.55
683.8  538925.25  14016.03  2.60
685.1  541152.60  14404.70  2.66
686.4  543342.15  14868.81  2.74
687.8  545898.60  15448.35  2.83
689.1  548268.00  16173.13  2.95
690.5  550194.00  17160.40  3.12
691.8  553028.58  18561.14  3.36
693.1  555451.50  20478.14  3.69
694.5  557830.50  23031.98  4.13
695.8  560277.70  26307.40  4.70
697.1  562506.40  30356.93  5.40
698.5  564856.50  35219.92  6.24
699.8  567323.20  40834.51  7.20
701.1  569220.23  47106.65  8.28
702.5  571335.50  53937.84  9.44
703.8  573796.30  61236.79  10.67
705.1  575664.15  68793.43  11.95
706.5  577980.35  76624.27  13.26
707.8  579847.93  84550.27  14.58
709.1  582171.28  92614.39  15.91
710.5  584451.60  100723.57  17.23
711.8  586391.00  108830.95  18.56
713.1  588326.00  116955.91  19.88
714.4  590432.08  125088.02  21.19
715.8  592755.08  133228.92  22.48
717.1  595038.50  141297.76  23.75
718.4  597324.83  149278.14  24.99
719.7  599612.40  157157.14  26.21
721.0  601341.40  164781.50  27.40
722.4  603199.35  172263.69  28.56
723.7  605173.85  179576.19  29.67
725.0  606898.98  186604.77  30.75
726.3  609252.80  193574.95  31.77
727.6  611004.00  200085.86  32.75
729.0  612965.50  206366.53  33.67
730.3  614996.05  212393.46  34.54
731.6  616521.90  217953.15  35.35
732.9  618490.93  223388.22  36.12
734.2  620140.13  228426.39  36.83
735.5  621981.25  233232.37  37.50
736.8  624006.95  237813.37  38.11
738.1  625901.85  242059.95  38.67
739.5  627721.50  246009.06  39.19
740.8  629655.13  249786.87  39.67
742.1  631285.20  253212.39  40.11
743.4  632985.15  256473.53  40.52
744.7  634942.00  259597.33  40.89
746.0  636489.80  262315.05  41.21
747.3  638098.30  264858.40  41.51
748.6  639663.25  267203.98  41.77
749.9  641494.83  269494.48  42.01
751.2  642794.75  271439.45  42.23
752.5  644324.00  273361.93  42.43
753.8  645744.15  275074.29  42.60
755.1  647403.18  276760.43  42.75
756.4  648640.00  278123.71  42.88
757.7  650691.25  279754.36  42.99
759.0  654323.55  281993.74  43.10
760.3  657107.85  283745.93  43.18
761.6  659966.75  285498.49  43.26
762.9  661432.75  286593.74  43.33
764.2  662287.65  287323.38  43.38
765.5  663217.88  288042.15  43.43
766.8  663790.35  288569.07  43.47
768.1  664930.35  289282.20  43.51
769.3  666220.30  290052.89  43.54
770.6  667659.05  290868.12  43.57
771.9  668885.88  291577.54  43.59
773.2  670345.65  292361.55  43.61
774.5  671288.10  292884.93  43.63
775.8  672416.73  293458.36  43.64
777.1  673693.35  294091.50  43.65
778.4  675019.25  294754.62  43.67
779.6  676458.60  295423.20  43.67
780.9  677099.25  295817.40  43.69
782.2  678126.25  296311.14  43.70
783.5  679058.75  296792.48  43.71
784.8  679943.25  297188.75  43.71
786.0  680794.90  297621.83  43.72
787.3  681755.45  298042.97  43.72
788.6  682694.38  298502.99  43.72
789.9  683373.00  298871.65  43.73
791.2  684855.10  299517.31  43.73
792.4  685994.38  300050.80  43.74
793.7  687619.35  300772.23  43.74
795.0  688779.35  301273.23  43.74
796.2  690167.70  301912.80  43.74
797.5  691400.63  302462.02  43.75
798.8  692839.88  303109.83  43.75
800.0  693980.00  303646.67  43.75
801.3  695283.75  304215.75  43.75
802.6  696456.00  304710.85  43.75
803.8  697568.03  305237.05  43.76
805.1  698635.88  305729.93  43.76
806.4  699613.75  306183.90  43.76
807.7  700806.98  306726.54  43.77
808.9  701963.83  307280.67  43.77
810.2  702951.90  307692.00  43.77
811.4  703999.20  308213.07  43.78
812.7  705394.90  308836.99  43.78
814.0  706709.85  309424.50  43.78
815.2  708091.50  310070.85  43.79
816.5  709222.50  310618.33  43.80
817.7  710143.25  311026.93  43.80
819.0  710955.00  311376.53  43.80
820.2  711787.20  311777.83  43.80
821.5  712848.20  312300.42  43.81
822.7  713847.05  312797.47  43.82
824.0  714758.85  313239.15  43.82
825.2  715511.55  313556.47  43.82
826.5  716298.90  313941.84  43.83
827.7  717350.23  314453.17  43.84
829.0  718382.33  314917.21  43.84
830.2  719299.00  315371.93  43.84
831.5  720168.53  315778.97  43.85
832.7  721014.75  316188.51  43.85
834.0  721730.93  316481.98  43.85
835.2  722779.00  316981.34  43.86
836.4  723460.40  317363.35  43.87
837.7  724185.00  317775.00  43.88
838.9  725347.40  318344.50  43.89
840.1  726202.95  318784.08  43.90
841.4  727142.50  319231.47  43.90
842.6  728072.10  319621.27  43.90
843.8  728794.30  320026.20  43.91
845.1  729727.35  320455.46  43.91
846.3  730646.70  320908.70  43.92
847.5  731480.75  321376.71  43.94
848.8  732422.05  321805.17  43.94
850.0  733515.00  322316.25  43.94
851.2  734300.30  322758.34  43.95
852.5  735527.70  323306.09  43.96
853.7  736290.68  323638.59  43.96
854.9  737388.60  324223.53  43.97
856.1  738380.65  324698.67  43.97
857.4  739170.08  325086.86  43.98
858.6  740110.00  325532.00  43.98
859.8  741282.70  326015.58  43.98
861.0  742270.90  326492.80  43.99
862.2  743318.10  327000.20  43.99
863.5  744263.43  327456.13  44.00
864.7  745200.00  327873.21  44.00
865.9  746064.50  328325.98  44.01
867.1  746712.50  328622.32  44.01
868.3  747854.65  329154.36  44.01
869.5  749300.15  329675.79  44.00
870.8  750212.55  330178.16  44.01
872.0  751200.78  330621.47  44.01
873.2  752005.95  330993.57  44.01
874.4  752848.95  331349.25  44.01
875.6  753942.13  331865.63  44.02
876.8  755436.00  332477.20  44.01
878.0  756449.40  332912.43  44.01
879.2  757418.85  333380.85  44.02
880.4  758454.00  333849.71  44.02
881.6  759411.70  334248.92  44.01
882.8  760633.65  334836.55  44.02
884.0  761627.75  335221.00  44.01
885.2  763040.75  335804.64  44.01
886.5  764393.18  336366.97  44.00
887.7  765441.15  336719.81  43.99
888.8  766807.70  337341.47  43.99
890.0  767707.50  337715.00  43.99
891.2  768736.80  338202.33  43.99
892.4  770058.30  338859.48  44.00
893.6  772076.58  339572.36  43.98
894.8  773621.55  340257.16  43.98
896.0  774893.13  340868.36  43.99
897.2  776840.63  341609.40  43.97
898.4  778745.10  342429.40  43.97
899.6  780013.00  343040.20  43.98
900.8  780594.10  343278.25  43.98
902.0  781254.35  343497.47  43.97
903.2  781417.60  343578.42  43.97
904.3  782730.00  344000.89  43.95
905.5  783857.25  344498.78  43.95
906.7  785000.75  345003.90  43.95
907.9  785893.60  345467.91  43.96
909.1  787053.58  345926.90  43.95
910.2  787657.50  346072.50  43.94
911.4  787603.28  346074.84  43.94
912.6  788367.50  346290.00  43.92
913.8  789328.40  346696.17  43.92
915.0  789849.80  346856.02  43.91
916.2  789787.95  346937.15  43.93
917.3  790815.68  347269.06  43.91
918.5  791027.85  347367.47  43.91
919.7  791403.00  347355.50  43.89
920.8  791743.73  347405.89  43.88
922.0  791790.73  347402.81  43.88
923.2  792138.60  347619.27  43.88
924.4  792807.25  347888.87  43.88
925.5  793817.40  348157.79  43.86
926.7  794527.93  348469.31  43.86
927.9  796112.55  348982.35  43.84
929.0  799024.50  350217.00  43.83
930.2  803635.40  352034.54  43.81
931.4  808744.85  354196.32  43.80
932.5  813357.05  356077.49  43.78
933.7  816061.05  357263.71  43.78
934.9  817468.75  357697.50  43.76
936.0  816419.93  357163.20  43.75
937.2  813439.65  355688.46  43.73
938.3  809760.25  353878.57  43.70
939.5  807534.00  352872.00  43.70
940.7  807683.80  352680.72  43.67
941.8  810553.25  353860.37  43.66
943.0  812473.58  354579.93  43.64
944.2  814716.00  355194.29  43.60
945.3  814108.80  354740.05  43.57
946.5  812323.75  353854.17  43.56
947.6  813726.50  354025.53  43.51
948.8  812388.60  353391.26  43.50
949.9  813039.33  353329.73  43.46
951.1  812799.95  353099.42  43.44
952.2  812583.83  352562.61  43.39
953.4  812689.05  352083.93  43.32
954.5  811017.38  351060.50  43.29
955.7  810697.10  350634.78  43.25
956.8  811289.73  350468.49  43.20
958.0  809991.00  349682.14  43.17
959.1  809676.00  349358.40  43.15
960.3  809375.00  348989.28  43.12
961.4  810466.80  348962.23  43.06
962.6  809949.60  348568.46  43.04
963.7  810488.00  348575.73  43.01
964.9  810226.08  348565.18  43.02
966.0  810756.10  348603.87  43.00
967.2  810768.00  348589.60  42.99
968.3  812488.65  349125.00  42.97
969.5  812963.38  349195.22  42.95
970.6  813636.50  349258.83  42.93
971.8  813011.50  349184.68  42.95
972.9  813414.00  349330.00  42.95
974.0  814337.28  349411.20  42.91
975.2  812953.13  348705.00  42.89
976.3  814155.55  348923.81  42.86
977.5  813841.50  348862.34  42.87
978.6  813587.78  348873.99  42.88
979.7  813243.20  348738.13  42.88
980.9  813090.73  348598.40  42.87
982.0  812966.35  348181.78  42.83
983.2  812396.20  348219.33  42.86
984.3  810954.55  347604.63  42.86
985.4  810746.30  347406.67  42.85
986.6  811915.23  347665.81  42.82
987.7  810670.50  347051.75  42.81
988.9  811353.05  347321.67  42.81
990.0  810848.20  347365.45  42.84
993.1  852630.00  364081.80  42.70
996.9  852441.70  364844.07  42.80
1000.7  852132.30  365401.24  42.88
1004.5  851056.07  365584.28  42.96
1008.4  851759.78  366536.58  43.03
1012.2  852652.96  367568.75  43.11
1016.0  852458.93  368011.07  43.17
1019.8  851070.01  367989.23  43.24
1023.7  849988.65  367903.90  43.28
1027.5  847887.00  367458.13  43.34
1031.3  846742.23  367322.96  43.38
1035.1  845905.65  367252.30  43.42
1038.9  845576.08  367323.25  43.44
1042.7  845089.73  367390.75  43.47
1046.5  844338.25  367243.88  43.49
1050.3  842726.90  366666.75  43.51
1054.2  840674.73  365914.80  43.53
1058.0  839678.40  365549.14  43.53
1061.8  838461.08  365147.93  43.55
1065.6  836618.25  364313.55  43.55
1069.4  834706.02  363469.39  43.54
1073.2  833012.38  362687.46  43.54
1077.0  831459.20  361929.75  43.53
1080.8  830619.17  361357.85  43.50
1084.6  829669.50  360766.74  43.48
1088.4  828527.05  360157.14  43.47
1092.2  827123.50  359324.07  43.44
1096.0  825775.00  358502.00  43.41
1099.8  824325.50  357581.59  43.38
1103.6  822647.07  356547.40  43.34
1107.4  821161.53  355558.06  43.30
1111.2  819629.42  354570.81  43.26
1114.9  818442.00  353668.93  43.21
1118.7  817661.50  352808.61  43.15
1122.5  817448.56  352041.90  43.07
1126.3  814917.60  350131.05  42.97
1130.1  814260.68  348647.08  42.82
1133.9  810900.88  345542.12  42.61
1137.7  808390.80  342390.69  42.35
1141.4  804755.65  338441.58  42.06
1145.2  803876.42  335399.09  41.72
1149.0  801931.35  332071.24  41.41
1152.8  798701.80  328501.65  41.13
1156.6  795268.36  325406.83  40.92
1160.3  792169.50  322899.71  40.76
1164.1  787556.13  320154.84  40.65
1167.9  784460.29  318312.04  40.58
1171.7  781912.63  316854.48  40.52
1175.4  779577.07  315601.36  40.48
1179.2  777663.00  314433.64  40.43
1183.0  777793.38  314045.07  40.38
1186.7  777737.33  313612.67  40.32
1190.5  776157.33  312643.30  40.28
1194.3  773230.38  311276.73  40.26
1198.0  770307.38  309992.25  40.24
1201.8  767844.00  308960.67  40.24
1205.6  766158.54  308399.83  40.25
1209.3  764905.50  308161.71  40.29
1213.1  763438.83  307920.52  40.33
1216.8  761558.67  307659.58  40.40
1220.6  759402.50  307340.40  40.47
1224.3  757120.83  306972.02  40.54
1228.1  755138.58  306768.32  40.62
1231.9  752892.40  306361.81  40.69
1235.6  750511.03  305802.36  40.75
1239.4  748194.93  305307.98  40.81
1243.1  746002.80  304705.03  40.85
1246.9  743996.00  304097.59  40.87
1250.6  741964.70  303411.89  40.89
1254.3  740030.40  302747.66  40.91
1258.1  737978.00  301990.67  40.92
1261.8  735521.03  301014.23  40.93
1265.6  733035.04  299970.10  40.92
1269.3  730501.93  298827.72  40.91
1273.1  730938.94  298791.38  40.88
1276.8  731278.80  298659.97  40.84
1280.6  730870.33  298210.66  40.80
1284.3  728295.15  296819.93  40.76
1288.0  726260.28  295531.54  40.69
1291.8  724437.00  294175.80  40.61
1295.5  722547.22  292751.11  40.52
1299.2  720252.00  291043.63  40.41
1302.9  717461.71  288960.23  40.28
1306.7  714465.68  286638.08  40.12
1310.4  711509.25  284094.32  39.93
1314.1  709115.63  281646.16  39.72
1317.9  706631.68  278916.41  39.47
1321.6  703851.63  275861.41  39.19
1325.3  701011.13  272533.95  38.88
1329.0  698328.40  269171.47  38.55
1332.8  694550.00  265137.68  38.17
1336.5  690903.42  261139.69  37.80
1340.2  688971.90  257764.78  37.41
1343.9  687920.60  254724.35  37.03
1347.6  686903.40  251696.68  36.64
1351.4  685958.75  248825.18  36.27
1355.1  686241.33  246448.87  35.91
1358.8  684797.18  243340.55  35.53
1362.5  684377.05  240369.48  35.12
1366.2  682207.17  236297.98  34.64
1369.9  678284.00  231006.86  34.06
1373.6  674111.53  224753.10  33.34
1377.3  671354.23  217676.71  32.42
1381.0  668636.48  208931.68  31.25
1384.8  665152.05  198061.12  29.78
1388.4  660880.00  185749.12  28.11
1392.2  656755.48  172557.65  26.27
1395.9  654898.52  159618.39  24.37
1399.6  651087.67  146736.39  22.54
1403.3  648879.60  135349.54  20.86
1407.0  646717.50  125455.98  19.40
1410.7  645535.76  117414.09  18.19
1414.3  643641.00  110881.79  17.23
1418.1  641630.21  105828.13  16.49
1421.7  639874.43  102002.90  15.94
1425.4  638491.29  99261.10  15.55
1429.1  634966.50  97020.00  15.28
1432.8  633603.60  95791.66  15.12
1436.5  630254.63  94740.29  15.03
1440.2  626890.17  94074.14  15.01
1443.9  624841.33  93863.69  15.02
1447.6  621331.20  93682.29  15.08
1451.2  618386.20  93673.95  15.15
1454.9  616707.82  94004.93  15.24
1458.6  613053.05  94255.97  15.37
1462.3  612159.53  95241.76  15.56
1466.0  612154.67  96722.78  15.80
1469.7  610363.60  98334.13  16.11
1473.3  608135.73  100177.00  16.47
1477.0  603979.16  101941.21  16.88
1480.7  600834.71  103995.24  17.31
1484.4  597148.83  105986.99  17.75
1488.0  594039.60  108170.48  18.21
1491.7  590588.36  110251.15  18.67
1495.4  587126.02  112329.07  19.13
1499.0  584158.25  114432.87  19.59
1502.7  581381.78  116569.36  20.05
1506.4  578677.83  118608.15  20.50
1510.0  575937.92  120583.51  20.94
1513.7  573296.75  122480.93  21.36
1517.4  570780.00  124328.37  21.78
1521.0  568403.92  126129.20  22.19
1524.7  565890.47  127769.41  22.58
1528.3  563459.43  129327.29  22.95
1532.0  560841.05  130762.18  23.32
1535.7  558139.50  132021.80  23.65
1539.3  555558.60  133256.79  23.99
1543.0  553875.58  134648.50  24.31
1546.6  552521.33  136020.37  24.62
1550.3  550974.31  137258.83  24.91
1553.9  548592.13  138231.39  25.20
1557.6  546373.98  139155.73  25.47
1561.2  543863.64  139902.29  25.72
1564.9  541175.73  140567.82  25.97
1568.5  538477.33  141152.76  26.21
1572.2  536126.15  141781.03  26.45
1575.8  534267.15  142533.33  26.68
1579.5  532380.08  143201.29  26.90
1583.1  530122.02  143734.28  27.11
1586.8  527890.73  144241.61  27.32
1590.4  525688.58  144717.61  27.53
1594.0  523331.25  145101.42  27.73
1597.7  521157.83  145549.61  27.93
1601.3  518844.83  145910.89  28.12
1604.9  516285.73  146123.11  28.30
1608.6  513448.88  146195.04  28.47
1612.2  510777.29  146250.43  28.63
1615.8  508414.80  146353.71  28.79
1619.5  506215.58  146423.66  28.93
1623.1  503496.68  146303.97  29.06
1626.7  500678.45  146100.35  29.18
1630.3  498113.40  145944.09  29.30
1634.0  495704.30  145774.42  29.41
1637.6  493496.67  145606.19  29.51
1641.2  491297.22  145328.68  29.58
1644.8  488741.11  144856.38  29.64
1648.5  486094.20  144285.45  29.68
1652.1  483919.93  143716.79  29.70
1655.7  482029.43  143111.89  29.69
1659.3  480234.83  142472.93  29.67
1662.9  477052.53  141322.22  29.62
1666.6  473476.58  140070.35  29.58
1670.2  470126.25  138830.06  29.53
1673.8  466878.80  137536.87  29.46
1677.4  464321.33  136399.58  29.38
1681.0  462678.25  135387.52  29.26
1684.6  461801.08  134498.44  29.12
1688.2  460314.40  133302.00  28.96
1691.8  458611.92  132128.67  28.81
1695.4  457783.45  131166.08  28.65
1699.0  456878.90  130154.62  28.49
1702.6  456311.33  129182.25  28.31
1706.2  454771.93  127908.42  28.13
1709.8  452635.22  126478.02  27.94
1713.4  451080.50  125207.09  27.76
1717.0  449433.62  123966.29  27.58
1720.6  447708.25  122697.34  27.41
1724.2  446233.97  121500.44  27.23
1727.8  444851.03  120429.87  27.07
1731.4  444097.94  119687.08  26.95
1735.0  444048.78  119283.88  26.86
1738.6  443501.63  118712.68  26.77
1742.2  442607.20  117904.54  26.64
1745.8  440921.60  116793.91  26.49
1749.4  438559.67  115433.42  26.32
1753.0  434784.80  113645.20  26.14
1756.6  430997.00  111866.25  25.96
1760.1  427714.80  110286.23  25.78
1763.7  423968.31  108662.63  25.63
1767.3  420893.89  107343.78  25.50
1770.9  418232.21  106203.27  25.39
1774.5  415141.45  105003.16  25.29
1778.0  412971.43  104080.93  25.20
1781.6  410740.13  103227.39  25.13
1785.2  408090.60  102319.40  25.07
1788.8  405278.13  101480.12  25.04
1792.3  402980.05  100811.13  25.02
1795.9  402373.50  100631.46  25.01
1799.5  402602.23  100698.11  25.01
1803.1  403924.08  101078.15  25.02
1806.6  405599.07  101523.96  25.03
1810.2  407415.75  101995.05  25.03
1813.8  407012.60  101900.51  25.04
1817.3  406422.23  101751.49  25.04
1820.9  405281.25  101460.27  25.03
1824.5  404069.88  101109.86  25.02
1828.0  404287.18  101023.81  24.99
1831.6  404741.73  100929.17  24.94
1835.2  403927.40  100368.56  24.85
1838.7  404160.75  99846.75  24.70
1842.3  402540.25  98704.50  24.52
1845.8  401129.12  97310.06  24.26
1849.4  400584.10  95765.00  23.91
1852.9  398981.25  93519.05  23.44
1856.5  397552.78  90765.68  22.83
1860.0  397319.70  87660.09  22.06
1863.6  396447.92  83749.22  21.12
1867.1  395842.80  79179.21  20.00
1870.7  396258.98  73799.22  18.62
1874.2  395359.76  67213.81  17.00
1877.8  392320.25  59904.75  15.27
1881.3  389300.13  52366.17  13.45
1884.9  386798.28  45157.33  11.67
1888.4  384472.91  38398.62  9.99
1891.9  382549.13  32619.35  8.53
1895.5  380666.42  27942.58  7.34
1899.0  379285.23  24508.53  6.46
1901.3  400857.07  17470.22  4.36
1904.1  400781.58  15515.39  3.87
1906.8  399084.92  14042.47  3.52
1909.6  395564.53  12889.78  3.26
1912.4  391962.60  11995.38  3.06
1915.1  388222.50  11347.44  2.92
1917.9  384380.20  10888.18  2.83
1920.6  381488.50  10566.58  2.77
1923.3  379029.80  10354.13  2.73
1926.1  375887.25  10169.45  2.71
1928.8  372307.00  10072.40  2.71
1931.6  371265.27  10106.59  2.72
1934.3  367434.02  10145.64  2.76
1937.0  363526.20  10199.00  2.81
1939.8  360251.68  10335.35  2.87
1942.5  355812.35  10458.87  2.94
1945.2  352266.92  10628.78  3.02
1947.9  349604.67  10865.25  3.11
1950.7  345501.38  11091.78  3.21
1953.4  342089.53  11369.20  3.32
1956.1  339451.17  11681.44  3.44
1958.8  337282.75  12036.31  3.57
1961.5  334405.05  12411.47  3.71
1964.2  331074.80  12764.54  3.86
1966.9  328176.53  13159.64  4.01
1969.6  325486.53  13565.43  4.17
1972.3  322993.78  14007.97  4.34
1975.0  320498.67  14487.33  4.52
1977.7  318300.72  14981.45  4.71
1980.4  316090.13  15488.98  4.90
1983.1  313712.97  15985.68  5.10
1985.8  311610.00  16517.20  5.30
1988.4  309584.55  17060.08  5.51
1991.1  307788.60  17600.10  5.72
1993.8  306327.00  18168.50  5.93
1996.5  304824.80  18743.67  6.15
1999.1  303470.05  19314.38  6.36
2001.8  302223.68  19887.34  6.58
2004.5  301003.55  20463.63  6.80
2007.1  299529.67  20991.98  7.01
2009.8  297572.92  21478.33  7.22
2012.4  296271.75  22000.41  7.43
2015.1  295159.50  22497.10  7.62
2017.8  294017.77  22989.13  7.82
2020.4  292884.90  23456.15  8.01
2023.1  292424.05  23936.11  8.19
2025.7  292138.17  24423.88  8.36
2028.3  291354.73  24856.83  8.53
2031.0  290724.93  25268.14  8.69
2033.6  290417.00  25667.75  8.84
2036.2  290027.27  26027.55  8.97
2038.9  289057.60  26305.07  9.10
2041.5  288166.67  26583.33  9.22
2044.1  287375.00  26840.28  9.34
2046.8  286229.17  27047.79  9.45
2049.4  285372.53  27265.78  9.55
2052.0  285142.52  27544.12  9.66
2054.6  284758.13  27808.00  9.77
2057.2  283690.85  28010.53  9.87
2059.8  282219.00  28196.00  9.99
2062.4  280845.72  28372.50  10.10
2065.0  279501.90  28592.92  10.23
2067.6  277618.97  28717.51  10.34
2070.2  276167.67  28878.77  10.46
2072.8  275242.92  29087.97  10.57
2075.4  274235.33  29308.78  10.69
2078.0  273599.42  29544.90  10.80
2080.6  272318.17  29721.03  10.91
2083.2  270977.47  29864.65  11.02
2085.8  269735.90  30010.98  11.13
2088.4  268700.13  30180.71  11.23
2090.9  267030.00  30293.50  11.34
2093.5  265103.20  30359.47  11.45
2096.1  263320.20  30437.55  11.56
2098.7  261817.38  30556.46  11.67
2101.2  259924.40  30623.40  11.78
2103.8  258499.17  30711.50  11.88
2106.4  257049.97  30821.13  11.99
2108.9  256038.37  30978.97  12.10
2111.5  255093.42  31144.75  12.21
2114.0  254496.67  31344.44  12.32
2116.6  252309.57  31317.86  12.41
2119.1  251220.90  31443.30  12.52
2121.7  250675.48  31612.23  12.61
2124.2  250515.67  31847.56  12.71
2126.8  249352.00  31929.93  12.81
2129.3  248257.78  31985.75  12.88
2131.9  248446.67  32226.13  12.97
2134.4  247634.68  32310.83  13.05
2136.9  247372.37  32446.08  13.12
2139.4  246291.92  32489.22  13.19
2142.0  245900.22  32615.82  13.26
2144.5  245367.92  32738.31  13.34
2147.0  244911.95  32845.47  13.41
2149.5  244514.00  32943.37  13.47
2152.1  244870.60  33125.59  13.53
2154.6  244922.40  33276.53  13.59
2157.1  244835.93  33414.33  13.65
2159.6  243714.33  33406.54  13.71
2162.1  243542.63  33501.85  13.76
2164.6  242880.13  33550.45  13.81
2167.1  241934.43  33559.33  13.87
2169.6  242072.60  33692.64  13.92
2172.1  241270.50  33714.93  13.97
2174.6  240958.20  33798.88  14.03
2177.1  239845.92  33780.89  14.08
2179.5  239401.10  33837.81  14.13
2182.0  239112.42  33931.03  14.19
2184.5  238135.00  33960.83  14.26
2187.0  237338.97  34012.89  14.33
2189.5  236367.32  34002.32  14.39
2191.9  235117.12  33991.22  14.46
2194.4  233461.50  33902.33  14.52
2196.9  232382.52  33909.82  14.59
2199.3  230965.90  33821.20  14.64
2201.8  229831.23  33743.62  14.68
2204.3  229125.60  33769.20  14.74
2206.7  227893.20  33706.12  14.79
2209.2  226683.90  33612.30  14.83
2211.6  224727.43  33385.44  14.86
2214.1  224072.68  33333.50  14.88
2216.5  223704.63  33306.30  14.89
2219.0  222350.70  33128.21  14.90
2221.4  222398.55  33106.05  14.89
2223.9  221273.87  32902.71  14.87
2226.3  219986.32  32627.41  14.83
2228.7  219070.80  32383.29  14.78
2231.1  218402.30  32124.61  14.71
2233.6  217328.00  31760.53  14.61
2236.0  216290.85  31380.82  14.51
2238.4  215483.77  31012.05  14.39
2240.9  214788.60  30614.93  14.25
2243.3  213902.78  30149.22  14.09
2245.7  213025.37  29678.20  13.93
2248.1  212076.80  29193.96  13.77
2250.5  211285.07  28730.53  13.60
2252.9  210644.93  28255.65  13.41
2255.3  209857.53  27781.03  13.24
2257.7  208954.90  27263.99  13.05
2260.1  208086.80  26771.73  12.87
2262.5  207064.40  26288.93  12.70
2264.9  206084.80  25836.42  12.54
2267.3  205176.40  25387.27  12.37
2269.7  204243.33  24940.70  12.21
2272.1  203419.17  24537.17  12.06
2274.5  202672.87  24171.02  11.93
2276.8  202013.33  23834.67  11.80
2279.2  201261.70  23508.37  11.68
2281.6  200672.30  23206.60  11.56
2284.0  200326.50  22958.10  11.46
2286.3  199805.00  22659.54  11.34
2288.7  199210.00  22375.91  11.23
2291.1  198677.00  22092.17  11.12
2293.4  197984.30  21766.30  10.99
2295.8  197332.85  21430.14  10.86
2298.2  196532.70  21085.77  10.73
2300.5  195398.85  20704.58  10.60
2302.9  194032.50  20297.17  10.46
2305.2  192563.58  19918.56  10.34
2307.6  191066.40  19558.31  10.24
2309.9  190018.92  19263.36  10.14
2312.2  189043.50  19064.11  10.08
2314.6  188050.33  18891.35  10.05
2316.9  186997.80  18736.69  10.02
2319.2  186234.58  18639.87  10.01
2321.6  185585.80  18501.18  9.97
2323.9  184802.20  18303.20  9.90
2326.2  183984.02  18108.18  9.84
2328.6  183263.90  17861.52  9.75
2330.9  182915.47  17693.02  9.67
2333.2  182437.50  17502.42  9.59
2335.5  181880.83  17269.85  9.50
2337.8  181398.60  17064.67  9.41
2340.1  180838.27  16855.16  9.32
2342.4  180427.50  16621.20  9.21
2344.8  179695.60  16351.61  9.10
2347.1  178928.10  16126.03  9.01
2349.4  178327.73  15898.31  8.92
2351.6  177574.00  15706.67  8.85
2353.9  176484.00  15521.93  8.80
2356.2  175696.23  15344.71  8.73
2358.5  174850.12  15137.18  8.66
2360.8  174166.67  14975.70  8.60
2363.1  173797.17  14822.39  8.53
2365.4  173299.50  14647.50  8.45
2367.7  172677.73  14465.22  8.38
2369.9  172043.30  14246.77  8.28
2372.2  170904.30  14011.30  8.20
2374.5  169702.50  13784.17  8.12
2376.7  168693.40  13576.50  8.05
2379.0  167456.30  13310.18  7.95
2381.3  166108.98  13057.36  7.86
2383.5  165186.00  12827.11  7.77
2385.8  164529.75  12636.56  7.68
2388.0  163682.93  12385.10  7.57
2390.3  162918.95  12185.58  7.48
2392.5  162425.50  12026.30  7.40
2394.8  161497.83  11784.81  7.30
2397.0  161006.00  11568.05  7.18
2399.3  160472.70  11383.46  7.09
2401.5  159633.40  11158.23  6.99
2403.8  158955.90  10973.98  6.90
2406.0  158506.33  10804.93  6.82
2408.2  157642.80  10564.40  6.70
2410.4  156797.23  10276.97  6.55
2412.7  156327.20  10116.73  6.47
2414.9  155751.73  9907.60  6.36
2417.1  155766.07  9750.02  6.26
2419.3  155280.83  9564.20  6.16
2421.6  154417.90  9331.62  6.04
2423.8  153768.27  9112.61  5.93
2426.0  153402.40  8876.40  5.79
2428.2  153095.25  8778.00  5.73
2430.4  153148.25  8616.43  5.63
2432.6  153044.50  8445.90  5.52
2434.8  152444.10  8247.83  5.41
2437.0  151772.40  8105.93  5.34
2439.2  151384.57  7931.74  5.24
2441.4  150594.40  7703.47  5.12
2443.6  150492.60  7559.86  5.02
2445.7  150592.73  7406.20  4.92
2447.9  150601.10  7265.27  4.82
2450.1  149745.92  7057.83  4.71
2452.3  148763.45  6907.75  4.64
2454.5  148258.13  6767.91  4.56
2456.6  147631.08  6585.94  4.46
2458.8  146437.20  6443.42  4.40
2461.0  145999.10  6262.82  4.29
2463.1  145534.33  6129.78  4.21
2465.3  145042.67  6055.56  4.18
2467.5  144755.00  5917.89  4.09
2469.6  144214.58  5843.50  4.05
2471.8  143855.07  5677.15  3.95
2473.9  143218.83  5563.64  3.88
2476.1  142509.58  5428.20  3.81
2478.2  141731.22  5331.00  3.76
2480.4  140876.42  5294.50  3.76
2482.5  139915.78  5131.06  3.67
2484.6  138908.00  5002.00  3.60
2486.8  138167.47  4926.64  3.57
2488.9  137667.00  4911.67  3.57
2491.1  136201.57  4843.10  3.56
2493.2  134900.27  4731.83  3.51
2495.3  133524.03  4572.35  3.42
2497.4  132237.68  4492.52  3.40
2499.5  131265.97  4431.67  3.38
2501.7  131315.50  4404.33  3.35
2503.8  131817.23  4384.65  3.33
2505.9  132250.45  4386.10  3.32
2508.0  132960.92  4395.95  3.31
2510.1  133856.40  4414.70  3.30
2512.2  134883.83  4399.14  3.26
2514.3  136111.73  4450.91  3.27
2516.4  137403.55  4628.64  3.37
