/*** Spectra Vista SIG Data ***/
name= 29_20221021_CECA_33_avg.sig
comm= Averaged Ref/Tar of files: HR.102122.0005_moc.sig,HR.102122.0006_moc.sig
data=
337.3  3176.00  238.20  7.50
338.8  3367.00  250.12  7.43
340.3  3560.60  234.25  6.58
341.8  3703.73  228.63  6.17
343.2  3907.20  230.88  5.91
344.7  4051.75  230.31  5.68
346.2  4207.55  220.59  5.24
347.7  4404.40  228.09  5.18
349.2  4611.60  234.36  5.08
350.6  4884.43  242.39  4.96
352.1  5144.40  235.79  4.58
353.6  5413.20  229.02  4.23
355.1  5691.08  228.99  4.02
356.6  5997.83  235.98  3.93
358.0  6252.40  236.06  3.78
359.5  6550.80  241.02  3.68
361.0  6882.75  251.37  3.65
362.5  7260.20  257.62  3.55
364.0  7570.20  263.81  3.48
365.4  7924.20  281.00  3.55
366.9  8287.50  281.78  3.40
368.4  8618.90  294.57  3.42
369.9  8999.33  302.68  3.36
371.3  9451.80  315.06  3.33
372.8  9850.05  334.53  3.40
374.3  10266.25  333.25  3.25
375.8  10672.20  334.18  3.13
377.2  11109.70  344.32  3.10
378.7  11513.20  349.70  3.04
380.2  11889.80  349.70  2.94
381.7  12404.48  367.54  2.96
383.1  12882.10  371.91  2.89
384.6  13379.60  372.26  2.78
386.1  13836.80  378.35  2.73
387.6  14310.45  393.47  2.75
389.0  14766.80  407.36  2.76
390.5  15266.25  419.49  2.75
392.0  15790.65  428.49  2.71
393.4  16343.05  436.17  2.67
394.9  16886.70  443.70  2.63
396.4  17413.88  455.40  2.62
397.9  17963.13  466.38  2.60
399.3  18512.58  476.11  2.57
400.8  19092.55  488.53  2.56
402.2  19738.20  495.91  2.51
403.7  20343.38  520.02  2.56
405.2  20928.70  535.06  2.56
406.6  21529.60  542.88  2.52
408.1  22102.80  551.44  2.49
409.6  22718.25  566.31  2.49
411.0  23399.60  580.72  2.48
412.5  24073.70  599.76  2.49
414.0  24714.88  615.33  2.49
415.4  25420.13  636.00  2.50
416.9  26098.35  651.50  2.50
418.4  26761.28  672.30  2.51
419.8  27500.20  695.24  2.53
421.3  28216.98  720.13  2.55
422.7  29023.20  744.72  2.57
424.2  29818.13  766.13  2.57
425.7  30562.50  782.40  2.56
427.1  31301.85  800.75  2.56
428.6  32085.00  824.60  2.57
430.0  32838.70  843.73  2.57
431.5  33715.58  874.61  2.59
432.9  34603.30  899.51  2.60
434.4  35483.03  916.80  2.58
435.9  36316.00  938.00  2.58
437.3  37152.50  965.25  2.60
438.8  37982.85  988.26  2.60
440.2  38848.43  1016.02  2.62
441.7  39824.80  1042.52  2.62
443.1  40730.50  1067.95  2.62
444.6  41710.40  1089.92  2.61
446.0  42635.85  1118.45  2.62
447.5  43583.10  1145.16  2.63
448.9  44505.00  1171.32  2.63
450.4  45506.30  1204.35  2.65
451.8  46384.00  1227.20  2.65
453.3  47292.28  1252.59  2.65
454.7  48312.73  1277.98  2.65
456.2  49183.78  1301.34  2.65
457.6  50179.50  1330.16  2.65
459.1  51141.35  1359.15  2.66
460.5  52068.88  1382.98  2.66
462.0  53126.20  1414.72  2.66
463.4  54169.80  1433.02  2.65
464.8  55167.00  1467.98  2.66
466.3  56170.13  1492.26  2.66
467.7  57186.73  1520.10  2.66
469.2  58256.43  1553.88  2.67
470.6  59234.80  1579.22  2.67
472.0  60283.23  1604.55  2.66
473.5  61288.38  1632.85  2.66
474.9  62315.25  1664.40  2.67
476.4  63489.60  1696.32  2.67
477.8  64597.50  1728.40  2.68
479.2  65627.00  1763.20  2.69
480.7  66744.23  1792.01  2.68
482.1  67871.65  1820.70  2.68
483.6  69056.55  1855.38  2.69
485.0  70131.38  1890.44  2.70
486.4  71338.65  1926.42  2.70
487.9  72423.00  1968.53  2.72
489.3  73595.55  2005.55  2.73
490.7  74699.93  2049.72  2.74
492.2  75940.20  2096.22  2.76
493.6  77059.00  2141.83  2.78
495.0  78170.63  2193.75  2.81
496.5  79347.73  2251.15  2.84
497.9  80477.70  2312.78  2.87
499.3  81651.70  2377.35  2.91
500.7  82904.35  2455.34  2.96
502.2  84066.80  2537.48  3.02
503.6  85307.80  2630.92  3.08
505.0  86376.40  2739.55  3.17
506.5  87704.40  2860.44  3.26
507.9  88950.00  3003.55  3.38
509.3  90383.60  3173.12  3.51
510.7  91684.13  3369.60  3.68
512.2  93103.20  3598.49  3.87
513.6  94580.85  3857.28  4.08
515.0  96004.53  4153.70  4.33
516.4  97382.25  4484.97  4.61
517.8  99016.25  4873.13  4.92
519.3  100354.75  5289.39  5.27
520.7  101946.80  5757.69  5.65
522.1  103261.28  6249.62  6.05
523.5  104680.90  6769.30  6.47
524.9  106187.40  7312.59  6.89
526.3  107610.65  7855.19  7.30
527.8  109117.80  8405.10  7.70
529.2  110260.00  8945.96  8.11
530.6  111799.65  9528.33  8.52
532.0  113484.00  10105.20  8.90
533.4  114844.50  10618.37  9.25
534.8  115811.33  11066.68  9.56
536.3  117441.60  11563.56  9.85
537.7  119372.40  12080.88  10.12
539.1  120821.98  12524.67  10.37
540.5  122042.40  12936.88  10.60
541.9  123778.80  13392.89  10.82
543.3  125114.18  13788.14  11.02
544.7  126437.40  14179.32  11.21
546.1  128264.40  14612.40  11.39
547.5  129505.60  14965.44  11.56
549.0  131197.00  15353.80  11.70
550.4  132748.75  15699.50  11.83
551.8  134351.63  16016.95  11.92
553.2  135923.60  16288.63  11.98
554.6  137290.40  16481.92  12.01
556.0  138845.25  16651.08  11.99
557.4  140440.65  16769.87  11.94
558.8  142115.85  16851.87  11.86
560.2  143579.63  16859.38  11.74
561.6  145272.38  16836.38  11.59
563.0  146869.98  16751.62  11.41
564.4  148480.70  16631.02  11.20
565.8  150035.63  16458.13  10.97
567.2  151811.50  16271.20  10.72
568.6  153359.25  16027.58  10.45
570.0  154802.38  15740.35  10.17
571.4  156567.45  15467.79  9.88
572.8  158331.00  15194.53  9.60
574.2  159969.60  14922.88  9.33
575.6  161527.50  14665.50  9.08
577.0  163081.60  14432.36  8.85
578.4  164812.38  14248.33  8.65
579.8  166353.08  14056.88  8.45
581.2  168103.73  13906.21  8.27
582.5  169556.40  13742.82  8.11
583.9  171100.00  13607.76  7.95
585.3  172924.43  13506.26  7.81
586.7  174410.60  13393.45  7.68
588.1  175933.75  13301.13  7.56
589.5  177600.50  13230.00  7.45
590.9  179254.40  13173.76  7.35
592.3  181096.50  13139.85  7.26
593.7  182570.70  13095.81  7.17
595.0  184218.30  13081.50  7.10
596.4  185690.05  13058.78  7.03
597.8  187207.85  13035.78  6.96
599.2  188786.40  13007.28  6.89
600.6  190574.15  12989.21  6.82
602.0  191896.95  12922.91  6.73
603.3  193724.35  12877.92  6.65
604.7  195415.75  12808.01  6.55
606.1  196939.80  12707.04  6.45
607.5  198598.35  12593.77  6.34
608.9  200324.90  12470.78  6.23
610.2  201724.43  12320.91  6.11
611.6  203372.03  12176.25  5.99
613.0  204958.80  12033.96  5.87
614.4  206377.20  11875.71  5.75
615.8  207850.50  11735.10  5.65
617.1  209416.20  11607.12  5.54
618.5  211077.60  11499.60  5.45
619.9  212606.63  11414.64  5.37
621.3  214245.90  11360.52  5.30
622.6  215833.25  11327.70  5.25
624.0  217257.90  11309.40  5.21
625.4  218713.28  11320.49  5.18
626.8  220258.68  11351.34  5.15
628.1  221568.60  11386.71  5.14
629.5  223451.05  11455.13  5.13
630.9  225070.18  11490.88  5.11
632.2  226480.45  11485.29  5.07
633.6  228122.13  11446.35  5.02
635.0  229637.20  11341.68  4.94
636.3  231179.90  11179.26  4.84
637.7  232547.00  10939.30  4.70
639.1  234185.00  10661.00  4.55
640.4  235660.78  10329.27  4.38
641.8  236876.43  9974.87  4.21
643.2  238488.78  9639.77  4.04
644.5  239878.00  9311.15  3.88
645.9  241547.40  9025.74  3.74
647.2  242901.05  8782.13  3.62
648.6  244599.75  8610.30  3.52
650.0  246067.20  8484.48  3.45
651.3  246943.68  8363.08  3.39
652.7  248755.60  8307.22  3.34
654.0  250800.80  8257.74  3.29
655.4  252255.90  8199.00  3.25
656.8  252605.60  8090.28  3.20
658.1  254013.00  8008.56  3.15
659.5  256248.83  7946.40  3.10
660.8  257715.00  7834.50  3.04
662.2  258720.00  7705.60  2.98
663.5  260284.65  7601.88  2.92
664.9  261509.30  7505.16  2.87
666.2  262315.20  7414.80  2.83
667.6  264104.75  7376.18  2.79
668.9  265141.78  7352.16  2.77
670.3  266732.38  7347.95  2.75
671.6  268022.25  7367.63  2.75
673.0  269217.00  7416.30  2.75
674.3  270504.00  7460.96  2.76
675.7  271831.55  7545.24  2.78
677.0  272933.80  7629.46  2.80
678.4  274277.33  7752.80  2.83
679.7  275378.58  7898.17  2.87
681.1  276688.05  8097.11  2.93
682.4  277841.20  8331.70  3.00
683.8  279123.00  8641.10  3.10
685.1  280146.75  9049.13  3.23
686.4  281540.40  9625.92  3.42
687.8  282864.25  10439.70  3.69
689.1  283932.25  11574.45  4.08
690.5  285342.45  13164.15  4.61
691.8  286241.60  15318.96  5.35
693.1  287632.35  18147.18  6.31
694.5  288879.50  21635.25  7.49
695.8  290221.75  25743.90  8.87
697.1  291450.25  30384.90  10.43
698.5  292557.60  35484.64  12.13
699.8  293709.28  40932.91  13.94
701.1  294888.38  46628.87  15.81
702.5  295720.70  52361.10  17.71
703.8  296685.00  58117.50  19.59
705.1  297893.70  63812.58  21.42
706.5  298952.38  69340.13  23.19
707.8  299959.35  74671.35  24.89
709.1  300807.05  79758.30  26.51
710.5  301990.28  84714.45  28.05
711.8  302856.30  89382.86  29.51
713.1  303882.10  93891.92  30.90
714.4  304818.70  98160.14  32.20
715.8  305666.10  102200.90  33.44
717.1  307021.95  106202.73  34.59
718.4  308000.00  109889.92  35.68
719.7  309121.15  113458.30  36.70
721.0  309667.50  116631.00  37.66
722.4  310468.40  119704.42  38.56
723.7  311460.15  122685.99  39.39
725.0  312514.20  125519.27  40.16
726.3  313501.38  128153.25  40.88
727.6  314072.00  130458.57  41.54
729.0  314989.50  132754.09  42.15
730.3  315810.90  134875.85  42.71
731.6  316738.30  136885.95  43.22
732.9  317540.83  138709.69  43.68
734.2  318344.13  140418.30  44.11
735.5  319351.88  142133.35  44.51
736.8  320163.30  143617.26  44.86
738.1  320977.00  145029.98  45.18
739.5  321938.48  146398.97  45.47
740.8  322653.93  147589.15  45.74
742.1  323437.63  148749.10  45.99
743.4  324250.00  149840.00  46.21
744.7  325235.83  150974.48  46.42
746.0  326127.75  151973.25  46.60
747.3  326694.48  152762.02  46.76
748.6  327437.00  153578.15  46.90
749.9  328224.00  154377.60  47.03
751.2  329045.45  155147.95  47.15
752.5  330013.00  155979.52  47.26
753.8  330657.08  156616.88  47.37
755.1  331344.00  157237.60  47.45
756.4  331882.58  157746.18  47.53
757.7  332821.30  158421.27  47.60
759.0  334604.78  159453.25  47.65
760.3  335781.60  160184.64  47.71
761.6  337367.80  161084.28  47.75
762.9  337906.00  161468.35  47.78
764.2  338294.40  161760.46  47.82
765.5  338542.18  161993.26  47.85
766.8  338966.40  162286.08  47.88
768.1  339486.00  162608.04  47.90
769.3  340095.00  162974.63  47.92
770.6  340766.40  163356.57  47.94
771.9  341481.00  163758.74  47.96
773.2  341879.20  163987.28  47.97
774.5  342485.00  164318.44  47.98
775.8  343199.60  164681.57  47.98
777.1  343736.80  164989.00  48.00
778.4  344095.95  165174.30  48.00
779.6  344839.73  165592.03  48.02
780.9  345330.00  165840.00  48.02
782.2  345787.75  166096.70  48.03
783.5  346114.00  166267.70  48.04
784.8  346657.95  166541.31  48.04
786.0  347042.15  166739.72  48.05
787.3  347389.58  166949.70  48.06
788.6  347815.43  167183.09  48.07
789.9  348243.00  167414.24  48.07
791.2  348943.40  167761.25  48.08
792.4  349600.95  168073.58  48.08
793.7  350098.80  168315.96  48.08
795.0  350765.25  168644.69  48.08
796.2  351353.85  168968.83  48.09
797.5  352042.05  169332.99  48.10
798.8  352743.15  169671.78  48.10
800.0  353432.23  170019.92  48.11
801.3  353888.30  170247.60  48.11
802.6  354500.55  170546.09  48.11
803.8  355169.95  170856.30  48.11
805.1  355631.50  171103.45  48.11
806.4  356082.60  171335.70  48.12
807.7  356624.78  171629.28  48.13
808.9  357171.50  171901.93  48.13
810.2  357650.65  172145.33  48.13
811.4  358173.20  172381.88  48.13
812.7  358800.00  172705.00  48.13
814.0  359651.00  173118.05  48.14
815.2  360302.50  173446.20  48.14
816.5  360732.58  173665.70  48.14
817.7  361225.50  173902.44  48.14
819.0  361721.25  174147.60  48.14
820.2  361900.00  174231.20  48.14
821.5  362558.00  174581.50  48.15
822.7  362924.40  174770.56  48.16
824.0  363206.70  174934.08  48.16
825.2  363704.18  175187.21  48.17
826.5  364064.78  175324.07  48.16
827.7  364653.83  175579.40  48.15
829.0  365047.70  175790.06  48.16
830.2  365336.60  175943.10  48.16
831.5  365844.25  176197.01  48.16
832.7  366150.75  176343.09  48.16
834.0  366471.63  176506.39  48.16
835.2  366834.60  176673.09  48.16
836.4  367154.70  176812.57  48.16
837.7  367584.40  177017.20  48.16
838.9  368011.15  177253.38  48.17
840.1  368476.43  177476.00  48.16
841.4  368882.70  177698.70  48.17
842.6  369284.20  177908.40  48.18
843.8  369707.40  178085.40  48.17
845.1  370225.30  178370.49  48.18
846.3  370636.70  178581.14  48.18
847.5  371063.70  178790.22  48.18
848.8  371479.80  178997.52  48.18
850.0  371827.75  179179.00  48.19
851.2  372388.05  179474.67  48.20
852.5  372747.10  179641.34  48.19
853.7  373295.25  179894.25  48.19
854.9  373729.40  180109.28  48.19
856.1  374183.55  180363.30  48.20
857.4  374461.83  180482.33  48.20
858.6  374966.30  180741.72  48.20
859.8  375388.13  180930.00  48.20
861.0  375850.80  181144.08  48.20
862.2  376342.13  181369.19  48.19
863.5  376793.95  181573.60  48.19
864.7  377302.20  181833.96  48.19
865.9  377716.40  182061.36  48.20
867.1  378016.70  182216.21  48.20
868.3  378441.60  182409.45  48.20
869.5  378930.85  182603.97  48.19
870.8  379516.50  182880.90  48.19
872.0  379975.05  183121.07  48.19
873.2  380434.20  183324.27  48.19
874.4  380896.43  183522.11  48.18
875.6  381324.50  183689.92  48.17
876.8  381797.10  183930.39  48.17
878.0  382203.65  184153.41  48.18
879.2  382752.15  184392.15  48.18
880.4  383253.38  184627.28  48.17
881.6  383716.78  184813.29  48.16
882.8  384087.20  184998.72  48.17
884.0  384739.30  185253.19  48.15
885.2  385266.10  185467.96  48.14
886.5  385964.40  185749.81  48.13
887.7  386387.30  185937.64  48.12
888.8  387097.28  186274.02  48.12
890.0  387550.40  186508.63  48.13
891.2  388199.10  186781.58  48.11
892.4  388747.28  187009.20  48.11
893.6  389350.35  187246.59  48.09
894.8  390218.00  187660.45  48.09
896.0  391144.25  188058.90  48.08
897.2  392018.25  188462.95  48.08
898.4  392729.70  188763.96  48.06
899.6  393166.88  188990.18  48.07
900.8  393446.10  189153.54  48.08
902.0  393789.90  189215.94  48.05
903.2  394054.28  189311.01  48.04
904.3  394378.20  189438.06  48.03
905.5  395012.85  189749.24  48.04
906.7  395661.00  189999.00  48.02
907.9  396231.15  190227.80  48.01
909.1  396451.13  190343.25  48.01
910.2  396605.33  190380.03  48.00
911.4  396831.83  190464.89  48.00
912.6  397103.85  190517.47  47.98
913.8  397277.40  190604.43  47.98
915.0  397715.85  190798.65  47.97
916.2  397868.25  190834.80  47.96
917.3  397887.08  190785.38  47.95
918.5  398106.00  190830.68  47.93
919.7  398333.40  190879.05  47.92
920.8  398409.88  190917.48  47.92
922.0  398455.75  190913.80  47.91
923.2  398580.00  190936.20  47.90
924.4  398796.75  190985.18  47.89
925.5  399013.20  191032.48  47.88
926.7  399789.00  191266.58  47.84
927.9  400542.00  191566.08  47.83
929.0  401866.65  192207.33  47.83
930.2  404219.30  193238.74  47.81
931.4  406505.93  194411.88  47.83
932.5  409221.70  195593.57  47.80
933.7  410739.85  196129.08  47.75
934.9  411486.25  196322.00  47.71
936.0  411133.13  196096.55  47.70
937.2  408992.40  194933.19  47.66
938.3  407010.25  193994.29  47.66
939.5  405234.00  193091.04  47.65
940.7  405512.10  193078.08  47.61
941.8  407161.43  193704.29  47.57
943.0  408690.00  194271.15  47.54
944.2  409501.30  194595.31  47.52
945.3  408846.75  194179.05  47.49
946.5  407951.10  193542.21  47.44
947.6  408098.00  193446.08  47.40
948.8  407840.55  193210.10  47.37
949.9  408223.20  193136.16  47.31
951.1  407667.33  192704.53  47.27
952.2  407592.00  192412.80  47.21
953.4  407039.00  191996.40  47.17
954.5  407089.80  191730.24  47.10
955.7  406765.80  191451.96  47.07
956.8  406383.50  191098.30  47.02
958.0  406009.50  190667.20  46.96
959.1  406079.28  190421.61  46.89
960.3  405445.93  190005.35  46.86
961.4  405302.40  189750.95  46.82
962.6  405177.50  189690.20  46.82
963.7  404786.25  189489.03  46.81
964.9  404903.33  189323.06  46.76
966.0  404793.45  189075.06  46.71
967.2  404413.65  188867.25  46.70
968.3  404040.15  188642.52  46.69
969.5  403706.30  188433.55  46.68
970.6  403637.55  188306.45  46.65
971.8  403624.90  188278.44  46.65
972.9  403394.70  188084.34  46.63
974.0  403790.10  188044.30  46.57
975.2  403550.88  187891.65  46.56
976.3  403340.63  187723.69  46.54
977.5  403134.55  187499.17  46.51
978.6  402500.60  187406.84  46.56
979.7  402639.30  187473.62  46.56
980.9  402225.10  187133.88  46.52
982.0  402198.10  186892.53  46.47
983.2  402608.90  186896.37  46.42
984.3  402412.00  186632.16  46.38
985.4  402688.20  186764.01  46.38
986.6  401637.75  186571.18  46.45
987.7  402422.83  187058.13  46.48
988.9  401920.20  186827.40  46.48
990.0  403145.80  187164.44  46.43
993.1  393379.64  179130.34  45.54
996.9  392102.20  178932.78  45.63
1000.7  392159.78  179270.34  45.71
1004.5  392257.67  179622.98  45.79
1008.4  391817.79  179757.28  45.88
1012.2  391721.08  179951.83  45.94
1016.0  391309.20  180018.00  46.00
1019.8  390626.78  179911.47  46.06
1023.7  389433.27  179534.55  46.10
1027.5  387755.30  178945.06  46.15
1031.3  386705.45  178632.20  46.19
1035.1  385690.84  178314.64  46.23
1038.9  385234.85  178250.76  46.27
1042.7  385012.75  178266.20  46.30
1046.5  384874.17  178276.86  46.32
1050.3  384874.29  178314.66  46.33
1054.2  384479.67  178192.63  46.35
1058.0  384120.28  178032.22  46.35
1061.8  384103.28  178041.25  46.35
1065.6  383405.53  177696.51  46.35
1069.4  382604.33  177275.94  46.33
1073.2  381317.19  176609.02  46.32
1077.0  380656.95  176212.44  46.29
1080.8  380896.88  176200.90  46.26
1084.6  381032.17  176132.95  46.23
1088.4  381298.10  176166.54  46.20
1092.2  380805.75  175794.59  46.16
1096.0  380156.55  175343.53  46.12
1099.8  379485.17  174849.44  46.08
1103.6  378533.18  174241.65  46.03
1107.4  377402.30  173527.26  45.98
1111.2  377080.10  173192.27  45.93
1114.9  376540.50  172701.50  45.87
1118.7  376276.73  172287.58  45.79
1122.5  375864.67  171752.85  45.70
1126.3  374949.46  170889.44  45.58
1130.1  374576.93  170062.25  45.40
1133.9  372882.30  168387.00  45.16
1137.7  371339.30  166563.54  44.85
1141.4  369260.34  164344.89  44.51
1145.2  368307.38  162496.14  44.12
1149.0  367015.83  160596.88  43.76
1152.8  365181.25  158636.84  43.44
1156.6  363360.43  156964.23  43.20
1160.3  361544.67  155589.07  43.03
1164.1  359234.93  154186.31  42.92
1167.9  357554.17  153206.70  42.85
1171.7  356217.75  152447.07  42.80
1175.4  354733.80  151662.21  42.75
1179.2  353342.70  150880.43  42.70
1183.0  353059.33  150550.43  42.64
1186.7  353075.80  150373.85  42.59
1190.5  352745.93  150074.99  42.54
1194.3  351811.13  149547.21  42.51
1198.0  350295.28  148830.42  42.49
1201.8  348574.38  148085.79  42.48
1205.6  347462.00  147696.72  42.51
1209.3  346828.55  147621.75  42.56
1213.1  346258.13  147588.17  42.62
1216.8  345564.82  147568.42  42.70
1220.6  344426.13  147356.00  42.78
1224.3  343163.92  147065.95  42.86
1228.1  341672.80  146684.79  42.93
1231.9  340128.95  146218.00  42.99
1235.6  338435.85  145653.06  43.04
1239.4  336926.25  145183.21  43.09
1243.1  335574.35  144724.03  43.13
1246.9  334290.07  144257.32  43.15
1250.6  333255.13  143861.20  43.17
1254.3  332090.28  143401.07  43.18
1258.1  330876.23  142883.75  43.18
1261.8  329456.27  142258.52  43.18
1265.6  328304.77  141707.27  43.16
1269.3  327532.60  141292.32  43.14
1273.1  327815.28  141307.26  43.11
1276.8  327475.20  141003.69  43.06
1280.6  326253.13  140299.74  43.00
1284.3  324260.80  139214.92  42.93
1288.0  323030.51  138427.73  42.85
1291.8  322624.47  137912.63  42.75
1295.5  321876.13  137241.66  42.64
1299.2  320648.37  136316.24  42.51
1302.9  318971.90  135096.82  42.35
1306.7  317160.67  133751.45  42.17
1310.4  315423.99  132305.86  41.95
1314.1  313798.10  130852.47  41.70
1317.9  312363.96  129353.39  41.41
1321.6  310791.12  127694.64  41.09
1325.3  309097.95  125860.73  40.72
1329.0  307775.77  124135.60  40.33
1332.8  305813.20  122037.30  39.91
1336.5  304127.27  120041.80  39.47
1340.2  303985.50  118660.75  39.04
1343.9  303877.71  117295.36  38.60
1347.6  303978.75  115987.57  38.16
1351.4  305412.00  115233.65  37.73
1355.1  307418.47  114699.12  37.31
1358.8  309216.00  114017.14  36.87
1362.5  309524.80  112640.39  36.39
1366.2  307641.35  110234.13  35.83
1369.9  304403.13  107050.80  35.17
1373.6  301464.92  103498.29  34.33
1377.3  299889.90  99757.74  33.26
1381.0  299358.17  95548.46  31.92
1384.8  297440.00  90009.91  30.26
1388.4  294173.25  83528.90  28.39
1392.2  291928.58  76972.54  26.37
1395.9  290421.08  70539.76  24.29
1399.6  288591.99  64369.04  22.30
1403.3  287116.83  58884.39  20.51
1407.0  285410.30  54121.26  18.96
1410.7  283607.78  50202.55  17.70
1414.3  281703.68  47073.72  16.71
1418.1  280021.00  44715.02  15.97
1421.7  278620.01  42947.90  15.41
1425.4  277241.25  41658.20  15.03
1429.1  276027.38  40761.32  14.77
1432.8  274314.56  40093.58  14.62
1436.5  273520.43  39767.80  14.54
1440.2  272883.67  39641.63  14.53
1443.9  271754.82  39556.87  14.56
1447.6  270131.40  39501.00  14.62
1451.2  268878.50  39552.47  14.71
1454.9  267412.65  39629.15  14.82
1458.6  266171.73  39851.70  14.97
1462.3  264932.43  40209.87  15.18
1466.0  263579.33  40706.14  15.44
1469.7  261821.84  41316.02  15.78
1473.3  260725.50  42170.11  16.17
1477.0  258638.17  42967.84  16.61
1480.7  256947.25  43883.84  17.08
1484.4  254912.90  44752.55  17.56
1488.0  253293.33  45734.86  18.06
1491.7  251647.88  46695.42  18.56
1495.4  249966.58  47643.19  19.06
1499.0  248428.50  48573.97  19.55
1502.7  247130.50  49545.97  20.05
1506.4  245699.80  50440.83  20.53
1510.0  244218.97  51295.16  21.00
1513.7  242686.79  52087.01  21.46
1517.4  241287.33  52859.29  21.91
1521.0  240008.13  53622.29  22.34
1524.7  238740.67  54309.36  22.75
1528.3  237427.13  54954.32  23.15
1532.0  236200.07  55557.15  23.52
1535.7  234762.67  56059.46  23.88
1539.3  233470.92  56555.47  24.22
1543.0  232468.29  57093.97  24.56
1546.6  231755.33  57662.20  24.88
1550.3  230715.05  58106.79  25.19
1553.9  229613.40  58503.97  25.48
1557.6  228339.47  58827.53  25.76
1561.2  227036.25  59095.19  26.03
1564.9  225669.10  59339.41  26.29
1568.5  224299.13  59553.55  26.55
1572.2  223114.00  59783.76  26.80
1575.8  221998.00  60018.00  27.04
1579.5  220962.90  60250.47  27.27
1583.1  219890.75  60465.49  27.50
1586.8  218540.00  60579.00  27.72
1590.4  217278.10  60699.18  27.94
1594.0  215940.40  60778.86  28.15
1597.7  215102.19  61000.36  28.36
1601.3  214170.08  61184.37  28.57
1604.9  213164.64  61322.91  28.77
1608.6  211735.63  61312.92  28.96
1612.2  210332.93  61273.23  29.13
1615.8  208856.38  61195.53  29.30
1619.5  207594.92  61151.82  29.46
1623.1  206217.83  61063.27  29.61
1626.7  204971.33  60979.91  29.75
1630.3  203753.92  60877.47  29.88
1634.0  202594.00  60768.00  29.99
1637.6  201575.33  60665.52  30.10
1641.2  200521.60  60497.29  30.17
1644.8  199280.21  60225.46  30.22
1648.5  198142.93  59958.03  30.26
1652.1  197146.20  59691.35  30.28
1655.7  196215.60  59411.79  30.28
1659.3  195342.53  59164.64  30.29
1662.9  193870.83  58738.04  30.30
1666.6  192389.80  58305.33  30.31
1670.2  190912.17  57843.02  30.30
1673.8  189391.20  57322.86  30.27
1677.4  188185.70  56854.33  30.21
1681.0  187352.33  56424.67  30.12
1684.6  186928.08  56050.66  29.99
1688.2  186228.15  55503.38  29.80
1691.8  185510.38  54991.90  29.64
1695.4  185068.60  54534.09  29.47
1699.0  184691.73  54094.80  29.29
1702.6  184341.00  53651.72  29.10
1706.2  183706.25  53105.00  28.91
1709.8  182730.41  52485.15  28.72
1713.4  181946.79  51957.67  28.56
1717.0  181026.75  51431.15  28.41
1720.6  180166.35  50942.09  28.28
1724.2  179428.35  50477.42  28.13
1727.8  178688.65  50022.98  27.99
1731.4  178217.88  49633.77  27.85
1735.0  178050.22  49337.87  27.71
1738.6  177844.95  48978.71  27.54
1742.2  177291.27  48475.73  27.34
1745.8  176653.58  47927.67  27.13
1749.4  175685.40  47273.56  26.91
1753.0  174159.73  46473.52  26.68
1756.6  172437.71  45659.51  26.48
1760.1  171072.43  44963.09  26.28
1763.7  169280.00  44179.71  26.10
1767.3  167789.98  43499.14  25.92
1770.9  166493.83  42887.17  25.76
1774.5  164998.46  42256.02  25.61
1778.0  163796.55  41762.98  25.50
1781.6  162680.70  41340.03  25.41
1785.2  161503.73  40947.42  25.35
1788.8  160301.60  40608.21  25.33
1792.3  159036.00  40268.23  25.32
1795.9  158526.23  40137.80  25.32
1799.5  158264.67  40080.93  25.33
1803.1  158952.73  40302.33  25.35
1806.6  160815.61  40827.67  25.39
1810.2  162530.43  41290.90  25.41
1813.8  163453.65  41515.27  25.40
1817.3  163104.80  41400.26  25.38
1820.9  161977.72  41084.21  25.36
1824.5  160652.53  40695.94  25.33
1828.0  159539.88  40336.41  25.28
1831.6  159067.60  40107.80  25.21
1835.2  158836.67  39877.14  25.11
1838.7  158645.87  39563.89  24.94
1842.3  158475.00  39175.72  24.72
1845.8  157290.08  38407.21  24.42
1849.4  156653.43  37624.15  24.02
1852.9  155775.32  36608.72  23.50
1856.5  154720.00  35319.68  22.83
1860.0  153592.96  33765.37  21.98
1863.6  153469.45  32155.27  20.95
1867.1  154041.30  30381.23  19.72
1870.7  154926.53  28268.26  18.25
1874.2  154020.60  25492.63  16.55
1877.8  151463.60  22338.07  14.75
1881.3  148497.13  19141.18  12.89
1884.9  146609.83  16267.72  11.10
1888.4  145001.56  13660.90  9.42
1891.9  143326.27  11457.29  7.99
1895.5  141906.93  9721.43  6.85
1899.0  141140.75  8491.26  6.02
1901.3  180667.17  7359.00  4.07
1904.1  180535.50  6562.88  3.64
1906.8  179323.80  5893.80  3.29
1909.6  176907.15  5392.45  3.05
1912.4  174612.20  5002.61  2.86
1915.1  172913.95  4731.38  2.74
1917.9  171213.83  4529.42  2.65
1920.6  169773.73  4417.15  2.60
1923.3  168333.90  4332.19  2.57
1926.1  166594.47  4257.49  2.56
1928.8  164970.67  4224.00  2.56
1931.6  163672.23  4220.99  2.58
1934.3  162512.38  4252.04  2.62
1937.0  161369.90  4300.02  2.66
1939.8  160081.67  4355.34  2.72
1942.5  158433.00  4422.00  2.79
1945.2  156342.45  4488.28  2.87
1947.9  154603.63  4585.24  2.97
1950.7  153209.70  4697.77  3.07
1953.4  151252.90  4798.88  3.17
1956.1  149725.00  4934.33  3.30
1958.8  148377.23  5072.93  3.42
1961.5  146804.40  5225.60  3.56
1964.2  145208.70  5378.10  3.70
1966.9  143560.15  5538.60  3.86
1969.6  142263.00  5724.00  4.02
1972.3  140815.80  5918.50  4.20
1975.0  139714.95  6119.78  4.38
1977.7  138553.92  6330.37  4.57
1980.4  137382.43  6544.32  4.76
1983.1  136224.07  6772.85  4.97
1985.8  135267.60  7003.50  5.18
1988.4  134203.33  7232.34  5.39
1991.1  133246.87  7463.52  5.60
1993.8  132343.38  7703.30  5.82
1996.5  131671.28  7957.50  6.04
1999.1  130964.72  8194.45  6.26
2001.8  130259.73  8430.45  6.47
2004.5  129568.35  8675.95  6.70
2007.1  128815.80  8913.83  6.92
2009.8  128032.33  9129.75  7.13
2012.4  127431.88  9349.08  7.34
2015.1  126875.47  9574.37  7.55
2017.8  126055.30  9764.30  7.75
2020.4  125527.60  9960.87  7.94
2023.1  125166.07  10165.75  8.12
2025.7  124930.00  10361.00  8.29
2028.3  124574.67  10551.67  8.47
2031.0  124145.62  10710.89  8.63
2033.6  123861.90  10883.70  8.79
2036.2  123600.90  11035.95  8.93
2038.9  122991.90  11140.35  9.06
2041.5  122626.07  11270.65  9.19
2044.1  122052.30  11370.90  9.32
2046.8  121660.80  11475.30  9.43
2049.4  120999.60  11549.25  9.54
2052.0  120694.67  11645.90  9.65
2054.6  120295.00  11733.75  9.75
2057.2  119707.80  11798.73  9.86
2059.8  119349.73  11899.17  9.97
2062.4  118433.35  11933.12  10.08
2065.0  117882.53  11995.24  10.18
2067.6  116951.52  12015.93  10.27
2070.2  116350.07  12068.23  10.37
2072.8  115696.32  12116.17  10.47
2075.4  115228.75  12188.75  10.58
2078.0  114569.80  12226.40  10.67
2080.6  113995.20  12271.60  10.77
2083.2  113282.87  12299.64  10.86
2085.8  112769.22  12349.37  10.95
2088.4  112077.33  12384.33  11.05
2090.9  111248.70  12405.05  11.15
2093.5  110337.27  12417.98  11.25
2096.1  109545.73  12437.20  11.35
2098.7  108755.23  12450.38  11.45
2101.2  107769.33  12449.37  11.55
2103.8  107070.67  12475.57  11.65
2106.4  106389.47  12501.77  11.75
2108.9  105708.27  12541.07  11.86
2111.5  104826.20  12541.07  11.96
2114.0  104171.20  12571.64  12.07
2116.6  103617.50  12617.50  12.18
2119.1  103052.17  12654.68  12.28
2121.7  102550.00  12696.25  12.38
2124.2  102149.20  12742.35  12.47
2126.8  101306.97  12735.84  12.57
2129.3  100883.20  12777.60  12.67
2131.9  100267.20  12808.40  12.77
2134.4  99836.85  12850.20  12.87
2136.9  99440.03  12889.72  12.96
2139.4  98889.93  12914.30  13.06
2142.0  98428.87  12945.33  13.15
2144.5  98149.20  12998.45  13.24
2147.0  97900.40  13065.00  13.35
2149.5  97373.33  13087.34  13.44
2152.1  97208.65  13147.11  13.52
2154.6  97140.27  13219.20  13.61
2157.1  96583.08  13225.33  13.69
2159.6  96147.08  13238.96  13.77
2162.1  95968.60  13290.55  13.85
2164.6  95717.33  13325.53  13.92
2167.1  95378.10  13343.39  13.99
2169.6  95033.05  13364.17  14.06
2172.1  94549.33  13356.02  14.13
2174.6  94204.93  13371.80  14.19
2177.1  93743.10  13377.29  14.27
2179.5  93325.05  13374.08  14.33
2182.0  92817.45  13375.18  14.41
2184.5  92256.93  13357.18  14.48
2187.0  91607.10  13319.87  14.54
2189.5  90897.75  13281.41  14.61
2191.9  90098.00  13224.00  14.68
2194.4  89454.85  13193.33  14.75
2196.9  88684.80  13142.40  14.82
2199.3  88005.33  13098.34  14.88
2201.8  87103.60  13008.60  14.93
2204.3  86622.27  12987.45  14.99
2206.7  85960.95  12933.05  15.05
2209.2  85500.72  12907.63  15.10
2211.6  84882.60  12840.30  15.13
2214.1  84575.00  12810.63  15.15
2216.5  84006.20  12749.44  15.18
2219.0  83668.47  12704.73  15.18
2221.4  83280.17  12653.67  15.19
2223.9  82794.25  12564.42  15.18
2226.3  82268.67  12460.30  15.15
2228.7  81695.63  12339.35  15.10
2231.1  81090.90  12206.70  15.05
2233.6  80479.87  12059.07  14.98
2236.0  79898.58  11890.09  14.88
2238.4  79382.92  11726.46  14.77
2240.9  78910.40  11552.47  14.64
2243.3  78354.13  11358.77  14.50
2245.7  77769.20  11153.95  14.34
2248.1  77271.57  10948.38  14.17
2250.5  76761.85  10737.08  13.99
2252.9  76115.43  10494.90  13.79
2255.3  75530.45  10258.45  13.58
2257.7  75050.00  10045.00  13.38
2260.1  74537.63  9837.69  13.20
2262.5  73910.00  9620.00  13.02
2264.9  73387.48  9404.30  12.81
2267.3  72750.00  9200.00  12.65
2269.7  72240.00  9024.98  12.49
2272.1  71649.22  8849.73  12.35
2274.5  71071.35  8670.53  12.20
2276.8  70577.43  8519.18  12.07
2279.2  69978.15  8356.58  11.94
2281.6  69520.40  8214.40  11.82
2284.0  69053.70  8085.05  11.71
2286.3  68582.40  7949.60  11.59
2288.7  68157.05  7830.99  11.49
2291.1  67601.40  7695.47  11.38
2293.4  67133.73  7571.67  11.28
2295.8  66507.10  7410.85  11.14
2298.2  65888.10  7260.53  11.02
2300.5  65205.00  7089.75  10.87
2302.9  64438.67  6918.17  10.74
2305.2  63695.20  6772.25  10.63
2307.6  63003.88  6633.62  10.53
2309.9  62227.33  6484.17  10.42
2312.2  61628.00  6370.50  10.34
2314.6  60982.20  6256.58  10.26
2316.9  60278.40  6137.55  10.18
2319.2  59691.27  6033.40  10.11
2321.6  59039.63  5923.69  10.03
2323.9  58468.75  5822.92  9.96
2326.2  57915.43  5727.90  9.89
2328.6  57391.40  5632.55  9.81
2330.9  56857.50  5533.50  9.73
2333.2  56366.83  5434.54  9.64
2335.5  55907.50  5360.70  9.59
2337.8  55437.12  5262.27  9.49
2340.1  54844.03  5159.83  9.41
2342.4  54394.17  5070.00  9.32
2344.8  53961.08  4978.00  9.23
2347.1  53374.77  4880.17  9.14
2349.4  52813.90  4786.74  9.06
2351.6  52219.00  4693.10  8.99
2353.9  51713.23  4606.42  8.91
2356.2  51192.25  4518.93  8.83
2358.5  50579.20  4424.00  8.75
2360.8  49985.60  4334.40  8.67
2363.1  49521.58  4251.12  8.58
2365.4  49030.70  4169.70  8.50
2367.7  48541.20  4086.90  8.42
2369.9  47986.95  4001.78  8.34
2372.2  47345.87  3910.13  8.26
2374.5  46742.85  3817.28  8.17
2376.7  46118.17  3723.15  8.07
2379.0  45486.33  3623.78  7.97
2381.3  44846.67  3535.00  7.88
2383.5  44305.07  3449.60  7.79
2385.8  43689.63  3347.62  7.66
2388.0  43152.60  3262.70  7.56
2390.3  42625.07  3180.27  7.46
2392.5  42120.00  3096.00  7.35
2394.8  41648.20  3006.85  7.22
2397.0  41144.13  2930.20  7.12
2399.3  40655.78  2844.81  7.00
2401.5  40204.50  2774.63  6.90
2403.8  39659.67  2697.35  6.80
2406.0  39149.75  2613.71  6.68
2408.2  38746.40  2543.20  6.56
2410.4  38311.35  2471.70  6.45
2412.7  37875.93  2406.52  6.35
2414.9  37507.25  2333.93  6.22
2417.1  37084.00  2273.30  6.13
2419.3  36659.20  2214.40  6.04
2421.6  36257.08  2144.17  5.91
2423.8  35865.80  2074.67  5.78
2426.0  35496.43  1999.44  5.63
2428.2  35097.07  1946.94  5.55
2430.4  34790.43  1892.37  5.44
2432.6  34520.00  1846.67  5.35
2434.8  34205.30  1791.14  5.24
2437.0  33811.70  1732.90  5.13
2439.2  33453.75  1682.83  5.03
2441.4  33115.37  1636.00  4.94
2443.6  32869.85  1595.83  4.85
2445.7  32584.18  1547.99  4.75
2447.9  32314.50  1496.05  4.63
2450.1  32019.95  1461.20  4.56
2452.3  31621.33  1397.55  4.42
2454.5  31245.88  1354.51  4.34
2456.6  30858.80  1312.53  4.25
2458.8  30473.30  1272.70  4.18
2461.0  30145.25  1232.63  4.09
2463.1  29842.05  1207.65  4.05
2465.3  29573.97  1177.98  3.98
2467.5  29308.25  1157.88  3.95
2469.6  29057.67  1118.75  3.85
2471.8  28756.92  1081.20  3.76
2473.9  28432.08  1063.38  3.74
2476.1  28058.33  1031.34  3.68
2478.2  27678.97  990.17  3.58
2480.4  27384.40  974.73  3.56
2482.5  27049.38  952.23  3.52
2484.6  26678.67  911.63  3.42
2486.8  26407.40  887.05  3.36
2488.9  26105.63  868.08  3.33
2491.1  25735.73  856.80  3.33
2493.2  25339.10  830.27  3.28
2495.3  24931.83  817.70  3.28
2497.4  24584.70  780.85  3.18
2499.5  24242.63  784.89  3.24
2501.7  24107.70  764.15  3.17
2503.8  23988.42  768.97  3.21
2505.9  23950.83  760.21  3.17
2508.0  23927.77  753.22  3.15
2510.1  23945.78  733.22  3.06
2512.2  24075.20  734.00  3.05
2514.3  24241.72  749.84  3.09
2516.4  24467.40  797.85  3.26
