/*** Spectra Vista SIG Data ***/
name= 48_20221021_QUPH_15_avg.sig
comm= Averaged Ref/Tar of files: HR.102122.0059_moc.sig,HR.102122.0060_moc.sig
data=
337.3  6317.33  501.38  7.94
338.8  6445.40  481.00  7.46
340.3  6805.80  434.82  6.39
341.8  6985.83  453.63  6.49
343.2  7372.48  444.13  6.02
344.7  7814.63  463.73  5.93
346.2  8225.00  460.60  5.60
347.7  8548.20  459.07  5.37
349.2  8845.20  438.48  4.96
350.6  9277.35  438.30  4.72
352.1  9763.50  452.80  4.64
353.6  10320.00  481.60  4.67
355.1  10777.05  452.37  4.20
356.6  11453.20  468.54  4.09
358.0  11968.43  468.61  3.92
359.5  12438.90  487.80  3.92
361.0  13046.00  521.84  4.00
362.5  13726.65  530.61  3.87
364.0  14426.63  531.81  3.69
365.4  15103.73  542.19  3.59
366.9  15710.75  563.42  3.59
368.4  16355.70  598.64  3.66
369.9  17066.00  636.00  3.73
371.3  17911.03  693.33  3.87
372.8  18650.05  696.13  3.73
374.3  19514.60  704.84  3.61
375.8  20284.80  697.29  3.44
377.2  21060.00  716.04  3.40
378.7  21912.80  737.45  3.37
380.2  22671.75  748.70  3.30
381.7  23632.00  780.70  3.30
383.1  24517.13  790.88  3.23
384.6  25393.73  809.66  3.19
386.1  26362.50  833.06  3.16
387.6  27286.43  841.20  3.08
389.0  28204.65  870.26  3.09
390.5  29238.05  894.83  3.06
392.0  30273.75  931.50  3.08
393.4  31338.75  955.58  3.05
394.9  32321.50  977.28  3.02
396.4  33497.20  1001.88  2.99
397.9  34569.00  1022.04  2.96
399.3  35464.68  1045.69  2.95
400.8  36603.60  1080.59  2.95
402.2  37753.65  1110.12  2.94
403.7  38968.50  1154.97  2.96
405.2  40060.90  1189.38  2.97
406.6  41268.30  1223.10  2.96
408.1  42308.03  1241.51  2.93
409.6  43459.40  1266.14  2.91
411.0  44680.90  1312.19  2.94
412.5  45983.70  1354.37  2.95
414.0  47312.48  1398.32  2.96
415.4  48645.90  1439.64  2.96
416.9  49870.73  1463.48  2.93
418.4  51181.93  1518.39  2.97
419.8  52494.75  1562.47  2.98
421.3  53915.40  1614.69  2.99
422.7  55364.40  1662.96  3.00
424.2  56799.08  1691.19  2.98
425.7  58221.63  1752.03  3.01
427.1  59711.50  1792.88  3.00
428.6  61130.90  1855.55  3.04
430.0  62645.83  1906.74  3.04
431.5  64300.28  1955.33  3.04
432.9  65915.13  2003.28  3.04
434.4  67565.83  2051.65  3.04
435.9  69186.30  2102.96  3.04
437.3  70849.13  2167.28  3.06
438.8  72440.18  2233.38  3.08
440.2  74079.08  2278.96  3.08
441.7  75934.33  2343.62  3.09
443.1  77719.50  2400.84  3.09
444.6  79469.85  2461.59  3.10
446.0  81268.08  2542.61  3.13
447.5  83175.00  2625.00  3.16
448.9  84869.63  2696.89  3.18
450.4  86725.00  2780.00  3.21
451.8  88515.38  2849.18  3.22
453.3  90282.30  2931.90  3.25
454.7  92063.93  3000.15  3.26
456.2  93819.60  3076.22  3.28
457.6  95700.15  3160.08  3.30
459.1  97497.75  3231.06  3.31
460.5  99322.95  3290.11  3.31
462.0  101320.20  3361.68  3.32
463.4  103268.90  3440.54  3.33
464.8  105172.20  3512.88  3.34
466.3  107081.63  3600.98  3.36
467.7  109044.80  3672.00  3.37
469.2  110907.75  3752.13  3.38
470.6  112894.25  3813.78  3.38
472.0  114923.08  3891.46  3.39
473.5  116900.65  3971.24  3.40
474.9  119016.00  4071.89  3.42
476.4  121041.20  4164.44  3.44
477.8  123088.00  4267.20  3.47
479.2  125103.60  4343.88  3.47
480.7  127202.33  4425.65  3.48
482.1  129348.60  4523.85  3.50
483.6  131520.60  4620.24  3.51
485.0  133720.50  4733.37  3.54
486.4  135770.70  4840.13  3.56
487.9  137944.75  4960.70  3.60
489.3  140049.98  5082.39  3.63
490.7  142193.10  5229.11  3.68
492.2  144372.00  5379.90  3.73
493.6  146622.30  5552.46  3.79
495.0  148867.88  5751.14  3.86
496.5  150992.10  5964.84  3.95
497.9  153253.38  6191.43  4.04
499.3  155495.00  6463.83  4.16
500.7  157715.90  6780.68  4.30
502.2  160035.75  7146.57  4.47
503.6  162291.00  7551.96  4.65
505.0  164539.93  8015.98  4.87
506.5  166960.40  8553.58  5.12
507.9  169354.55  9170.27  5.41
509.3  171592.88  9846.95  5.74
510.7  174174.00  10625.75  6.10
512.2  176774.03  11497.73  6.50
513.6  179547.10  12465.16  6.94
515.0  182269.15  13539.68  7.43
516.4  185087.00  14697.36  7.94
517.8  187834.25  15946.70  8.49
519.3  190726.40  17272.00  9.06
520.7  193358.50  18650.22  9.65
522.1  195946.40  20074.80  10.25
523.5  198505.00  21529.75  10.85
524.9  201345.15  23010.11  11.43
526.3  203964.75  24420.42  11.97
527.8  206672.50  25865.55  12.52
529.2  209203.20  27308.16  13.05
530.6  211872.60  28725.84  13.56
532.0  214667.05  30093.31  14.02
533.4  217201.90  31411.38  14.46
534.8  219689.25  32664.39  14.87
536.3  222580.25  33912.96  15.24
537.7  225500.75  35099.45  15.57
539.1  228353.13  36247.06  15.87
540.5  231151.50  37395.30  16.18
541.9  234119.38  38542.97  16.46
543.3  236669.90  39640.48  16.75
544.7  239624.00  40783.60  17.02
546.1  242389.00  41907.04  17.29
547.5  245246.40  42992.64  17.53
549.0  248167.20  44045.12  17.75
550.4  251043.98  45036.81  17.94
551.8  254025.48  45979.65  18.10
553.2  256847.93  46781.79  18.21
554.6  259667.55  47458.35  18.28
556.0  262542.00  47999.70  18.28
557.4  265625.20  48468.44  18.25
558.8  268509.30  48816.25  18.18
560.2  271680.00  49128.00  18.08
561.6  274565.78  49292.16  17.95
563.0  277344.60  49331.23  17.79
564.4  280505.40  49393.96  17.61
565.8  283498.35  49349.94  17.41
567.2  286658.88  49243.72  17.18
568.6  289664.78  49006.35  16.92
570.0  292475.63  48604.40  16.62
571.4  295850.15  48175.11  16.28
572.8  298958.00  47674.92  15.95
574.2  301802.03  47122.53  15.61
575.6  304847.63  46645.13  15.30
577.0  307821.53  46187.35  15.00
578.4  311193.75  45836.88  14.73
579.8  314237.63  45496.58  14.48
581.2  317262.75  45198.65  14.25
582.5  320152.50  44932.50  14.03
583.9  323179.90  44728.08  13.84
585.3  326050.20  44554.24  13.66
586.7  329013.30  44421.30  13.50
588.1  331955.10  44344.56  13.36
589.5  335257.80  44368.20  13.23
590.9  338148.23  44385.98  13.13
592.3  341070.53  44466.53  13.04
593.7  344004.15  44602.32  12.97
595.0  346909.20  44767.08  12.90
596.4  350190.25  44993.90  12.85
597.8  352805.60  45134.82  12.79
599.2  355863.30  45295.38  12.73
600.6  358996.28  45416.09  12.65
602.0  361922.40  45433.80  12.55
603.3  364780.00  45338.80  12.43
604.7  367753.18  45169.94  12.28
606.1  370755.90  44875.13  12.10
607.5  374016.38  44529.20  11.91
608.9  377057.45  44052.47  11.68
610.2  380169.90  43527.33  11.45
611.6  383075.00  42938.50  11.21
613.0  385821.10  42330.53  10.97
614.4  388576.38  41719.95  10.74
615.8  391770.20  41205.84  10.52
617.1  394444.38  40689.16  10.32
618.5  397637.33  40295.28  10.13
619.9  400326.45  39949.56  9.98
621.3  403243.43  39719.81  9.85
622.6  406136.25  39575.25  9.74
624.0  408795.38  39501.98  9.66
625.4  411847.05  39560.66  9.61
626.8  414746.80  39678.34  9.57
628.1  417472.30  39834.62  9.54
629.5  420168.88  40056.21  9.53
630.9  422901.10  40277.52  9.52
632.2  425852.98  40490.73  9.51
633.6  428267.78  40571.70  9.47
635.0  431082.18  40552.66  9.41
636.3  434028.53  40380.61  9.30
637.7  436657.48  39996.67  9.16
639.1  439605.65  39454.80  8.98
640.4  442272.00  38719.13  8.75
641.8  445044.60  37859.40  8.51
643.2  447560.70  36885.58  8.24
644.5  450415.00  35875.00  7.96
645.9  452939.55  34812.68  7.69
647.2  455175.88  33780.67  7.42
648.6  457723.60  32902.40  7.19
650.0  460492.20  32134.68  6.98
651.3  463319.10  31501.84  6.80
652.7  467191.50  30966.15  6.63
654.0  469984.30  30335.43  6.45
655.4  472178.70  29622.29  6.27
656.8  473965.28  28803.08  6.08
658.1  476579.78  27905.43  5.86
659.5  479606.40  26922.24  5.61
660.8  482375.25  25864.44  5.36
662.2  485009.58  24776.31  5.11
663.5  487760.23  23732.55  4.87
664.9  489657.93  22779.32  4.65
666.2  491826.40  21968.70  4.47
667.6  494361.00  21332.25  4.32
668.9  496929.60  20856.96  4.20
670.3  499965.38  20502.83  4.10
671.6  502016.00  20284.16  4.04
673.0  504220.80  20190.88  4.00
674.3  506590.70  20192.48  3.99
675.7  509080.50  20295.54  3.99
677.0  511344.75  20496.02  4.01
678.4  513489.60  20753.96  4.04
679.7  515820.60  21180.06  4.11
681.1  518227.30  21771.98  4.20
682.4  520365.00  22611.30  4.35
683.8  522610.88  23789.33  4.55
685.1  524851.80  25478.49  4.85
686.4  527078.50  27827.02  5.28
687.8  529426.05  31093.01  5.87
689.1  531828.50  35398.30  6.66
690.5  533782.45  40887.47  7.66
691.8  536363.03  47734.28  8.90
693.1  538834.50  55871.40  10.37
694.5  541093.40  65043.08  12.02
695.8  543496.90  75006.68  13.80
697.1  545725.60  85450.98  15.66
698.5  547973.63  96228.03  17.56
699.8  550319.20  107116.48  19.46
701.1  552225.98  117791.94  21.33
702.5  554202.38  128233.85  23.14
703.8  556596.28  138354.06  24.86
705.1  558361.00  147875.05  26.48
706.5  560578.05  157034.22  28.01
707.8  562379.78  165637.65  29.45
709.1  564617.08  173915.66  30.80
710.5  566768.33  181780.63  32.07
711.8  568675.00  189225.80  33.27
713.1  570567.00  196372.40  34.42
714.4  572619.73  203275.92  35.50
715.8  574835.88  209947.55  36.52
717.1  577044.95  216388.62  37.50
718.4  579235.88  222537.36  38.42
719.7  581373.90  228441.56  39.29
721.0  583060.90  233903.35  40.12
722.4  584822.70  239167.08  40.90
723.7  586756.85  244174.34  41.61
725.0  588385.50  248872.12  42.30
726.3  590644.60  253531.20  42.92
727.6  592286.25  257738.55  43.52
729.0  594074.25  261730.49  44.06
730.3  596009.18  265566.07  44.56
731.6  597439.40  268959.98  45.02
732.9  599336.73  272323.94  45.44
734.2  600901.13  275362.73  45.82
735.5  602580.00  278273.27  46.18
736.8  604538.38  281129.91  46.50
738.1  606310.50  283721.75  46.79
739.5  608002.50  286141.47  47.06
740.8  609863.93  288437.71  47.30
742.1  611388.93  290495.25  47.51
743.4  613038.65  292493.53  47.71
744.7  614852.00  294460.60  47.89
746.0  616315.88  296127.57  48.05
747.3  617820.70  297732.82  48.19
748.6  619352.50  299255.08  48.32
749.9  621022.13  300786.53  48.43
751.2  622200.85  302037.07  48.54
752.5  623628.15  303331.84  48.64
753.8  624793.95  304449.12  48.73
755.1  626301.58  305689.14  48.81
756.4  627356.50  306644.56  48.88
757.7  629323.75  307987.08  48.94
759.0  632830.05  310018.15  48.99
760.3  635405.30  311578.51  49.04
761.6  638106.33  313170.06  49.08
762.9  639435.50  314053.85  49.11
764.2  640111.55  314616.85  49.15
765.5  640925.73  315196.21  49.18
766.8  641361.05  315594.07  49.21
768.1  642385.80  316234.17  49.23
769.3  643573.35  316970.82  49.25
770.6  644870.00  317746.03  49.27
771.9  645974.68  318421.62  49.29
773.2  647282.03  319167.23  49.31
774.5  648124.80  319687.11  49.32
775.8  649113.20  320245.73  49.34
777.1  650199.05  320891.08  49.35
778.4  651393.00  321582.08  49.37
779.6  652596.60  322276.68  49.38
780.9  653198.18  322670.39  49.40
782.2  654080.90  323202.67  49.41
783.5  654919.75  323701.60  49.43
784.8  655612.13  324117.15  49.44
786.0  656323.88  324567.57  49.45
787.3  657085.45  325002.58  49.46
788.6  657931.50  325472.75  49.47
789.9  658574.70  325861.02  49.48
791.2  659762.05  326567.21  49.50
792.4  660790.63  327157.60  49.51
793.7  662261.18  327926.42  49.52
795.0  663234.60  328459.04  49.52
796.2  664516.40  329155.87  49.53
797.5  665581.25  329752.25  49.54
798.8  666848.88  330486.63  49.56
800.0  667870.00  331072.00  49.57
801.3  668989.13  331666.65  49.58
802.6  669960.00  332222.40  49.59
803.8  671005.13  332795.19  49.60
805.1  671967.00  333324.00  49.60
806.4  672901.23  333839.22  49.61
807.7  673826.70  334404.26  49.63
808.9  674950.50  334995.84  49.63
810.2  675756.90  335430.90  49.64
811.4  676813.20  336018.96  49.65
812.7  678166.05  336711.48  49.65
814.0  679301.70  337387.05  49.67
815.2  680604.75  338128.05  49.68
816.5  681625.00  338701.13  49.69
817.7  682425.00  339106.25  49.69
819.0  683114.60  339499.16  49.70
820.2  683918.10  339933.78  49.70
821.5  685015.60  340523.52  49.71
822.7  685877.50  341068.18  49.73
824.0  686840.70  341541.07  49.73
825.2  687558.30  341927.82  49.73
826.5  688290.85  342330.95  49.74
827.7  689370.83  342861.08  49.74
829.0  690276.30  343315.58  49.74
830.2  691247.80  343822.00  49.74
831.5  692017.65  344290.14  49.75
832.7  693017.10  344802.60  49.75
834.0  693701.55  345199.59  49.76
835.2  694716.95  345691.32  49.76
836.4  695477.20  346108.00  49.77
837.7  696290.63  346510.13  49.77
838.9  697533.00  347136.75  49.77
840.1  698565.45  347679.75  49.77
841.4  699516.70  348197.38  49.78
842.6  700345.80  348758.06  49.80
843.8  701257.70  349252.02  49.80
845.1  702079.95  349692.75  49.81
846.3  703119.90  350136.15  49.80
847.5  704063.75  350649.00  49.80
848.8  704960.80  351259.90  49.83
850.0  706155.20  351889.12  49.83
851.2  707099.35  352408.99  49.84
852.5  708455.40  353032.96  49.83
853.7  709216.43  353486.57  49.84
854.9  710344.05  354061.50  49.84
856.1  711513.60  354645.06  49.84
857.4  712335.08  355214.90  49.87
858.6  713493.20  355687.36  49.85
859.8  714646.50  356348.42  49.86
861.0  715870.40  356851.39  49.85
862.2  716866.50  357406.14  49.86
863.5  717809.58  357951.88  49.87
864.7  718606.25  358455.00  49.88
865.9  719897.00  359047.18  49.87
867.1  720715.63  359432.50  49.87
868.3  722046.10  360103.44  49.87
869.5  723058.90  360719.72  49.89
870.8  724280.40  361290.96  49.88
872.0  725297.30  361790.31  49.88
873.2  726288.40  362276.62  49.88
874.4  727174.75  362757.66  49.89
875.6  728467.90  363379.54  49.88
876.8  729828.00  364113.75  49.89
878.0  731007.55  364644.91  49.88
879.2  732155.15  365175.30  49.88
880.4  733222.00  365731.20  49.88
881.6  734226.70  366189.90  49.87
882.8  735636.30  366865.87  49.87
884.0  736526.70  367334.96  49.87
885.2  737948.75  368016.00  49.87
886.5  739142.95  368653.29  49.88
887.7  740212.73  369193.85  49.88
888.8  741586.15  369831.39  49.87
890.0  742533.75  370293.00  49.87
891.2  743596.43  370773.98  49.86
892.4  745120.20  371426.55  49.85
893.6  746960.60  372329.95  49.85
894.8  748339.80  373158.63  49.86
896.0  749820.15  373843.98  49.86
897.2  751580.78  374687.78  49.85
898.4  753690.00  375622.80  49.84
899.6  755185.00  376226.96  49.82
900.8  755610.05  376608.31  49.84
902.0  756114.45  376842.84  49.84
903.2  756350.00  376878.40  49.83
904.3  757282.50  377325.00  49.83
905.5  758686.50  377873.10  49.81
906.7  759889.78  378474.43  49.81
907.9  760875.38  378991.68  49.81
909.1  761897.68  379528.00  49.81
910.2  762142.50  379701.00  49.82
911.4  762250.73  379714.23  49.81
912.6  762905.00  379852.00  49.79
913.8  763985.25  380245.67  49.77
915.0  764161.60  380434.76  49.78
916.2  764490.45  380575.59  49.78
917.3  765148.18  380854.37  49.78
918.5  765292.80  380982.72  49.78
919.7  765390.75  380987.50  49.78
920.8  765432.00  380908.73  49.76
922.0  765675.90  380899.53  49.75
923.2  766224.98  381121.23  49.74
924.4  766804.50  381299.90  49.73
925.5  767441.00  381559.88  49.72
926.7  768053.15  381806.11  49.71
927.9  769517.65  382388.41  49.69
929.0  772831.80  383826.06  49.66
930.2  777217.80  385696.96  49.63
931.4  782072.83  388185.27  49.64
932.5  786756.30  390248.65  49.60
933.7  789304.95  391467.23  49.60
934.9  790597.50  391996.50  49.58
936.0  789829.65  391303.80  49.54
937.2  786590.18  389483.13  49.52
938.3  782645.50  387439.65  49.50
939.5  780390.00  386055.54  49.47
940.7  780117.80  385855.09  49.46
941.8  782772.90  386955.66  49.43
943.0  785187.68  387675.20  49.37
944.2  786900.00  388326.00  49.35
945.3  786253.80  387667.32  49.31
946.5  784105.00  386709.75  49.32
947.6  785020.25  386730.60  49.26
948.8  783986.13  385728.96  49.20
949.9  784525.53  385569.94  49.15
951.1  784202.93  384891.79  49.08
952.2  783489.80  384205.04  49.04
953.4  783530.55  383642.55  48.96
954.5  781856.25  382306.58  48.90
955.7  781897.15  381792.77  48.83
956.8  781955.45  381433.14  48.78
958.0  781062.75  380428.74  48.71
959.1  780192.00  379572.48  48.65
960.3  779775.00  379065.00  48.61
961.4  780711.90  379162.44  48.57
962.6  780040.80  378394.56  48.51
963.7  780836.00  378260.68  48.44
964.9  780873.73  378139.24  48.43
966.0  780651.20  378179.83  48.44
967.2  780897.60  378073.92  48.42
968.3  781725.05  378502.15  48.42
969.5  782371.03  378325.40  48.36
970.6  782612.95  378370.24  48.35
971.8  782675.25  377989.68  48.29
972.9  783639.50  378326.20  48.28
974.0  783907.13  378524.61  48.29
975.2  782510.63  377763.75  48.28
976.3  783570.10  378094.42  48.25
977.5  783130.50  377745.30  48.24
978.6  784327.88  377777.82  48.17
979.7  783921.60  377386.24  48.14
980.9  783757.13  377303.43  48.14
982.0  782711.90  376911.89  48.15
983.2  783270.60  376760.44  48.10
984.3  781083.10  376159.00  48.16
985.4  781328.80  375602.64  48.07
986.6  783141.65  375307.50  47.92
987.7  781528.75  374868.88  47.97
988.9  781874.83  375356.07  48.01
990.0  781255.20  375831.10  48.11
993.1  865990.80  417642.20  48.23
996.9  865486.90  418326.44  48.33
1000.7  864838.05  419007.40  48.45
1004.5  863800.67  419456.11  48.56
1008.4  864681.10  420932.53  48.68
1012.2  865970.67  422366.68  48.77
1016.0  865943.15  423129.08  48.86
1019.8  864426.18  423157.54  48.95
1023.7  862882.79  423087.25  49.03
1027.5  860340.47  422474.42  49.11
1031.3  858583.15  422171.55  49.17
1035.1  857225.93  422041.13  49.23
1038.9  856544.12  422219.88  49.29
1042.7  856073.48  422557.07  49.36
1046.5  855377.25  422604.88  49.41
1050.3  853804.20  422144.55  49.44
1054.2  851806.73  421462.16  49.48
1058.0  850896.00  421252.80  49.51
1061.8  849652.25  420859.78  49.53
1065.6  847613.96  419928.13  49.54
1069.4  845311.35  418866.48  49.55
1073.2  843339.25  417805.38  49.54
1077.0  841916.53  417033.96  49.53
1080.8  841540.33  416677.56  49.51
1084.6  841336.83  416428.84  49.50
1088.4  840791.10  416039.47  49.48
1092.2  839581.17  415255.56  49.46
1096.0  838145.43  414247.60  49.42
1099.8  836477.88  413159.55  49.39
1103.6  834582.23  411826.07  49.35
1107.4  833062.42  410611.92  49.29
1111.2  831617.93  409452.37  49.24
1114.9  830803.50  408483.00  49.17
1118.7  830550.08  407609.09  49.08
1122.5  830603.04  406702.83  48.96
1126.3  828264.15  404306.70  48.81
1130.1  827716.10  402240.15  48.60
1133.9  824284.96  398166.78  48.30
1137.7  821511.40  393829.94  47.94
1141.4  817654.93  388398.88  47.50
1145.2  816643.53  384049.19  47.03
1149.0  814576.05  379359.65  46.57
1152.8  811067.15  374472.33  46.17
1156.6  807447.30  370217.79  45.85
1160.3  804060.30  366798.15  45.62
1164.1  799297.60  363345.36  45.46
1167.9  796187.29  361093.88  45.35
1171.7  793697.30  359307.35  45.27
1175.4  791226.04  357678.50  45.21
1179.2  789271.50  356224.75  45.13
1183.0  789592.00  355808.46  45.06
1186.7  789705.00  355434.33  45.01
1190.5  788443.67  354556.04  44.97
1194.3  785750.00  353081.13  44.94
1198.0  782561.68  351514.95  44.92
1201.8  780010.00  350367.11  44.92
1205.6  778388.54  349862.93  44.95
1209.3  777367.50  349773.50  44.99
1213.1  776199.08  349769.33  45.06
1216.8  774291.20  349634.09  45.16
1220.6  771953.83  349314.22  45.25
1224.3  769541.67  348944.45  45.34
1228.1  767243.86  348702.87  45.45
1231.9  764694.45  348167.74  45.53
1235.6  762081.93  347573.14  45.61
1239.4  759660.87  347001.36  45.68
1243.1  757423.80  346408.80  45.74
1246.9  755432.43  345787.78  45.77
1250.6  753326.78  345159.44  45.82
1254.3  751291.20  344474.40  45.85
1258.1  749120.67  343633.33  45.87
1261.8  746581.50  342551.53  45.88
1265.6  744361.42  341539.89  45.88
1269.3  742359.33  340538.27  45.87
1273.1  742993.93  340662.06  45.85
1276.8  742924.33  340337.87  45.81
1280.6  742025.18  339451.45  45.75
1284.3  739234.63  337612.03  45.67
1288.0  737413.73  336116.09  45.58
1291.8  736079.40  334668.60  45.47
1295.5  734528.33  332992.19  45.33
1299.2  732145.05  330782.40  45.18
1302.9  729216.22  328022.35  44.98
1306.7  726021.45  324950.33  44.76
1310.4  722962.55  321604.82  44.48
1314.1  720373.13  318202.50  44.17
1317.9  717787.53  314466.43  43.81
1321.6  714900.55  310308.23  43.41
1325.3  712029.83  305876.25  42.96
1329.0  709431.80  301312.98  42.47
1332.8  705715.00  296065.83  41.95
1336.5  702302.21  290902.92  41.42
1340.2  700772.05  286519.05  40.89
1343.9  700710.15  282811.01  40.36
1347.6  701667.33  279656.07  39.86
1351.4  703830.00  277131.25  39.37
1355.1  708186.05  275515.97  38.90
1358.8  709845.31  272672.04  38.41
1362.5  710970.46  269359.85  37.89
1366.2  707435.17  263680.15  37.27
1369.9  700854.00  256077.00  36.54
1373.6  695796.29  247767.76  35.61
1377.3  694178.27  238975.95  34.43
1381.0  692612.25  228147.95  32.94
1384.8  688210.35  214158.09  31.12
1388.4  682170.85  198314.07  29.07
1392.2  677407.93  182064.34  26.88
1395.9  675566.00  166611.91  24.66
1399.6  671011.25  151494.42  22.58
1403.3  667888.80  138322.00  20.71
1407.0  664351.88  126967.50  19.11
1410.7  661751.33  117724.02  17.79
1414.3  658533.00  110205.67  16.74
1418.1  655520.83  104368.06  15.92
1421.7  652842.63  99838.05  15.29
1425.4  650848.01  96440.89  14.82
1429.1  646910.25  93590.00  14.47
1432.8  645287.70  91759.63  14.22
1436.5  641878.25  90198.34  14.05
1440.2  638374.67  89038.95  13.95
1443.9  636131.42  88371.12  13.89
1447.6  632224.00  87743.47  13.88
1451.2  628927.70  87336.94  13.89
1454.9  626939.72  87321.89  13.93
1458.6  623086.53  87317.77  14.01
1462.3  622186.07  88038.74  14.15
1466.0  622258.96  89272.56  14.35
1469.7  620460.87  90635.85  14.61
1473.3  618197.07  92300.76  14.93
1477.0  613790.64  93889.45  15.30
1480.7  610391.08  95838.15  15.70
1484.4  606507.85  97809.58  16.13
1488.0  603290.22  99959.05  16.57
1491.7  599797.97  102123.54  17.03
1495.4  596360.35  104312.45  17.49
1499.0  593368.75  106570.21  17.96
1502.7  590509.37  108838.02  18.43
1506.4  587674.09  111094.52  18.90
1510.0  584880.83  113276.95  19.37
1513.7  582067.58  115412.48  19.83
1517.4  579447.40  117538.40  20.28
1521.0  577040.57  119614.09  20.73
1524.7  574494.00  121548.04  21.16
1528.3  572065.33  123420.80  21.57
1532.0  569518.70  125192.82  21.98
1535.7  566788.50  126805.50  22.37
1539.3  564176.80  128373.81  22.75
1543.0  562483.25  130063.70  23.12
1546.6  561075.92  131763.86  23.48
1550.3  559487.88  133321.06  23.83
1553.9  557099.60  134608.58  24.16
1557.6  554904.03  135891.33  24.49
1561.2  552379.43  136971.01  24.80
1564.9  549575.43  137944.05  25.10
1568.5  546832.00  138840.00  25.39
1572.2  544448.80  139740.92  25.67
1575.8  542574.00  140784.17  25.95
1579.5  540677.37  141701.86  26.21
1583.1  538319.60  142498.42  26.47
1586.8  536018.08  143219.62  26.72
1590.4  533705.47  143915.42  26.97
1594.0  531310.93  144552.74  27.21
1597.7  529415.23  145301.27  27.45
1601.3  527359.28  145985.85  27.68
1604.9  524857.30  146487.25  27.91
1608.6  521926.88  146763.60  28.12
1612.2  518968.17  146962.98  28.32
1615.8  516415.20  147205.00  28.51
1619.5  514054.03  147471.14  28.69
1623.1  511194.75  147516.88  28.86
1626.7  508385.57  147500.72  29.01
1630.3  505795.20  147464.60  29.16
1634.0  503402.90  147378.29  29.28
1637.6  501165.00  147251.11  29.38
1641.2  498890.35  146955.79  29.46
1644.8  496374.88  146433.89  29.50
1648.5  493684.93  145746.72  29.52
1652.1  491519.45  145063.13  29.51
1655.7  489654.18  144422.45  29.49
1659.3  487733.40  143801.18  29.48
1662.9  484525.18  142802.59  29.47
1666.6  480933.75  141734.36  29.47
1670.2  477511.38  140773.69  29.48
1673.8  474200.70  139798.05  29.48
1677.4  471644.55  138960.90  29.46
1681.0  469949.43  138260.85  29.42
1684.6  469042.75  137639.95  29.34
1688.2  467485.20  136645.60  29.23
1691.8  465815.82  135661.33  29.12
1695.4  464948.88  134827.14  29.00
1699.0  464062.30  133919.10  28.86
1702.6  463476.40  132984.62  28.69
1706.2  461864.40  131711.93  28.52
1709.8  459673.89  130234.11  28.33
1713.4  458092.70  128921.44  28.14
1717.0  456370.85  127627.31  27.97
1720.6  454587.25  126331.56  27.79
1724.2  453112.18  125147.48  27.62
1727.8  451755.51  124072.51  27.46
1731.4  450965.23  123231.92  27.33
1735.0  450964.20  122659.73  27.20
1738.6  450443.25  121832.88  27.05
1742.2  449583.43  120813.70  26.87
1745.8  447893.33  119478.76  26.68
1749.4  445488.58  117900.27  26.47
1753.0  441733.60  115934.54  26.25
1756.6  437920.00  113947.75  26.02
1760.1  434623.20  112163.87  25.81
1763.7  430769.73  110316.31  25.61
1767.3  427635.81  108796.03  25.44
1770.9  424954.29  107461.07  25.29
1774.5  421818.05  106110.25  25.16
1778.0  419676.03  105065.34  25.03
1781.6  417436.33  104136.54  24.95
1785.2  414816.93  103229.43  24.89
1788.8  412002.92  102397.22  24.85
1792.3  409740.65  101771.18  24.84
1795.9  409346.33  101693.99  24.84
1799.5  410174.95  101940.42  24.85
1803.1  413195.96  102814.79  24.88
1806.6  416268.57  103718.08  24.92
1810.2  418672.80  104432.13  24.94
1813.8  418756.40  104542.16  24.96
1817.3  418261.80  104472.32  24.98
1820.9  417587.50  104316.67  24.98
1824.5  416797.30  104095.85  24.98
1828.0  417652.63  104153.87  24.94
1831.6  419604.72  104406.97  24.88
1835.2  420187.83  104173.15  24.79
1838.7  421044.75  103740.20  24.64
1842.3  419445.25  102449.67  24.43
1845.8  417016.23  100632.13  24.13
1849.4  416371.90  98847.78  23.74
1852.9  414185.42  96164.93  23.22
1856.5  412178.33  92934.04  22.55
1860.0  411406.25  89302.59  21.71
1863.6  411490.28  85119.26  20.69
1867.1  413314.68  80494.87  19.48
1870.7  415616.03  75006.57  18.05
1874.2  413428.76  67909.33  16.43
1877.8  407013.33  59899.95  14.72
1881.3  401002.23  51958.01  12.96
1884.9  397349.28  44846.18  11.29
1888.4  394415.69  38356.06  9.72
1891.9  392302.01  32962.75  8.40
1895.5  390877.08  28717.50  7.35
1899.0  390731.90  25725.76  6.58
1901.3  410240.27  18893.20  4.61
1904.1  410766.25  17179.50  4.18
1906.8  408989.68  15821.90  3.87
1909.6  405004.40  14700.03  3.63
1912.4  400908.02  13775.94  3.44
1915.1  396849.67  13127.29  3.31
1917.9  393053.35  12642.95  3.22
1920.6  390100.80  12251.30  3.14
1923.3  387366.40  11991.00  3.10
1926.1  383738.40  11758.80  3.06
1928.8  379641.60  11593.40  3.05
1931.6  378276.92  11558.02  3.06
1934.3  374397.88  11451.36  3.06
1937.0  370407.00  11421.00  3.08
1939.8  366975.88  11447.15  3.12
1942.5  362335.45  11453.35  3.16
1945.2  358456.33  11523.88  3.21
1947.9  355400.50  11638.04  3.27
1950.7  350964.83  11702.58  3.33
1953.4  347289.40  11842.92  3.41
1956.1  344501.03  12026.09  3.49
1958.8  342182.17  12248.54  3.58
1961.5  339144.75  12457.73  3.67
1964.2  335681.87  12690.57  3.78
1966.9  332600.53  12956.00  3.90
1969.6  329784.70  13219.49  4.01
1972.3  327171.23  13509.17  4.13
1975.0  324590.67  13815.67  4.26
1977.7  322320.97  14153.34  4.39
1980.4  320094.13  14506.80  4.53
1983.1  317697.47  14865.25  4.68
1985.8  315526.80  15238.80  4.83
1988.4  313491.75  15618.63  4.98
1991.1  311706.50  16037.00  5.14
1993.8  310204.30  16483.60  5.31
1996.5  308641.20  16899.75  5.48
1999.1  307188.00  17309.80  5.63
2001.8  305933.45  17774.27  5.81
2004.5  304705.00  18220.95  5.98
2007.1  303193.20  18634.90  6.15
2009.8  301186.67  19048.75  6.32
2012.4  299838.83  19466.08  6.49
2015.1  298674.03  19902.07  6.66
2017.8  297499.93  20309.23  6.83
2020.4  296361.40  20705.63  6.99
2023.1  295870.85  21142.43  7.15
2025.7  295601.77  21575.34  7.30
2028.3  294777.10  21977.37  7.46
2031.0  294137.68  22369.03  7.60
2033.6  293840.75  22783.50  7.75
2036.2  293453.77  23123.68  7.88
2038.9  292489.60  23420.80  8.01
2041.5  291541.67  23708.33  8.13
2044.1  290687.50  24000.00  8.26
2046.8  289518.20  24230.60  8.37
2049.4  288669.47  24487.04  8.48
2052.0  288436.90  24760.33  8.58
2054.6  288065.60  25016.67  8.68
2057.2  286974.65  25228.43  8.79
2059.8  285474.00  25420.50  8.90
2062.4  284082.28  25608.81  9.01
2065.0  282659.40  25796.78  9.13
2067.6  280773.97  25923.59  9.23
2070.2  279301.63  26081.34  9.34
2072.8  278384.33  26259.30  9.43
2075.4  277325.67  26447.75  9.54
2078.0  276647.70  26677.81  9.64
2080.6  275394.97  26815.17  9.74
2083.2  274068.38  26965.58  9.84
2085.8  272724.90  27125.18  9.95
2088.4  271604.88  27293.90  10.05
2090.9  269932.50  27369.50  10.14
2093.5  267992.20  27456.20  10.25
2096.1  266194.50  27531.08  10.34
2098.7  264674.67  27616.83  10.43
2101.2  262727.80  27670.20  10.53
2103.8  261240.50  27766.71  10.63
2106.4  259772.00  27863.34  10.73
2108.9  258723.78  27982.04  10.82
2111.5  257769.75  28133.88  10.91
2114.0  257118.33  28307.50  11.01
2116.6  254905.57  28296.40  11.10
2119.1  253781.50  28405.30  11.19
2121.7  253238.05  28557.42  11.28
2124.2  253092.00  28743.59  11.36
2126.8  251942.10  28809.38  11.43
2129.3  250785.87  28897.09  11.52
2131.9  250992.00  29116.40  11.60
2134.4  250152.70  29213.45  11.68
2136.9  249862.47  29398.88  11.77
2139.4  248757.75  29455.50  11.84
2142.0  248350.90  29610.55  11.92
2144.5  247806.92  29753.54  12.01
2147.0  247316.38  29919.32  12.10
2149.5  246904.50  30074.77  12.18
2152.1  247282.10  30338.97  12.27
2154.6  247312.00  30519.60  12.34
2157.1  247219.33  30715.48  12.42
2159.6  246144.47  30738.85  12.49
2162.1  246003.13  30896.85  12.56
2164.6  245325.87  30971.45  12.62
2167.1  244345.03  31030.57  12.70
2169.6  244478.08  31176.02  12.75
2172.1  243636.60  31225.35  12.82
2174.6  243265.40  31327.45  12.88
2177.1  242157.92  31332.42  12.94
2179.5  241703.27  31430.64  13.00
2182.0  241383.17  31509.71  13.05
2184.5  240393.60  31534.48  13.12
2187.0  239567.97  31602.27  13.19
2189.5  238540.87  31641.40  13.26
2191.9  237302.27  31609.33  13.32
2194.4  235557.25  31537.25  13.39
2196.9  234472.15  31510.14  13.44
2199.3  232996.20  31456.80  13.50
2201.8  231808.50  31428.14  13.56
2204.3  231045.50  31428.50  13.60
2206.7  229771.15  31356.48  13.65
2209.2  228568.95  31275.90  13.68
2211.6  226613.67  31096.29  13.72
2214.1  225916.13  31084.84  13.76
2216.5  225554.98  31080.52  13.78
2219.0  224224.37  30928.89  13.79
2221.4  224251.20  30904.35  13.78
2223.9  223047.07  30695.17  13.76
2226.3  221787.50  30445.38  13.73
2228.7  220817.13  30198.14  13.68
2231.1  220186.50  29979.97  13.62
2233.6  219150.40  29675.20  13.54
2236.0  218087.15  29312.35  13.44
2238.4  217257.18  28947.62  13.32
2240.9  216487.40  28564.50  13.19
2243.3  215634.23  28170.42  13.06
2245.7  214793.90  27785.32  12.94
2248.1  213796.27  27345.07  12.79
2250.5  213012.80  26947.07  12.65
2252.9  212322.93  26582.32  12.52
2255.3  211539.53  26169.12  12.37
2257.7  210620.67  25762.92  12.23
2260.1  209734.00  25375.40  12.10
2262.5  208683.20  24992.00  11.98
2264.9  207733.93  24609.05  11.85
2267.3  206835.20  24252.80  11.73
2269.7  205883.03  23905.10  11.61
2272.1  205062.67  23614.50  11.52
2274.5  204289.40  23324.27  11.42
2276.8  203612.00  23049.87  11.32
2279.2  202843.90  22780.75  11.23
2281.6  202233.15  22558.70  11.15
2284.0  201841.20  22349.25  11.07
2286.3  201421.40  22135.70  10.99
2288.7  200839.90  21867.83  10.89
2291.1  200293.50  21624.50  10.80
2293.4  199580.70  21336.50  10.69
2295.8  198851.03  21053.18  10.59
2298.2  198066.40  20736.25  10.47
2300.5  196939.90  20395.33  10.36
2302.9  195546.90  20050.03  10.25
2305.2  194079.58  19692.21  10.15
2307.6  192589.60  19309.74  10.03
2309.9  191587.73  19049.92  9.94
2312.2  190587.50  18785.34  9.86
2314.6  189506.83  18562.29  9.80
2316.9  188430.73  18318.75  9.72
2319.2  187744.15  18131.21  9.66
2321.6  187175.40  17949.23  9.59
2323.9  186338.60  17718.70  9.51
2326.2  185496.77  17531.10  9.45
2328.6  184753.30  17331.20  9.38
2330.9  184491.73  17184.73  9.31
2333.2  184036.00  16958.00  9.21
2335.5  183505.40  16775.42  9.14
2337.8  183009.60  16575.40  9.06
2340.1  182461.27  16338.20  8.95
2342.4  181958.40  16147.35  8.87
2344.8  181207.82  15933.60  8.79
2347.1  180420.10  15740.60  8.72
2349.4  179799.33  15508.40  8.63
2351.6  179018.00  15295.00  8.54
2353.9  177935.60  15089.00  8.48
2356.2  177167.47  14925.28  8.42
2358.5  176303.60  14770.54  8.38
2360.8  175591.67  14586.46  8.31
2363.1  175194.25  14429.88  8.24
2365.4  174717.00  14256.00  8.16
2367.7  174158.53  14026.47  8.05
2369.9  173458.27  13837.54  7.98
2372.2  172288.65  13612.78  7.90
2374.5  171105.00  13387.50  7.82
2376.7  170115.70  13167.05  7.74
2379.0  168846.70  12926.38  7.66
2381.3  167467.30  12663.02  7.56
2383.5  166516.00  12435.50  7.47
2385.8  165787.42  12239.80  7.38
2388.0  164862.47  12044.85  7.31
2390.3  164160.50  11863.70  7.23
2392.5  163692.25  11682.25  7.14
2394.8  162782.58  11467.58  7.04
2397.0  162305.60  11287.27  6.95
2399.3  161690.62  11107.40  6.87
2401.5  160964.50  10895.30  6.77
2403.8  160256.77  10707.14  6.68
2406.0  159780.50  10575.58  6.62
2408.2  158877.60  10341.45  6.51
2410.4  158092.65  10104.25  6.39
2412.7  157694.80  9888.80  6.27
2414.9  157136.67  9721.17  6.19
2417.1  157063.67  9569.80  6.09
2419.3  156600.03  9399.30  6.00
2421.6  155700.53  9229.39  5.93
2423.8  155064.70  9018.67  5.82
2426.0  154711.10  8876.40  5.74
2428.2  154423.50  8720.25  5.65
2430.4  154446.62  8616.44  5.58
2432.6  154302.40  8475.85  5.49
2434.8  153651.10  8267.95  5.38
2437.0  153116.60  8095.75  5.29
2439.2  152685.87  7931.74  5.19
2441.4  151913.20  7755.80  5.11
2443.6  151773.93  7688.00  5.07
2445.7  151892.07  7568.62  4.98
2447.9  151848.45  7418.45  4.89
2450.1  151210.75  7290.88  4.82
2452.3  150243.68  7132.04  4.75
2454.5  149620.80  6983.67  4.67
2456.6  148874.58  6839.25  4.59
2458.8  147688.80  6709.97  4.54
2461.0  147341.13  6568.90  4.46
2463.1  146899.17  6429.08  4.38
2465.3  146278.00  6285.67  4.30
2467.5  145860.00  6261.67  4.29
2469.6  145563.08  6255.54  4.30
2471.8  145223.67  6120.68  4.21
2473.9  144603.33  5961.05  4.12
2476.1  143756.25  5843.75  4.07
2478.2  142991.75  5790.58  4.05
2480.4  142153.48  5706.90  4.01
2482.5  141293.07  5590.15  3.96
2484.6  140220.00  5494.00  3.92
2486.8  139579.03  5438.69  3.90
2488.9  139098.40  5430.90  3.90
2491.1  137561.03  5267.94  3.83
2493.2  136276.80  5118.98  3.76
2495.3  134739.47  5078.78  3.77
2497.4  133550.43  4988.45  3.74
2499.5  132684.10  5052.10  3.81
2501.7  132763.50  4932.25  3.72
2503.8  133206.73  4909.57  3.69
2505.9  133871.40  4862.85  3.63
2508.0  134732.42  4970.05  3.69
2510.1  135575.10  5004.45  3.69
2512.2  136442.58  4884.09  3.58
2514.3  137942.35  4953.44  3.59
2516.4  139643.22  5207.23  3.73
