/*** Spectra Vista SIG Data ***/
name= 5_20220926_BENI_47_avg.sig
comm= Averaged Ref/Tar of files: HR.092622.0012_moc.sig,HR.092622.0013_moc.sig,HR.092622.0014_moc.sig
data=
337.3  6016.50  481.32  8.00
338.8  6253.00  474.59  7.59
340.3  6616.75  491.53  7.43
341.8  6895.10  459.67  6.67
343.2  7283.65  438.20  6.02
344.7  7642.88  423.65  5.54
346.2  7978.25  405.77  5.09
347.7  8310.75  411.58  4.95
349.2  8542.80  433.44  5.07
350.6  9058.20  418.82  4.62
352.1  9551.25  415.07  4.35
353.6  10113.60  421.97  4.17
355.1  10644.00  408.02  3.83
356.6  11257.98  433.83  3.85
358.0  11778.45  439.05  3.73
359.5  12255.98  455.28  3.71
361.0  12868.10  442.77  3.44
362.5  13495.95  461.40  3.42
364.0  14200.33  482.77  3.40
365.4  14882.43  501.61  3.37
366.9  15548.23  512.86  3.30
368.4  16195.35  513.12  3.17
369.9  16960.00  537.07  3.17
371.3  17805.98  560.27  3.15
372.8  18598.10  609.55  3.28
374.3  19409.40  624.19  3.22
375.8  20231.98  626.86  3.10
377.2  21007.35  631.80  3.01
378.7  21860.13  632.10  2.89
380.2  22671.75  653.79  2.88
381.7  23579.25  668.17  2.83
383.1  24569.85  688.94  2.80
384.6  25551.45  693.99  2.72
386.1  26520.68  703.00  2.65
387.6  27444.15  722.03  2.63
389.0  28466.78  747.93  2.63
390.5  29498.18  763.03  2.59
392.0  30532.50  786.60  2.58
393.4  31647.00  808.30  2.55
394.9  32677.80  827.97  2.53
396.4  33902.00  870.32  2.57
397.9  34969.80  888.44  2.54
399.3  35908.60  907.58  2.53
400.8  37090.35  928.07  2.50
402.2  38327.85  950.62  2.48
403.7  39578.85  970.30  2.45
405.2  40752.40  1001.91  2.46
406.6  42038.40  1032.84  2.46
408.1  43100.48  1074.21  2.49
409.6  44314.90  1112.15  2.51
411.0  45552.93  1123.94  2.47
412.5  46956.90  1157.03  2.46
414.0  48345.33  1202.34  2.49
415.4  49690.80  1238.40  2.49
416.9  51034.00  1280.85  2.51
418.4  52344.33  1322.23  2.53
419.8  53732.00  1362.15  2.54
421.3  55232.10  1413.72  2.56
422.7  56682.60  1460.16  2.58
424.2  58208.40  1520.76  2.61
425.7  59676.38  1555.95  2.61
427.1  61215.80  1604.59  2.62
428.6  62722.23  1661.38  2.65
430.0  64264.20  1710.57  2.66
431.5  65949.00  1777.92  2.70
432.9  67646.00  1834.92  2.71
434.4  69367.95  1885.30  2.72
435.9  71029.10  1940.36  2.73
437.3  72739.50  2005.75  2.76
438.8  74410.80  2063.46  2.77
440.2  76112.93  2117.29  2.78
441.7  77982.40  2181.16  2.80
443.1  79848.45  2243.52  2.81
444.6  81647.80  2309.64  2.83
446.0  83474.68  2370.42  2.84
447.5  85475.00  2443.33  2.86
448.9  87262.43  2509.12  2.88
450.4  89200.00  2570.00  2.88
451.8  91027.88  2639.80  2.90
453.3  92835.08  2706.11  2.91
454.7  94682.70  2773.02  2.93
456.2  96527.90  2837.75  2.94
457.6  98470.35  2903.58  2.95
459.1  100353.23  2963.52  2.95
460.5  102215.35  3030.13  2.96
462.0  104295.60  3097.20  2.97
463.4  106281.35  3163.95  2.98
464.8  108278.10  3227.28  2.98
466.3  110249.40  3292.32  2.99
467.7  112308.80  3354.67  2.99
469.2  114220.05  3417.28  2.99
470.6  116284.88  3486.47  3.00
472.0  118374.30  3547.24  3.00
473.5  120391.85  3611.21  3.00
474.9  122597.50  3684.35  3.01
476.4  124710.80  3754.85  3.01
477.8  126840.00  3830.40  3.02
479.2  128943.03  3912.29  3.03
480.7  131146.80  3991.10  3.04
482.1  133397.73  4058.43  3.04
483.6  135649.80  4129.20  3.04
485.0  137916.75  4218.63  3.06
486.4  140066.18  4297.35  3.07
487.9  142380.00  4407.00  3.10
489.3  144569.55  4502.52  3.11
490.7  146830.45  4601.31  3.13
492.2  149110.63  4702.68  3.15
493.6  151433.30  4818.55  3.18
495.0  153731.18  4938.70  3.21
496.5  155953.35  5068.98  3.25
497.9  158304.13  5224.78  3.30
499.3  160630.88  5376.12  3.35
500.7  162979.70  5561.89  3.41
502.2  165398.50  5765.43  3.49
503.6  167733.60  5982.16  3.57
505.0  170063.30  6239.05  3.67
506.5  172584.75  6528.43  3.78
507.9  175089.55  6855.24  3.92
509.3  177393.60  7235.19  4.08
510.7  180111.75  7683.26  4.27
512.2  182788.65  8172.43  4.47
513.6  185674.33  8738.92  4.71
515.0  188478.50  9367.14  4.97
516.4  191361.60  10075.89  5.27
517.8  194238.00  10856.40  5.59
519.3  197200.00  11710.51  5.94
520.7  199889.60  12610.53  6.31
522.1  202609.23  13552.24  6.69
523.5  205211.25  14499.81  7.07
524.9  208157.18  15490.85  7.44
526.3  210855.83  16438.95  7.80
527.8  213714.25  17381.10  8.13
529.2  216288.00  18312.96  8.47
530.6  219042.90  19236.12  8.78
532.0  222085.18  20101.77  9.05
533.4  224602.35  20864.21  9.29
534.8  227106.00  21554.61  9.49
536.3  230182.38  22256.36  9.67
537.7  233260.75  22904.93  9.82
539.1  236206.10  23516.22  9.96
540.5  239126.25  24096.30  10.08
541.9  242100.98  24667.38  10.19
543.3  244675.60  25199.00  10.30
544.7  247676.00  25763.47  10.40
546.1  250461.40  26311.97  10.51
547.5  253432.80  26864.64  10.60
549.0  256647.20  27415.84  10.68
550.4  259561.58  27900.60  10.75
551.8  262459.88  28328.23  10.79
553.2  265381.95  28683.47  10.81
554.6  268269.00  28962.89  10.80
556.0  271240.20  29156.26  10.75
557.4  274401.10  29282.19  10.67
558.8  277296.23  29305.69  10.57
560.2  280500.00  29285.33  10.44
561.6  283459.00  29170.31  10.29
563.0  286291.20  28967.64  10.12
564.4  289498.30  28742.09  9.93
565.8  292537.25  28447.31  9.72
567.2  295735.20  28087.68  9.50
568.6  298809.00  27662.85  9.26
570.0  301728.38  27178.02  9.01
571.4  305168.60  26710.05  8.75
572.8  308352.60  26216.43  8.50
574.2  311273.03  25729.55  8.27
575.6  314362.63  25292.60  8.05
577.0  317423.98  24896.85  7.84
578.4  320884.38  24578.75  7.66
579.8  323994.78  24273.67  7.49
581.2  327097.25  24018.13  7.34
582.5  330030.00  23784.00  7.21
583.9  333122.50  23592.87  7.08
585.3  336057.50  23425.17  6.97
586.7  339061.80  23297.12  6.87
588.1  342113.90  23203.69  6.78
589.5  345478.50  23166.92  6.71
590.9  348488.28  23142.02  6.64
592.3  351470.93  23137.68  6.58
593.7  354439.58  23173.62  6.54
595.0  357438.00  23215.84  6.50
596.4  360811.88  23296.27  6.46
597.8  363498.20  23326.27  6.42
599.2  366662.40  23376.08  6.38
600.6  369891.23  23396.01  6.33
602.0  372913.20  23361.04  6.26
603.3  375856.00  23278.67  6.19
604.7  378925.03  23137.44  6.11
606.1  381981.30  22955.59  6.01
607.5  385347.78  22762.57  5.91
608.9  388457.30  22519.42  5.80
610.2  391686.08  22270.05  5.69
611.6  394652.50  21992.67  5.57
613.0  397521.05  21706.83  5.46
614.4  400332.80  21435.23  5.35
615.8  403656.50  21213.63  5.26
617.1  406411.78  20988.11  5.16
618.5  409717.95  20837.42  5.09
619.9  412502.70  20689.12  5.02
621.3  415478.70  20610.03  4.96
622.6  418479.75  20564.70  4.91
624.0  421237.88  20547.90  4.88
625.4  424388.33  20587.34  4.85
626.8  427394.50  20647.73  4.83
628.1  430274.95  20733.44  4.82
629.5  433092.28  20829.48  4.81
630.9  436018.30  20940.37  4.80
632.2  439111.00  21039.11  4.79
633.6  441627.55  21073.65  4.77
635.0  444634.90  21073.22  4.74
636.3  447696.63  21024.10  4.70
637.7  450454.03  20892.55  4.64
639.1  453528.90  20702.59  4.56
640.4  456330.13  20442.43  4.48
641.8  459169.20  20164.32  4.39
643.2  461795.30  19859.34  4.30
644.5  464730.00  19553.33  4.21
645.9  467468.40  19239.83  4.12
647.2  470354.50  18989.74  4.04
648.6  473360.00  18758.51  3.96
650.0  476141.40  18558.24  3.90
651.3  478535.05  18393.61  3.84
652.7  481926.75  18266.40  3.79
654.0  484893.30  18153.90  3.74
655.4  487342.80  18016.81  3.70
656.8  488955.08  17830.89  3.65
658.1  491613.15  17662.40  3.59
659.5  494942.40  17498.88  3.54
660.8  498174.60  17334.80  3.48
662.2  501020.60  17175.72  3.43
663.5  503881.73  17037.88  3.38
664.9  505910.73  16924.36  3.35
666.2  508047.48  16859.70  3.32
667.6  510691.50  16860.60  3.30
668.9  513475.20  16917.12  3.29
670.3  516472.25  16989.93  3.29
671.6  518848.80  17129.60  3.30
673.0  521096.00  17304.85  3.32
674.3  523573.05  17504.67  3.34
675.7  526169.70  17754.72  3.37
677.0  528572.55  18010.37  3.41
678.4  530876.00  18320.43  3.45
679.7  533301.75  18674.71  3.50
681.1  536003.80  19091.40  3.56
682.4  538247.25  19537.70  3.63
683.8  540662.63  20074.45  3.71
685.1  542935.50  20709.94  3.81
686.4  545172.88  21474.83  3.94
687.8  547776.30  22475.50  4.10
689.1  550189.50  23763.97  4.32
690.5  552165.10  25452.90  4.61
691.8  554928.28  27781.67  5.01
693.1  557409.00  30815.40  5.53
694.5  559797.00  34668.67  6.19
695.8  562331.60  39382.44  7.00
697.1  564647.70  44999.35  7.97
698.5  566994.13  51535.67  9.09
699.8  569459.60  58947.20  10.35
701.1  571398.98  67088.07  11.74
702.5  573591.00  75906.25  13.23
703.8  576092.53  85280.93  14.80
705.1  577994.25  94947.26  16.43
706.5  580306.40  104947.93  18.08
707.8  582214.30  115048.85  19.76
709.1  584580.68  125294.54  21.43
710.5  586817.98  135534.49  23.10
711.8  588842.00  145712.67  24.75
713.1  590820.00  155814.80  26.37
714.4  593013.58  165858.51  27.97
715.8  595382.65  175803.43  29.53
717.1  597670.65  185545.00  31.04
718.4  599964.60  195089.47  32.52
719.7  602261.33  204363.84  33.93
721.0  604039.95  213214.47  35.30
722.4  605949.30  221811.84  36.61
723.7  607980.25  230107.26  37.85
725.0  609757.35  237980.97  39.03
726.3  612170.00  245698.96  40.14
727.6  613968.75  252838.60  41.18
729.0  615854.75  259676.90  42.17
730.3  617944.60  266173.65  43.07
731.6  619485.30  272105.97  43.92
732.9  621562.83  277898.53  44.71
734.2  623271.00  283206.55  45.44
735.5  625131.10  288234.10  46.11
736.8  627182.68  293050.38  46.72
738.1  629105.18  297485.21  47.29
739.5  631008.00  301606.80  47.80
740.8  632985.38  305526.65  48.27
742.1  634609.28  309071.53  48.70
743.4  636439.30  312449.76  49.09
744.7  638421.00  315697.20  49.45
746.0  639991.88  318534.27  49.77
747.3  641627.00  321194.53  50.06
748.6  643274.05  323668.10  50.32
749.9  645143.43  326083.49  50.54
751.2  646515.93  328102.29  50.75
752.5  648198.10  330134.49  50.93
753.8  649608.75  331942.02  51.10
755.1  651258.28  333729.92  51.24
756.4  652440.63  335191.48  51.38
757.7  654557.75  336996.00  51.48
759.0  658366.38  339542.71  51.57
760.3  661231.85  341556.55  51.65
761.6  664172.68  343556.57  51.73
762.9  665665.00  344745.50  51.79
764.2  666491.65  345533.77  51.84
765.5  667443.88  346348.87  51.89
766.8  668095.50  346956.11  51.93
768.1  669321.45  347789.40  51.96
769.3  670652.40  348658.53  51.99
770.6  672195.00  349599.69  52.01
771.9  673457.10  350423.87  52.03
773.2  674958.38  351345.15  52.05
774.5  675931.95  351985.18  52.07
775.8  677156.43  352701.39  52.09
777.1  678483.45  353463.76  52.10
778.4  679917.38  354278.50  52.11
779.6  681289.20  355074.32  52.12
780.9  682090.88  355560.30  52.13
782.2  683160.38  356187.05  52.14
783.5  684137.50  356787.17  52.15
784.8  685075.13  357323.40  52.16
786.0  686043.05  357866.87  52.16
787.3  686997.83  358405.76  52.17
788.6  688058.63  358972.28  52.17
789.9  688799.60  359434.43  52.18
791.2  690218.50  360258.73  52.19
792.4  691422.88  360960.78  52.21
793.7  693123.45  361872.73  52.21
795.0  694352.75  362518.71  52.21
796.2  695808.30  363317.31  52.22
797.5  697123.13  364032.75  52.22
798.8  698646.38  364869.40  52.23
800.0  699860.00  365549.33  52.23
801.3  701166.38  366319.80  52.24
802.6  702360.00  366960.00  52.25
803.8  703479.00  367609.13  52.26
805.1  704693.63  368212.70  52.25
806.4  705749.40  368807.44  52.26
807.7  707004.13  369501.29  52.26
808.9  708238.88  370207.54  52.27
810.2  709167.90  370742.96  52.28
811.4  710303.20  371358.13  52.28
812.7  711782.90  372154.23  52.28
814.0  713097.00  372901.76  52.29
815.2  714655.50  373699.46  52.29
816.5  715789.38  374372.83  52.30
817.7  716630.50  374856.33  52.31
819.0  717360.00  375281.76  52.31
820.2  718278.45  375800.10  52.32
821.5  719345.40  376404.45  52.33
822.7  720527.68  377036.66  52.33
824.0  721535.10  377578.67  52.33
825.2  722202.00  378001.26  52.34
826.5  722905.45  378428.15  52.35
827.7  723966.98  379020.04  52.35
829.0  724905.23  379581.62  52.36
830.2  725922.20  380106.75  52.36
831.5  726885.23  380599.83  52.36
832.7  727838.55  381089.16  52.36
834.0  728457.98  381444.12  52.36
835.2  729406.20  382030.47  52.38
836.4  730088.00  382479.15  52.39
837.7  730811.25  382940.25  52.40
838.9  732083.70  383606.93  52.40
840.1  732835.95  384065.44  52.41
841.4  733768.20  384605.04  52.42
842.6  734575.80  385110.32  52.43
843.8  735389.20  385604.96  52.44
845.1  736170.60  386110.78  52.45
846.3  737172.45  386624.98  52.45
847.5  738094.50  387092.77  52.44
848.8  738890.70  387630.80  52.46
850.0  739952.60  388236.80  52.47
851.2  740693.15  388735.42  52.48
852.5  741755.60  389383.56  52.49
853.7  742479.08  389783.25  52.50
854.9  743659.80  390364.78  52.49
856.1  744468.75  390926.61  52.51
857.4  745342.13  391415.31  52.51
858.6  746221.00  391936.91  52.52
859.8  747323.90  392513.24  52.52
861.0  748106.80  393024.71  52.54
862.2  749086.80  393528.52  52.53
863.5  750094.65  394039.10  52.53
864.7  751093.75  394565.00  52.53
865.9  751879.50  395032.33  52.54
867.1  752440.63  395348.33  52.54
868.3  753491.00  395928.87  52.55
869.5  754548.40  396547.77  52.55
870.8  755671.95  397161.24  52.56
872.0  756565.40  397636.22  52.56
873.2  757273.40  398095.28  52.57
874.4  758171.65  398451.06  52.55
875.6  759321.78  399001.26  52.55
876.8  760557.60  399698.20  52.55
878.0  761635.00  400263.50  52.55
879.2  762504.40  400785.09  52.56
880.4  763434.00  401321.60  52.57
881.6  764448.70  401751.12  52.55
882.8  765735.15  402383.65  52.55
884.0  766441.65  402808.81  52.56
885.2  767919.75  403493.30  52.54
886.5  769160.70  404097.77  52.54
887.7  769914.28  404561.35  52.55
888.8  771343.95  405286.72  52.54
890.0  772301.25  405671.00  52.53
891.2  773206.20  406169.14  52.53
892.4  774592.50  406919.26  52.53
893.6  776294.53  407760.73  52.53
894.8  777900.00  408579.01  52.52
896.0  779236.48  409248.86  52.52
897.2  781251.08  410145.12  52.50
898.4  783226.50  411120.92  52.49
899.6  784357.90  411703.41  52.49
900.8  784793.10  411977.89  52.50
902.0  785302.30  412294.36  52.50
903.2  785523.50  412289.99  52.49
904.3  786678.75  412834.50  52.48
905.5  787866.75  413305.20  52.46
906.7  789299.03  413961.59  52.45
907.9  790025.05  414399.74  52.45
909.1  791246.23  414917.07  52.44
910.2  791437.50  415075.50  52.45
911.4  791669.25  415080.24  52.43
912.6  792247.50  415289.33  52.42
913.8  793265.20  415791.69  52.42
915.0  793840.20  415999.20  52.40
916.2  793835.55  415992.09  52.40
917.3  794409.13  416292.63  52.40
918.5  794927.10  416439.90  52.39
919.7  795081.50  416336.13  52.36
920.8  795464.58  416416.27  52.35
922.0  795559.88  416401.33  52.34
923.2  795957.45  416545.61  52.33
924.4  796403.38  416744.78  52.33
925.5  797465.20  417009.01  52.29
926.7  798228.70  417333.55  52.28
927.9  799581.45  418002.45  52.28
929.0  802850.40  419554.08  52.26
930.2  807237.80  421640.91  52.23
931.4  812423.75  424095.42  52.20
932.5  817112.45  426237.90  52.16
933.7  819564.83  427460.55  52.16
934.9  821030.00  428127.00  52.15
936.0  820030.95  427457.82  52.13
937.2  817417.35  425702.29  52.08
938.3  813442.50  423391.80  52.05
939.5  811266.30  422089.20  52.03
940.7  811129.55  421805.74  52.00
941.8  814069.75  423058.39  51.97
943.0  816063.83  423888.85  51.94
944.2  818010.00  424560.00  51.90
945.3  817822.80  423990.24  51.84
946.5  816086.25  422804.67  51.81
947.6  817171.25  422913.23  51.75
948.8  815890.28  421964.81  51.72
949.9  816207.53  421793.03  51.68
951.1  816424.93  421410.06  51.62
952.2  816271.80  420702.33  51.54
953.4  816021.45  419993.48  51.47
954.5  814821.00  418680.50  51.38
955.7  814565.75  417928.83  51.31
956.8  814792.33  417685.05  51.26
958.0  813996.45  416626.14  51.18
959.1  813304.80  415981.44  51.15
960.3  813537.50  415510.00  51.07
961.4  814245.20  415498.05  51.03
962.6  813808.80  415056.96  51.00
963.7  813947.40  415062.11  50.99
964.9  814274.68  414779.07  50.94
966.0  814908.50  414755.55  50.90
967.2  815035.20  414914.08  50.91
968.3  816334.10  415528.34  50.90
969.5  816362.53  415527.20  50.90
970.6  817148.60  415676.55  50.87
971.8  817258.58  415323.49  50.82
972.9  817215.00  415491.53  50.84
974.0  818967.95  415790.51  50.77
975.2  817104.38  415217.25  50.82
976.3  817796.68  415767.93  50.84
977.5  816144.83  415519.83  50.91
978.6  817651.65  415707.32  50.84
979.7  817555.20  415331.84  50.80
980.9  817674.10  415681.56  50.84
982.0  816870.15  415234.19  50.83
983.2  816557.00  415247.84  50.85
984.3  814273.60  414512.47  50.91
985.4  814276.40  414041.51  50.85
986.6  815668.30  414673.09  50.84
987.7  814644.38  414695.93  50.91
988.9  815564.23  415315.44  50.92
990.0  813807.50  415091.15  51.01
993.1  852630.00  430514.67  50.49
996.9  852752.30  431837.53  50.64
1000.7  852555.83  432905.29  50.78
1004.5  851442.27  433373.62  50.90
1008.4  852225.41  434720.45  51.01
1012.2  853292.21  436252.61  51.13
1016.0  853246.33  437094.49  51.23
1019.8  852160.31  437351.64  51.32
1023.7  851184.13  437584.85  51.41
1027.5  849261.73  437290.99  51.49
1031.3  848135.28  437194.12  51.55
1035.1  847425.15  437193.92  51.59
1038.9  847132.36  437354.45  51.63
1042.7  846773.90  437462.42  51.66
1046.5  846081.25  437331.61  51.69
1050.3  844431.10  436717.03  51.72
1054.2  842344.53  435833.26  51.74
1058.0  841388.40  435449.60  51.75
1061.8  840281.33  434882.44  51.75
1065.6  838439.63  433966.95  51.76
1069.4  836561.95  432977.46  51.76
1073.2  834944.50  432085.33  51.75
1077.0  833550.67  431186.96  51.73
1080.8  832722.00  430545.70  51.70
1084.6  831772.33  429807.07  51.67
1088.4  830671.58  428906.67  51.63
1092.2  829287.20  427858.92  51.59
1096.0  827912.30  426797.94  51.55
1099.8  826552.38  425665.39  51.50
1103.6  824782.83  424305.65  51.44
1107.4  823342.32  423045.89  51.38
1111.2  821865.62  421716.95  51.31
1114.9  820656.00  420455.00  51.23
1118.7  819860.50  419221.71  51.13
1122.5  819620.86  418073.89  51.01
1126.3  817072.20  415438.80  50.84
1130.1  816572.40  413212.61  50.60
1133.9  813228.54  409022.76  50.30
1137.7  810587.20  404651.38  49.92
1141.4  807085.48  399302.96  49.47
1145.2  806305.56  395014.84  48.99
1149.0  804337.20  390381.80  48.53
1152.8  801141.60  385648.59  48.14
1156.6  797748.23  381643.58  47.84
1160.3  794646.75  378499.33  47.63
1164.1  790025.13  375214.84  47.49
1167.9  786957.71  373128.53  47.41
1171.7  784483.83  371550.30  47.36
1175.4  782130.27  370143.08  47.32
1179.2  780272.25  368880.50  47.28
1183.0  780433.25  368493.03  47.22
1186.7  780313.33  367998.30  47.16
1190.5  778699.33  366860.03  47.11
1194.3  775849.55  365298.08  47.08
1198.0  772903.63  363798.09  47.07
1201.8  770462.00  362721.34  47.08
1205.6  768808.38  362189.19  47.11
1209.3  767518.50  362001.00  47.17
1213.1  766060.13  361848.16  47.23
1216.8  764095.60  361637.98  47.33
1220.6  761884.67  361376.41  47.43
1224.3  759641.67  361064.82  47.53
1228.1  757577.38  360901.75  47.64
1231.9  755287.65  360535.93  47.73
1235.6  752885.65  359983.55  47.81
1239.4  750633.58  359418.03  47.88
1243.1  748498.50  358798.00  47.94
1246.9  746551.39  358173.75  47.98
1250.6  744485.02  357407.53  48.01
1254.3  742600.80  356673.60  48.03
1258.1  740621.33  355815.26  48.04
1261.8  738185.23  354670.51  48.05
1265.6  735737.48  353418.23  48.04
1269.3  733202.13  351991.29  48.01
1273.1  733626.36  351923.61  47.97
1276.8  733972.07  351760.02  47.93
1280.6  733640.07  351171.21  47.87
1284.3  731192.02  349462.07  47.79
1288.0  729171.52  347777.85  47.69
1291.8  727309.80  346029.60  47.58
1295.5  725401.65  344092.76  47.43
1299.2  723067.80  341815.07  47.27
1302.9  720263.87  339129.90  47.08
1306.7  717255.00  336079.45  46.86
1310.4  714318.55  332777.99  46.59
1314.1  711965.63  329499.58  46.28
1317.9  709483.02  325851.96  45.93
1321.6  706738.61  321796.73  45.53
1325.3  703873.13  317387.85  45.09
1329.0  701167.13  312811.64  44.61
1332.8  697341.25  307464.44  44.09
1336.5  693744.13  302129.91  43.55
1340.2  691716.95  297487.37  43.01
1343.9  690635.70  293262.55  42.46
1347.6  689442.65  289079.50  41.93
1351.4  688351.25  285021.67  41.41
1355.1  688483.58  281527.99  40.89
1358.8  686986.58  277215.74  40.35
1362.5  686552.53  273035.66  39.77
1366.2  684384.58  267496.89  39.09
1369.9  680504.00  260512.89  38.28
1373.6  676401.92  252237.70  37.29
1377.3  673588.23  242777.88  36.04
1381.0  670867.67  231278.33  34.47
1384.8  667358.95  217290.87  32.56
1388.4  663095.45  201743.63  30.42
1392.2  659062.80  185359.31  28.12
1395.9  657241.08  169487.64  25.79
1399.6  653418.35  154067.36  23.58
1403.3  651260.40  140673.87  21.60
1407.0  649204.88  129294.00  19.92
1410.7  648064.79  120253.06  18.56
1414.3  646269.00  113085.11  17.50
1418.1  644255.21  107730.32  16.72
1421.7  642512.03  103843.29  16.16
1425.4  641196.61  101201.59  15.78
1429.1  637722.75  99143.33  15.55
1432.8  636376.73  98131.65  15.42
1436.5  633132.50  97341.11  15.37
1440.2  629752.00  96947.19  15.39
1443.9  627580.57  97008.35  15.46
1447.6  624091.20  97062.05  15.55
1451.2  621148.80  97296.83  15.66
1454.9  619537.92  97852.12  15.79
1458.6  615796.02  98281.62  15.96
1462.3  614900.60  99511.94  16.18
1466.0  614887.50  101298.62  16.47
1469.7  613094.53  103200.53  16.83
1473.3  610902.60  105420.41  17.26
1477.0  606772.21  107552.32  17.73
1480.7  603590.67  110015.63  18.23
1484.4  599909.92  112459.70  18.75
1488.0  596789.78  115047.35  19.28
1491.7  593290.79  117540.05  19.81
1495.4  589789.77  120022.66  20.35
1499.0  586779.70  122554.76  20.89
1502.7  583954.42  125092.25  21.42
1506.4  581208.03  127540.82  21.94
1510.0  578508.13  129942.22  22.46
1513.7  575822.75  132232.98  22.96
1517.4  573281.57  134473.89  23.46
1521.0  570896.61  136672.84  23.94
1524.7  568388.27  138689.57  24.40
1528.3  565968.03  140605.48  24.84
1532.0  563454.80  142389.35  25.27
1535.7  560720.25  144002.75  25.68
1539.3  558151.07  145559.61  26.08
1543.0  556478.71  147255.89  26.46
1546.6  555105.17  148977.78  26.84
1550.3  553591.18  150538.16  27.19
1553.9  551207.13  151778.47  27.54
1557.6  548974.60  152970.69  27.86
1561.2  546435.76  153963.97  28.18
1564.9  543733.67  154858.67  28.48
1568.5  541042.67  155661.04  28.77
1572.2  538689.67  156495.48  29.05
1575.8  536860.85  157452.39  29.33
1579.5  534983.83  158331.14  29.60
1583.1  532668.50  159060.25  29.86
1586.8  530459.12  159763.61  30.12
1590.4  528266.70  160424.00  30.37
1594.0  525907.65  160985.24  30.61
1597.7  523729.22  161590.72  30.85
1601.3  521384.85  162092.55  31.09
1604.9  518739.83  162429.01  31.31
1608.6  515921.63  162612.75  31.52
1612.2  513259.38  162785.27  31.72
1615.8  510928.20  162981.60  31.90
1619.5  508687.16  163148.04  32.07
1623.1  505908.98  163082.52  32.24
1626.7  503093.58  162926.79  32.38
1630.3  500520.60  162777.07  32.52
1634.0  498127.93  162613.12  32.64
1637.6  495897.50  162404.63  32.75
1641.2  493661.12  162074.40  32.83
1644.8  491117.66  161493.37  32.88
1648.5  488504.53  160720.31  32.90
1652.1  486369.07  159914.00  32.88
1655.7  484425.78  159030.50  32.83
1659.3  482589.45  158085.90  32.76
1662.9  479337.85  156659.63  32.68
1666.6  475782.18  155171.69  32.61
1670.2  472431.85  153778.72  32.55
1673.8  469175.87  152451.85  32.49
1677.4  466630.13  151314.58  32.43
1681.0  464957.28  150319.18  32.33
1684.6  464082.21  149435.81  32.20
1688.2  462607.60  148212.71  32.04
1691.8  460940.45  146891.64  31.87
1695.4  460086.63  145786.51  31.69
1699.0  459187.85  144629.05  31.50
1702.6  458601.20  143506.52  31.29
1706.2  457111.33  142022.62  31.07
1709.8  454944.20  140343.15  30.85
1713.4  453380.20  138861.66  30.63
1717.0  451644.38  137414.82  30.43
1720.6  449924.82  135983.39  30.22
1724.2  448552.47  134610.39  30.01
1727.8  447191.53  133365.16  29.82
1731.4  446452.44  132436.27  29.66
1735.0  446419.78  131810.04  29.53
1738.6  445828.88  130994.75  29.38
1742.2  444946.05  129918.19  29.20
1745.8  443191.47  128499.67  28.99
1749.4  440801.38  126858.05  28.78
1753.0  437047.20  124791.11  28.55
1756.6  433210.75  122744.61  28.33
1760.1  429936.80  120912.71  28.12
1763.7  426168.77  119011.46  27.93
1767.3  423075.10  117415.10  27.75
1770.9  420407.00  116024.04  27.60
1774.5  417327.24  114579.64  27.46
1778.0  415126.48  113463.83  27.33
1781.6  412852.62  112409.36  27.23
1785.2  410227.20  111375.77  27.15
1788.8  407387.08  110417.45  27.10
1792.3  405032.38  109654.07  27.07
1795.9  404465.35  109432.47  27.06
1799.5  404682.65  109476.15  27.05
1803.1  405819.67  109779.00  27.05
1806.6  407258.77  110111.00  27.04
1810.2  408906.75  110516.23  27.03
1813.8  408388.00  110345.48  27.02
1817.3  407749.38  110122.40  27.01
1820.9  406690.63  109755.56  26.99
1824.5  405518.53  109315.59  26.96
1828.0  405807.59  109162.96  26.90
1831.6  406242.68  108970.81  26.82
1835.2  405409.08  108267.81  26.71
1838.7  405645.92  107600.76  26.53
1842.3  404029.50  106215.28  26.29
1845.8  402734.29  104551.31  25.96
1849.4  402296.53  102662.46  25.52
1852.9  400775.00  100003.93  24.95
1856.5  399342.78  96727.46  24.22
1860.0  399075.03  93022.91  23.31
1863.6  398169.63  88441.87  22.21
1867.1  397520.10  83088.47  20.90
1870.7  397916.76  76897.31  19.32
1874.2  397166.66  69532.19  17.51
1877.8  394339.92  61532.51  15.60
1881.3  391507.10  53503.46  13.67
1884.9  389101.29  46048.27  11.83
1888.4  386930.68  39224.96  10.14
1891.9  385209.01  33547.26  8.71
1895.5  383474.35  29114.58  7.59
1899.0  382304.90  25952.04  6.79
1901.3  401871.47  18428.27  4.59
1904.1  401882.83  16714.53  4.16
1906.8  400242.62  15350.25  3.84
1909.6  396872.47  14368.31  3.62
1912.4  393291.63  13545.92  3.44
1915.1  389621.50  12995.16  3.34
1917.9  385890.45  12585.42  3.26
1920.6  383105.83  12359.12  3.23
1923.3  380818.93  12232.09  3.21
1926.1  377894.85  12117.30  3.21
1928.8  374436.40  12010.27  3.21
1931.6  373538.45  12080.96  3.23
1934.3  369925.40  12116.73  3.28
1937.0  366233.40  12210.60  3.33
1939.8  363133.48  12354.38  3.40
1942.5  358795.78  12422.54  3.46
1945.2  355349.58  12603.61  3.55
1947.9  352711.23  12820.38  3.63
1950.7  348581.60  13002.86  3.73
1953.4  345130.13  13264.07  3.84
1956.1  342476.73  13567.89  3.96
1958.8  340304.42  13906.86  4.09
1961.5  337394.05  14240.45  4.22
1964.2  334054.60  14567.91  4.36
1966.9  331083.73  14908.18  4.50
1969.6  328379.93  15312.65  4.66
1972.3  325861.88  15739.91  4.83
1975.0  323392.00  16188.89  5.01
1977.7  321166.43  16644.52  5.18
1980.4  318923.73  17104.27  5.36
1983.1  316532.77  17579.48  5.55
1985.8  314425.20  18081.20  5.75
1988.4  312392.85  18613.47  5.96
1991.1  310610.30  19163.20  6.17
1993.8  309087.80  19704.53  6.38
1996.5  307585.60  20252.63  6.58
1999.1  306192.48  20804.27  6.79
2001.8  304914.28  21375.32  7.01
2004.5  303702.95  21929.22  7.22
2007.1  302210.80  22458.76  7.43
2009.8  300247.50  22927.91  7.64
2012.4  298901.20  23447.63  7.84
2015.1  297734.10  23934.24  8.04
2017.8  296557.70  24409.30  8.23
2020.4  295420.70  24874.02  8.42
2023.1  294927.08  25385.96  8.61
2025.7  294653.40  25880.79  8.78
2028.3  293828.73  26293.12  8.95
2031.0  293248.30  26681.50  9.10
2033.6  292927.75  27085.67  9.25
2036.2  292540.03  27453.53  9.38
2038.9  291553.60  27726.40  9.51
2041.5  290604.17  27979.17  9.63
2044.1  289791.67  28222.22  9.74
2046.8  288643.90  28435.57  9.85
2049.4  287772.20  28663.84  9.96
2052.0  287576.58  28929.02  10.06
2054.6  287180.80  29177.33  10.16
2057.2  286090.55  29350.72  10.26
2059.8  284571.00  29533.00  10.38
2062.4  283199.58  29696.55  10.49
2065.0  281775.30  29855.92  10.60
2067.6  279911.60  29965.49  10.71
2070.2  278460.30  30119.73  10.82
2072.8  277541.00  30324.86  10.93
2075.4  276500.17  30501.17  11.03
2078.0  275816.35  30703.11  11.13
2080.6  274561.67  30860.59  11.24
2083.2  273258.35  30987.33  11.34
2085.8  271956.30  31092.72  11.43
2088.4  270873.32  31235.03  11.53
2090.9  269180.00  31325.50  11.64
2093.5  267221.80  31343.87  11.73
2096.1  265422.30  31388.50  11.83
2098.7  263922.75  31465.92  11.92
2101.2  262021.60  31486.53  12.02
2103.8  260533.75  31568.17  12.12
2106.4  259043.27  31642.74  12.22
2108.9  257993.35  31766.69  12.31
2111.5  257057.50  31885.78  12.40
2114.0  256490.00  32045.00  12.49
2116.6  254299.83  31981.28  12.58
2119.1  253195.60  32050.90  12.66
2121.7  252651.70  32198.58  12.74
2124.2  252502.50  32371.55  12.82
2126.8  251327.50  32405.52  12.89
2129.3  250214.30  32440.07  12.96
2131.9  250416.53  32646.67  13.04
2134.4  249595.62  32697.08  13.10
2136.9  249324.07  32812.49  13.16
2139.4  248264.58  32825.47  13.22
2142.0  247811.30  32953.07  13.30
2144.5  247264.92  33054.47  13.37
2147.0  246771.98  33170.59  13.44
2149.5  246380.87  33277.28  13.51
2152.1  246707.93  33508.37  13.58
2154.6  246755.20  33701.87  13.66
2157.1  246681.90  33881.67  13.73
2159.6  245583.67  33936.19  13.82
2162.1  245370.43  34072.07  13.89
2164.6  244714.43  34154.04  13.96
2167.1  243730.57  34189.56  14.03
2169.6  243858.85  34367.45  14.09
2172.1  242991.30  34416.00  14.16
2174.6  242640.53  34543.91  14.24
2177.1  241555.83  34543.53  14.30
2179.5  241097.43  34637.51  14.37
2182.0  240772.75  34761.19  14.44
2184.5  239755.30  34795.53  14.51
2187.0  238948.80  34863.21  14.59
2189.5  237941.27  34918.37  14.68
2191.9  236724.58  34937.28  14.76
2194.4  235052.25  34836.58  14.82
2196.9  233987.97  34835.71  14.89
2199.3  232559.30  34772.10  14.95
2201.8  231392.23  34732.25  15.01
2204.3  230651.00  34742.30  15.06
2206.7  229453.75  34667.13  15.11
2209.2  228223.80  34585.80  15.15
2211.6  226241.73  34368.41  15.19
2214.1  225568.82  34357.63  15.23
2216.5  225206.37  34352.15  15.25
2219.0  223903.17  34172.11  15.26
2221.4  223982.70  34189.00  15.26
2223.9  222805.27  33977.38  15.25
2226.3  221545.55  33702.74  15.21
2228.7  220575.33  33449.00  15.16
2231.1  219862.10  33196.93  15.10
2233.6  218851.20  32857.60  15.01
2236.0  217814.98  32469.48  14.91
2238.4  216929.78  32085.20  14.79
2240.9  216186.00  31683.53  14.66
2243.3  215304.43  31248.55  14.51
2245.7  214517.57  30765.11  14.34
2248.1  213518.93  30257.07  14.17
2250.5  212734.13  29770.89  13.99
2252.9  212043.27  29243.81  13.79
2255.3  211287.23  28715.48  13.59
2257.7  210366.57  28195.69  13.40
2260.1  209450.00  27690.00  13.22
2262.5  208370.80  27150.40  13.03
2264.9  207421.17  26651.51  12.85
2267.3  206549.20  26188.07  12.68
2269.7  205595.37  25746.17  12.52
2272.1  204745.50  25344.50  12.38
2274.5  203943.00  24950.42  12.23
2276.8  203263.20  24580.71  12.09
2279.2  202492.30  24231.10  11.97
2281.6  201938.65  23903.58  11.84
2284.0  201544.20  23621.40  11.72
2286.3  201032.27  23328.05  11.60
2288.7  200507.88  23029.88  11.49
2291.1  199958.00  22732.67  11.37
2293.4  199212.30  22380.30  11.23
2295.8  198510.22  22060.13  11.11
2298.2  197722.10  21722.20  10.99
2300.5  196562.50  21344.07  10.86
2302.9  195168.30  20949.20  10.73
2305.2  193763.75  20581.81  10.62
2307.6  192304.00  20224.71  10.52
2309.9  191299.58  19946.38  10.43
2312.2  190330.17  19750.34  10.38
2314.6  189280.27  19571.04  10.34
2316.9  188202.77  19366.31  10.29
2319.2  187448.80  19164.93  10.22
2321.6  186811.12  19008.97  10.18
2323.9  186004.60  18781.93  10.10
2326.2  185126.98  18545.20  10.02
2328.6  184414.80  18346.70  9.95
2330.9  184046.27  18184.18  9.88
2333.2  183549.50  17965.75  9.79
2335.5  183046.28  17740.74  9.69
2337.8  182580.00  17518.13  9.59
2340.1  181992.40  17287.96  9.50
2342.4  181593.90  17082.90  9.41
2344.8  180838.98  16831.09  9.31
2347.1  180084.40  16598.50  9.22
2349.4  179459.73  16388.84  9.13
2351.6  178714.00  16188.00  9.06
2353.9  177706.40  15967.60  8.99
2356.2  176935.17  15783.49  8.92
2358.5  176067.90  15608.58  8.87
2360.8  175275.00  15450.69  8.82
2363.1  174874.92  15274.78  8.73
2365.4  174433.50  15079.50  8.64
2367.7  173911.73  14931.40  8.59
2369.9  173166.95  14732.30  8.51
2372.2  171953.05  14472.75  8.42
2374.5  170722.50  14237.50  8.34
2376.7  169857.10  14021.87  8.26
2379.0  168629.45  13730.20  8.14
2381.3  167248.22  13437.11  8.03
2383.5  166250.00  13211.33  7.95
2385.8  165562.83  13010.86  7.86
2388.0  164635.63  12808.52  7.78
2390.3  163976.57  12599.43  7.68
2392.5  163504.58  12401.64  7.58
2394.8  162544.67  12102.03  7.45
2397.0  162064.93  11953.11  7.38
2399.3  161398.32  11773.19  7.29
2401.5  160668.70  11552.63  7.19
2403.8  160006.60  11340.89  7.09
2406.0  159525.67  11144.71  6.99
2408.2  158723.25  10924.55  6.88
2410.4  157781.75  10743.32  6.81
2412.7  157326.60  10520.00  6.69
2414.9  156763.80  10351.49  6.60
2417.1  156793.33  10164.53  6.48
2419.3  156325.20  10003.93  6.40
2421.6  155365.93  9833.52  6.33
2423.8  154726.50  9619.91  6.22
2426.0  154369.70  9445.40  6.12
2428.2  154077.00  9259.25  6.01
2430.4  154092.52  9068.90  5.89
2432.6  153943.00  8925.10  5.80
2434.8  153228.65  8790.98  5.74
2437.0  152688.90  8594.73  5.63
2439.2  152314.07  8427.47  5.53
2441.4  151473.60  8205.87  5.42
2443.6  151325.47  8072.40  5.33
2445.7  151437.30  7904.28  5.22
2447.9  151388.90  7768.58  5.13
2450.1  150611.50  7679.28  5.10
2452.3  149638.13  7468.45  4.99
2454.5  149075.73  7244.84  4.86
2456.6  148391.00  7115.59  4.80
2458.8  147063.00  6953.33  4.73
2461.0  146705.43  6827.89  4.65
2463.1  146468.17  6704.44  4.58
2465.3  145842.00  6515.78  4.47
2467.5  145418.00  6409.00  4.41
2469.6  144888.83  6317.97  4.36
2471.8  144539.37  6260.08  4.33
2473.9  143988.00  6153.33  4.27
2476.1  143210.83  5999.58  4.19
2478.2  142282.70  5908.75  4.15
2480.4  141435.13  5826.62  4.12
2482.5  140482.90  5698.17  4.06
2484.6  139482.00  5576.00  4.00
2486.8  138748.70  5563.23  4.01
2488.9  138256.40  5557.20  4.02
2491.1  136881.30  5437.86  3.97
2493.2  135588.53  5248.04  3.87
2495.3  133958.12  5093.24  3.80
2497.4  132587.75  5046.79  3.81
2499.5  131709.13  5022.56  3.81
2501.7  131768.00  5007.67  3.80
2503.8  132095.13  5063.96  3.83
2505.9  132727.20  4926.42  3.71
2508.0  133551.42  4986.45  3.73
2510.1  134361.90  4987.60  3.71
2512.2  135299.50  5022.64  3.71
2514.3  136327.10  4917.54  3.61
2516.4  137739.50  5039.25  3.66
