/*** Spectra Vista SIG Data ***/
name= 16_20221020_CECA_41_avg.sig
comm= Averaged Ref/Tar of files: HR.102022.0045_moc.sig,HR.102022.0046_moc.sig,HR.102022.0047_moc.sig
data=
337.3  3076.75  209.84  6.82
338.8  3174.60  207.97  6.55
340.3  3326.35  200.79  6.04
341.8  3475.10  206.42  5.94
343.2  3685.20  219.04  5.94
344.7  3881.15  210.41  5.42
346.2  4044.15  193.74  4.79
347.7  4247.10  202.99  4.78
349.2  4384.80  205.92  4.70
350.6  4627.35  208.46  4.50
352.1  4894.33  209.59  4.28
353.6  5135.60  221.42  4.31
355.1  5421.68  218.08  4.02
356.6  5735.63  224.12  3.91
358.0  5997.20  224.21  3.74
359.5  6272.70  230.13  3.67
361.0  6553.58  239.40  3.65
362.5  6908.90  250.93  3.63
364.0  7226.10  261.62  3.62
365.4  7587.00  265.48  3.50
366.9  7956.00  269.93  3.39
368.4  8291.60  272.75  3.29
369.9  8620.98  286.72  3.33
371.3  9024.60  305.65  3.39
372.8  9425.25  326.19  3.46
374.3  9890.00  326.60  3.30
375.8  10294.90  330.07  3.21
377.2  10679.30  335.61  3.14
378.7  11082.80  340.73  3.07
380.2  11432.50  350.47  3.07
381.7  11918.03  366.00  3.07
383.1  12370.05  371.14  3.00
384.6  12867.08  385.36  2.99
386.1  13350.35  388.64  2.91
387.6  13771.45  397.83  2.89
389.0  14204.00  409.40  2.88
390.5  14655.60  417.72  2.85
392.0  15182.30  430.76  2.84
393.4  15738.73  442.42  2.81
394.9  16260.30  452.90  2.79
396.4  16792.88  461.32  2.75
397.9  17296.88  478.33  2.77
399.3  17854.13  490.58  2.75
400.8  18369.73  503.72  2.74
402.2  18977.15  519.99  2.74
403.7  19548.90  531.03  2.72
405.2  20147.43  546.55  2.71
406.6  20717.60  557.24  2.69
408.1  21266.60  573.39  2.70
409.6  21840.25  590.35  2.70
411.0  22481.55  609.19  2.71
412.5  23136.58  627.92  2.71
414.0  23777.63  641.91  2.70
415.4  24426.38  658.71  2.70
416.9  25057.50  677.38  2.70
418.4  25734.15  697.20  2.71
419.8  26444.60  719.33  2.72
421.3  27147.48  743.22  2.74
422.7  27892.20  763.61  2.74
424.2  28636.88  783.00  2.73
425.7  29372.60  805.69  2.74
427.1  30099.15  825.01  2.74
428.6  30891.50  850.58  2.75
430.0  31624.70  871.77  2.76
431.5  32461.88  896.92  2.76
432.9  33314.10  920.58  2.76
434.4  34165.13  944.09  2.76
435.9  34986.00  960.00  2.74
437.3  35818.75  985.02  2.75
438.8  36638.93  1009.20  2.75
440.2  37500.93  1037.45  2.77
441.7  38431.20  1062.30  2.76
443.1  39299.50  1086.75  2.77
444.6  40243.20  1111.13  2.76
446.0  41169.68  1137.35  2.76
447.5  42109.65  1164.97  2.77
448.9  43034.40  1191.47  2.77
450.4  44017.05  1220.75  2.77
451.8  44889.00  1244.28  2.77
453.3  45775.58  1269.64  2.77
454.7  46771.25  1298.43  2.78
456.2  47596.78  1319.98  2.77
457.6  48546.68  1348.49  2.78
459.1  49515.70  1373.36  2.77
460.5  50450.50  1398.39  2.77
462.0  51489.68  1426.69  2.77
463.4  52512.10  1454.81  2.77
464.8  53488.13  1477.88  2.76
466.3  54431.03  1502.41  2.76
467.7  55385.13  1530.02  2.76
469.2  56412.60  1560.04  2.77
470.6  57380.20  1583.50  2.76
472.0  58425.33  1612.59  2.76
473.5  59423.88  1636.08  2.75
474.9  60448.50  1663.86  2.75
476.4  61574.40  1693.44  2.75
477.8  62611.00  1723.43  2.75
479.2  63582.50  1747.73  2.75
480.7  64645.35  1781.11  2.76
482.1  65761.95  1808.31  2.75
483.6  66932.40  1843.27  2.75
485.0  67989.08  1875.41  2.76
486.4  69170.70  1908.13  2.76
487.9  70214.63  1940.53  2.76
489.3  71327.90  1973.71  2.77
490.7  72373.38  2010.17  2.78
492.2  73573.50  2048.48  2.78
493.6  74641.75  2088.67  2.80
495.0  75742.88  2129.96  2.81
496.5  76897.00  2172.74  2.83
497.9  77968.28  2213.83  2.84
499.3  79112.93  2265.82  2.86
500.7  80355.25  2324.74  2.89
502.2  81511.80  2385.50  2.93
503.6  82752.80  2451.69  2.96
505.0  83812.65  2519.52  3.01
506.5  85089.23  2602.37  3.06
507.9  86207.38  2692.79  3.12
509.3  87512.40  2802.13  3.20
510.7  88700.63  2921.94  3.29
512.2  90063.45  3062.91  3.40
513.6  91538.65  3224.79  3.52
515.0  92960.38  3412.38  3.67
516.4  94306.28  3625.29  3.84
517.8  95908.75  3876.98  4.04
519.3  97230.10  4143.68  4.26
520.7  98771.50  4445.95  4.50
522.1  100047.03  4767.74  4.77
523.5  101344.90  5108.58  5.04
524.9  102769.65  5462.29  5.32
526.3  104137.95  5813.80  5.58
527.8  105583.50  6173.07  5.85
529.2  106669.10  6514.85  6.11
530.6  108230.50  6881.50  6.36
532.0  109886.00  7232.80  6.58
533.4  111152.10  7536.84  6.78
534.8  112028.98  7783.10  6.95
536.3  113571.60  8057.71  7.09
537.7  115466.40  8338.32  7.22
539.1  116877.98  8571.63  7.33
540.5  118041.80  8779.74  7.44
541.9  119739.98  9016.96  7.53
543.3  121028.20  9219.87  7.62
544.7  122333.40  9423.78  7.70
546.1  124115.20  9661.07  7.78
547.5  125328.00  9851.95  7.86
549.0  126973.00  10069.29  7.93
550.4  128413.75  10259.09  7.99
551.8  129941.65  10434.18  8.03
553.2  131398.40  10576.96  8.05
554.6  132693.60  10670.99  8.04
556.0  134177.40  10738.57  8.00
557.4  135753.10  10775.17  7.94
558.8  137385.90  10774.65  7.84
560.2  138817.50  10730.71  7.73
561.6  140456.03  10664.68  7.59
563.0  142009.58  10565.58  7.44
564.4  143596.05  10442.29  7.27
565.8  145084.38  10284.39  7.09
567.2  146802.00  10119.74  6.89
568.6  148258.88  9913.03  6.69
570.0  149655.10  9692.49  6.48
571.4  151340.80  9481.53  6.27
572.8  153080.00  9281.22  6.06
574.2  154672.00  9085.65  5.87
575.6  156195.00  8905.71  5.70
577.0  157691.50  8749.64  5.55
578.4  159363.75  8618.57  5.41
579.8  160879.50  8495.65  5.28
581.2  162559.30  8397.28  5.17
582.5  163963.80  8298.98  5.06
583.9  165436.00  8219.54  4.97
585.3  167188.50  8163.51  4.88
586.7  168650.63  8103.93  4.81
588.1  170101.63  8051.93  4.73
589.5  171720.50  8022.23  4.67
590.9  173314.80  7998.83  4.62
592.3  175085.05  7995.90  4.57
593.7  176524.73  7991.04  4.53
595.0  178087.95  7996.94  4.49
596.4  179525.85  7999.89  4.46
597.8  180984.15  8008.13  4.42
599.2  182490.00  8009.51  4.39
600.6  184191.48  8018.60  4.35
602.0  185452.95  7999.00  4.31
603.3  187220.35  7997.34  4.27
604.7  188838.08  7977.60  4.22
606.1  190288.20  7933.29  4.17
607.5  191900.43  7882.08  4.11
608.9  193552.80  7827.86  4.04
610.2  194906.25  7754.94  3.98
611.6  196481.70  7692.93  3.92
613.0  198022.80  7625.47  3.85
614.4  199364.10  7555.75  3.79
615.8  200801.25  7490.78  3.73
617.1  202301.40  7437.64  3.68
618.5  203884.80  7400.28  3.63
619.9  205382.93  7370.68  3.59
621.3  206979.75  7358.61  3.56
622.6  208543.75  7352.82  3.53
624.0  210011.85  7359.79  3.50
625.4  211471.43  7371.13  3.49
626.8  213012.80  7399.51  3.47
628.1  214251.13  7423.94  3.47
629.5  215981.75  7472.45  3.46
630.9  217437.55  7504.02  3.45
632.2  218671.95  7523.00  3.44
633.6  220141.88  7525.54  3.42
635.0  221553.20  7516.56  3.39
636.3  223014.30  7476.23  3.35
637.7  224346.00  7414.32  3.30
639.1  225977.50  7349.67  3.25
640.4  227424.23  7269.98  3.20
641.8  228605.63  7170.74  3.14
643.2  230143.20  7079.88  3.08
644.5  231483.00  6989.58  3.02
645.9  232986.60  6917.52  2.97
647.2  233916.73  6842.66  2.93
648.6  235325.25  6811.71  2.89
650.0  236606.40  6794.33  2.87
651.3  237653.90  6780.55  2.85
652.7  239927.45  6798.65  2.83
654.0  242030.10  6813.73  2.82
655.4  243350.88  6818.62  2.80
656.8  243502.90  6792.70  2.79
658.1  244887.60  6791.41  2.77
659.5  247083.38  6797.01  2.75
660.8  248355.00  6778.29  2.73
662.2  249334.40  6757.97  2.71
663.5  250804.45  6752.16  2.69
664.9  251785.30  6733.55  2.67
666.2  252547.20  6726.39  2.66
667.6  254237.10  6750.66  2.66
668.9  255118.15  6775.95  2.66
670.3  256976.88  6829.27  2.66
671.6  257955.38  6868.02  2.66
673.0  259128.00  6931.66  2.67
674.3  260404.30  7000.86  2.69
675.7  261743.28  7079.14  2.70
677.0  262802.30  7169.24  2.73
678.4  264101.78  7279.58  2.76
679.7  265114.93  7403.34  2.79
681.1  266356.95  7534.93  2.83
682.4  267432.10  7680.28  2.87
683.8  268625.50  7844.87  2.92
685.1  269637.38  8036.22  2.98
686.4  270951.00  8268.55  3.05
687.8  272139.75  8552.48  3.14
689.1  273207.75  8933.48  3.27
690.5  274525.05  9468.74  3.45
691.8  275341.23  10211.36  3.71
693.1  276669.75  11287.90  4.08
694.5  277845.75  12734.37  4.58
695.8  279051.50  14599.43  5.23
697.1  280211.75  16909.97  6.03
698.5  281253.00  19663.39  6.99
699.8  282281.08  22832.21  8.09
701.1  283437.50  26369.08  9.30
702.5  284242.75  30167.61  10.61
703.8  285165.00  34198.71  11.99
705.1  286322.40  38405.70  13.41
706.5  287339.75  42694.48  14.86
707.8  288292.65  47038.87  16.32
709.1  289108.75  51389.17  17.78
710.5  290202.68  55818.45  19.23
711.8  291015.00  60212.12  20.69
713.1  291996.20  64638.57  22.14
714.4  292888.20  69036.55  23.57
715.8  293713.30  73391.64  24.99
717.1  294997.65  77829.08  26.38
718.4  295948.80  82126.08  27.75
719.7  297029.60  86400.75  29.09
721.0  297517.50  90436.28  30.40
722.4  298268.85  94434.67  31.66
723.7  299206.50  98379.52  32.88
725.0  300197.25  102210.99  34.05
726.3  301107.40  105875.83  35.16
727.6  301655.20  109241.75  36.21
729.0  302541.23  112573.10  37.21
730.3  303308.33  115695.14  38.14
731.6  304167.85  118667.34  39.01
732.9  304925.78  121429.44  39.82
734.2  305698.25  124038.44  40.58
735.5  306718.95  126576.60  41.27
736.8  307507.50  128867.51  41.91
738.1  308357.80  131022.99  42.49
739.5  309294.95  133077.62  43.03
740.8  309975.88  134879.63  43.51
742.1  310628.95  136556.97  43.96
743.4  311200.00  138096.67  44.38
744.7  312069.30  139629.66  44.74
746.0  312920.40  141048.85  45.07
747.3  313523.58  142245.72  45.37
748.6  314227.25  143410.33  45.64
749.9  314834.00  144441.14  45.88
751.2  315369.00  145369.59  46.10
752.5  316075.05  146303.52  46.29
753.8  316550.50  147061.51  46.46
755.1  317200.00  147826.10  46.60
756.4  317778.15  148503.77  46.73
757.7  318740.80  149315.88  46.85
759.0  320495.73  150447.08  46.94
760.3  321604.80  151242.83  47.03
761.6  323083.60  152188.99  47.11
762.9  323594.75  152627.86  47.17
764.2  323956.70  152962.11  47.22
765.5  324164.88  153225.57  47.27
766.8  324523.20  153533.90  47.31
768.1  324991.40  153867.96  47.35
769.3  325523.45  154211.69  47.37
770.6  326120.60  154601.30  47.41
771.9  326773.65  154982.89  47.43
773.2  327082.80  155196.53  47.45
774.5  327641.60  155505.55  47.46
775.8  328226.45  155837.81  47.48
777.1  328753.70  156122.40  47.49
778.4  329000.93  156286.54  47.50
779.6  329679.98  156656.98  47.52
780.9  330090.00  156882.28  47.53
782.2  330481.25  157104.67  47.54
783.5  330711.50  157242.31  47.55
784.8  331152.98  157475.24  47.55
786.0  331467.15  157648.67  47.56
787.3  331809.45  157821.64  47.56
788.6  332157.53  158007.18  47.57
789.9  332529.40  158208.11  47.58
791.2  333079.38  158492.58  47.58
792.4  333641.05  158776.20  47.59
793.7  334066.80  158981.45  47.59
795.0  334630.73  159253.25  47.59
796.2  335199.65  159531.53  47.59
797.5  335825.48  159834.87  47.59
798.8  336398.75  160119.43  47.60
800.0  336986.05  160410.43  47.60
801.3  337318.40  160586.55  47.61
802.6  337886.78  160839.78  47.60
803.8  338441.20  161124.95  47.61
805.1  338813.13  161316.65  47.61
806.4  339166.20  161514.97  47.62
807.7  339695.78  161747.44  47.62
808.9  340189.30  161988.23  47.62
810.2  340644.15  162203.97  47.62
811.4  341050.50  162421.04  47.62
812.7  341615.63  162706.61  47.63
814.0  342368.00  163080.19  47.63
815.2  342976.25  163366.56  47.63
816.5  343357.55  163568.02  47.64
817.7  343742.70  163775.15  47.64
819.0  344210.90  163992.72  47.64
820.2  344344.00  164080.61  47.65
821.5  345010.55  164399.60  47.65
822.7  345312.43  164596.62  47.67
824.0  345672.90  164746.03  47.66
825.2  346098.83  164969.54  47.67
826.5  346383.93  165130.23  47.67
827.7  346932.60  165401.76  47.68
829.0  347263.08  165595.39  47.69
830.2  347633.50  165756.40  47.68
831.5  348141.30  165998.41  47.68
832.7  348428.85  166174.58  47.69
834.0  348781.68  166361.39  47.70
835.2  349081.15  166544.27  47.71
836.4  349442.50  166710.11  47.71
837.7  349806.80  166925.68  47.72
838.9  350332.08  167150.00  47.71
840.1  350660.48  167353.61  47.73
841.4  351073.00  167597.05  47.74
842.6  351424.00  167813.77  47.75
843.8  351834.40  168014.57  47.75
845.1  352360.95  168286.08  47.76
846.3  352787.00  168494.07  47.76
847.5  353220.00  168718.52  47.77
848.8  353619.60  168922.35  47.77
850.0  354035.15  169139.49  47.77
851.2  354558.60  169441.71  47.79
852.5  355000.30  169634.42  47.78
853.7  355547.25  169911.00  47.79
854.9  356014.60  170140.14  47.79
856.1  356441.80  170364.16  47.80
857.4  356691.68  170493.96  47.80
858.6  357185.95  170768.51  47.81
859.8  357628.13  170975.68  47.81
861.0  358090.20  171223.82  47.82
862.2  358644.45  171431.55  47.80
863.5  358981.35  171624.81  47.81
864.7  359515.20  171876.70  47.81
865.9  359953.60  172071.97  47.80
867.1  360220.70  172248.33  47.82
868.3  360702.15  172455.82  47.81
869.5  361228.75  172698.14  47.81
870.8  361768.50  172942.46  47.80
872.0  362344.95  173197.69  47.80
873.2  362772.30  173414.11  47.80
874.4  363206.03  173611.12  47.80
875.6  363614.45  173794.02  47.80
876.8  364134.75  174036.56  47.79
878.0  364648.90  174273.76  47.79
879.2  365147.70  174506.42  47.79
880.4  365692.13  174718.91  47.78
881.6  366209.75  174938.15  47.77
882.8  366624.80  175129.45  47.77
884.0  367164.58  175397.65  47.77
885.2  367726.10  175622.17  47.76
886.5  368283.25  175892.54  47.76
887.7  368742.40  176068.32  47.75
888.8  369389.93  176327.65  47.73
890.0  369892.45  176595.35  47.74
891.2  370396.10  176860.98  47.75
892.4  370977.60  177106.69  47.74
893.6  371525.60  177355.58  47.74
894.8  372427.50  177737.43  47.72
896.0  373279.25  178065.84  47.70
897.2  374084.75  178406.18  47.69
898.4  374827.20  178734.66  47.68
899.6  375300.38  178965.74  47.69
900.8  375523.85  179142.18  47.70
902.0  375822.30  179168.75  47.67
903.2  376039.13  179250.23  47.67
904.3  376321.80  179368.63  47.66
905.5  376905.30  179604.33  47.65
906.7  377387.50  179885.61  47.67
907.9  377922.30  180066.09  47.65
909.1  378117.45  180153.80  47.64
910.2  378249.45  180188.71  47.64
911.4  378483.30  180230.14  47.62
912.6  378628.25  180264.44  47.61
913.8  378793.65  180286.39  47.59
915.0  379098.30  180434.94  47.60
916.2  379109.25  180489.59  47.61
917.3  379129.73  180479.23  47.60
918.5  379241.50  180499.50  47.59
919.7  379521.75  180554.25  47.57
920.8  379387.30  180483.25  47.57
922.0  379456.00  180444.37  47.55
923.2  379606.50  180479.00  47.54
924.4  379701.00  180546.43  47.55
925.5  379932.40  180578.13  47.53
926.7  380568.38  180786.42  47.50
927.9  381310.20  181124.58  47.50
929.0  382442.85  181692.41  47.51
930.2  384556.20  182641.68  47.49
931.4  386893.13  183668.62  47.47
932.5  389496.40  184809.51  47.45
933.7  390824.23  185366.29  47.43
934.9  391413.75  185585.83  47.41
936.0  390945.75  185264.30  47.39
937.2  388807.50  184122.21  47.36
938.3  386952.25  183225.06  47.35
939.5  385268.40  182352.48  47.33
940.7  385571.70  182322.05  47.29
941.8  386812.13  182913.14  47.29
943.0  388255.50  183524.68  47.27
944.2  388679.20  183745.90  47.27
945.3  388098.75  183348.10  47.24
946.5  387497.25  182846.16  47.19
947.6  387502.40  182734.19  47.16
948.8  387467.93  182527.63  47.11
949.9  387496.20  182371.28  47.06
951.1  386812.73  181977.39  47.05
952.2  386580.00  181661.03  46.99
953.4  386106.75  181357.57  46.97
954.5  386029.80  181087.92  46.91
955.7  385774.20  180894.96  46.89
956.8  385683.00  180587.22  46.82
958.0  384967.00  180132.24  46.79
959.1  384635.40  179904.97  46.77
960.3  384058.25  179529.44  46.75
961.4  383958.35  179254.28  46.69
962.6  384079.50  179227.97  46.66
963.7  383933.63  178947.07  46.61
964.9  383566.20  178787.18  46.61
966.0  383447.93  178552.93  46.57
967.2  383017.50  178484.90  46.60
968.3  382874.85  178253.69  46.56
969.5  382458.60  178161.17  46.58
970.6  382560.63  178140.58  46.57
971.8  382964.58  178143.62  46.52
972.9  382787.85  177980.15  46.50
974.0  382932.50  178077.97  46.50
975.2  382742.25  177976.28  46.50
976.3  382904.70  177924.01  46.47
977.5  383091.28  177799.88  46.41
978.6  382895.70  177766.34  46.43
979.7  383101.95  177785.84  46.41
980.9  382835.33  177621.50  46.40
982.0  382040.20  177563.22  46.48
983.2  382171.90  177344.50  46.40
984.3  381747.60  177030.20  46.37
985.4  381280.93  177054.97  46.44
986.6  381371.63  176856.30  46.37
987.7  381551.63  177218.85  46.45
988.9  381238.20  176932.87  46.41
990.0  382042.50  176990.50  46.33
993.1  386454.78  178866.16  46.28
996.9  385100.38  178511.87  46.35
1000.7  384971.13  178779.39  46.44
1004.5  385002.17  179051.26  46.51
1008.4  384595.58  179174.60  46.59
1012.2  384412.50  179351.82  46.66
1016.0  383994.60  179386.03  46.72
1019.8  383269.43  179284.88  46.78
1023.7  381996.70  178851.59  46.82
1027.5  380327.45  178212.01  46.86
1031.3  379291.25  177793.69  46.88
1035.1  378218.69  177369.80  46.90
1038.9  377752.65  177219.38  46.91
1042.7  377459.67  177175.61  46.94
1046.5  377315.00  177169.40  46.96
1050.3  377343.80  177198.37  46.96
1054.2  376997.83  177095.08  46.98
1058.0  376613.53  176922.92  46.98
1061.8  376575.37  176942.27  46.99
1065.6  376017.33  176638.91  46.98
1069.4  375221.00  176212.74  46.96
1073.2  373932.27  175530.73  46.94
1077.0  373210.75  175135.83  46.93
1080.8  373375.00  175122.02  46.90
1084.6  373447.78  175114.22  46.89
1088.4  373735.51  175212.14  46.88
1092.2  373288.50  174902.46  46.85
1096.0  372644.72  174468.52  46.82
1099.8  371963.58  173989.83  46.78
1103.6  371052.73  173411.16  46.73
1107.4  369879.79  172692.52  46.69
1111.2  369573.40  172400.85  46.65
1114.9  369083.17  171976.92  46.60
1118.7  368844.30  171606.95  46.53
1122.5  368530.07  171159.86  46.44
1126.3  367618.42  170384.84  46.35
1130.1  367213.65  169687.11  46.21
1133.9  365552.60  168179.80  46.01
1137.7  364014.80  166569.04  45.76
1141.4  361965.50  164593.70  45.47
1145.2  361015.41  162990.14  45.15
1149.0  359751.88  161340.63  44.85
1152.8  357939.00  159560.97  44.58
1156.6  356069.82  157979.62  44.37
1160.3  354269.00  156633.67  44.21
1164.1  351940.70  155217.96  44.10
1167.9  350318.75  154250.60  44.03
1171.7  349035.75  153488.25  43.97
1175.4  347586.63  152691.60  43.93
1179.2  346198.08  151904.44  43.88
1183.0  345864.67  151578.24  43.83
1186.7  345864.40  151422.57  43.78
1190.5  345510.00  151153.56  43.75
1194.3  344601.70  150641.29  43.71
1198.0  343105.40  149930.90  43.70
1201.8  341433.95  149186.29  43.69
1205.6  340360.00  148784.67  43.71
1209.3  339849.27  148710.00  43.76
1213.1  339387.15  148684.31  43.81
1216.8  338784.51  148641.99  43.88
1220.6  337670.67  148338.67  43.93
1224.3  336415.92  147968.26  43.98
1228.1  334902.20  147498.20  44.04
1231.9  333279.95  146935.51  44.09
1235.6  331564.73  146302.52  44.12
1239.4  329997.75  145761.91  44.17
1243.1  328603.91  145231.11  44.20
1246.9  327322.66  144727.70  44.22
1250.6  326261.13  144301.85  44.23
1254.3  325084.38  143807.98  44.24
1258.1  323847.18  143266.28  44.24
1261.8  322399.73  142630.30  44.24
1265.6  321242.42  142093.89  44.23
1269.3  320508.73  141720.28  44.22
1273.1  320856.39  141790.09  44.19
1276.8  320603.60  141536.69  44.15
1280.6  319460.97  140870.24  44.10
1284.3  317454.80  139805.32  44.04
1288.0  316209.01  139063.47  43.98
1291.8  315738.00  138617.98  43.90
1295.5  315035.60  138020.67  43.81
1299.2  313903.23  137179.83  43.70
1302.9  312275.93  136044.46  43.57
1306.7  310504.02  134777.77  43.41
1310.4  308767.59  133427.36  43.21
1314.1  307178.85  132100.23  43.00
1317.9  305793.96  130743.87  42.76
1321.6  304258.70  129244.19  42.48
1325.3  302581.65  127600.73  42.17
1329.0  301295.63  126067.85  41.84
1332.8  299360.60  124187.80  41.48
1336.5  297684.73  122414.68  41.12
1340.2  297600.33  121279.17  40.75
1343.9  297642.29  120180.60  40.38
1347.6  297968.70  119190.13  40.00
1351.4  299708.00  118809.71  39.64
1355.1  302042.03  118684.71  39.29
1358.8  303984.00  118331.43  38.93
1362.5  304364.98  117241.02  38.52
1366.2  302295.70  114997.23  38.04
1369.9  298942.13  111989.05  37.46
1373.6  296058.47  108738.75  36.73
1377.3  294627.00  105439.71  35.79
1381.0  294168.67  101736.83  34.58
1384.8  292126.25  96643.39  33.08
1388.4  288770.88  90525.03  31.35
1392.2  286460.25  84315.73  29.43
1395.9  284988.60  78195.13  27.44
1399.6  283139.94  72204.36  25.50
1403.3  281601.42  66795.07  23.72
1407.0  279821.10  61992.57  22.15
1410.7  277917.75  57934.80  20.85
1414.3  275919.88  54614.14  19.79
1418.1  274164.29  52039.73  18.98
1421.7  272713.47  50066.44  18.36
1425.4  271329.83  48557.04  17.90
1429.1  270031.13  47447.25  17.57
1432.8  268320.72  46561.78  17.35
1436.5  267526.83  46049.04  17.21
1440.2  266906.07  45754.88  17.14
1443.9  265806.02  45512.30  17.12
1447.6  264233.20  45300.20  17.14
1451.2  262989.65  45202.19  17.19
1454.9  261534.45  45136.18  17.26
1458.6  260301.07  45238.35  17.38
1462.3  259099.50  45486.57  17.56
1466.0  257735.27  45866.55  17.80
1469.7  256018.75  46367.49  18.11
1473.3  254940.50  47119.14  18.48
1477.0  252893.93  47801.81  18.90
1480.7  251227.48  48613.80  19.35
1484.4  249207.88  49376.16  19.81
1488.0  247602.67  50264.76  20.30
1491.7  246015.50  51139.62  20.79
1495.4  244361.63  52004.45  21.28
1499.0  242817.00  52848.36  21.76
1502.7  241536.83  53747.39  22.25
1506.4  240114.41  54571.92  22.73
1510.0  238673.43  55358.87  23.19
1513.7  237155.92  56082.54  23.65
1517.4  235783.33  56800.95  24.09
1521.0  234529.73  57502.82  24.52
1524.7  233276.33  58144.05  24.92
1528.3  231974.88  58745.88  25.32
1532.0  230751.03  59310.17  25.70
1535.7  229345.07  59768.95  26.06
1539.3  228062.43  60231.57  26.41
1543.0  227089.09  60736.13  26.75
1546.6  226403.67  61280.61  27.07
1550.3  225390.10  61695.56  27.37
1553.9  224322.83  62063.42  27.67
1557.6  223072.67  62343.71  27.95
1561.2  221805.00  62567.74  28.21
1564.9  220486.08  62764.39  28.47
1568.5  219148.42  62921.25  28.71
1572.2  217971.70  63106.58  28.95
1575.8  216874.00  63294.00  29.18
1579.5  215852.25  63476.53  29.41
1583.1  214786.39  63632.61  29.63
1586.8  213472.00  63688.00  29.83
1590.4  212254.17  63757.44  30.04
1594.0  210930.74  63773.29  30.23
1597.7  210091.13  63945.86  30.44
1601.3  209166.30  64071.00  30.63
1604.9  208176.19  64155.33  30.82
1608.6  206827.48  64087.61  30.99
1612.2  205480.28  63988.06  31.14
1615.8  204048.98  63847.78  31.29
1619.5  202779.75  63738.33  31.43
1623.1  201441.23  63584.25  31.56
1626.7  200219.83  63444.50  31.69
1630.3  199008.33  63293.00  31.80
1634.0  197890.00  63140.00  31.91
1637.6  196891.13  62992.54  31.99
1641.2  195857.00  62779.41  32.05
1644.8  194638.57  62459.61  32.09
1648.5  193549.04  62150.29  32.11
1652.1  192563.70  61844.61  32.12
1655.7  191629.00  61538.74  32.11
1659.3  190797.70  61283.34  32.12
1662.9  189365.83  60837.74  32.13
1666.6  187916.60  60390.21  32.14
1670.2  186483.79  59912.60  32.13
1673.8  185011.81  59382.63  32.10
1677.4  183830.20  58909.64  32.05
1681.0  183017.23  58485.64  31.96
1684.6  182590.42  58129.96  31.84
1688.2  181912.40  57610.72  31.67
1691.8  181211.32  57118.19  31.52
1695.4  180766.00  56692.48  31.36
1699.0  180379.03  56282.67  31.20
1702.6  180041.00  55867.24  31.03
1706.2  179412.57  55342.41  30.85
1709.8  178455.68  54740.11  30.67
1713.4  177710.38  54236.57  30.52
1717.0  176808.25  53742.68  30.40
1720.6  175970.25  53276.54  30.28
1724.2  175234.43  52838.76  30.15
1727.8  174504.75  52410.55  30.03
1731.4  174043.38  52055.93  29.91
1735.0  173880.85  51788.84  29.78
1738.6  173673.45  51470.57  29.64
1742.2  173135.03  51013.55  29.46
1745.8  172521.79  50510.32  29.28
1749.4  171578.55  49895.77  29.08
1753.0  170074.47  49125.28  28.88
1756.6  168403.08  48336.00  28.70
1760.1  167071.28  47670.40  28.53
1763.7  165324.00  46909.05  28.37
1767.3  163874.83  46251.23  28.22
1770.9  162595.88  45657.39  28.08
1774.5  161117.93  45033.24  27.95
1778.0  159953.06  44548.48  27.85
1781.6  158862.90  44140.61  27.79
1785.2  157702.40  43761.39  27.75
1788.8  156526.60  43418.97  27.74
1792.3  155288.60  43082.04  27.74
1795.9  154746.26  42945.12  27.75
1799.5  154583.00  42931.14  27.77
1803.1  155694.23  43302.58  27.81
1806.6  157952.20  43976.99  27.84
1810.2  159811.87  44517.80  27.86
1813.8  160675.90  44753.71  27.85
1817.3  160170.20  44604.77  27.85
1820.9  158921.53  44238.77  27.84
1824.5  157488.38  43808.72  27.82
1828.0  156376.46  43433.37  27.77
1831.6  155949.70  43226.68  27.72
1835.2  155762.50  43024.17  27.62
1838.7  155564.80  42740.45  27.47
1842.3  155325.00  42370.71  27.28
1845.8  154078.83  41602.07  27.00
1849.4  153434.63  40860.63  26.63
1852.9  152566.23  39875.39  26.14
1856.5  151480.55  38631.65  25.50
1860.0  150403.51  37143.51  24.70
1863.6  150407.38  35646.45  23.70
1867.1  151177.25  34013.35  22.50
1870.7  152122.43  32013.47  21.04
1874.2  151050.15  29203.72  19.33
1877.8  148268.87  25921.92  17.48
1881.3  145163.25  22520.29  15.51
1884.9  143244.38  19424.56  13.56
1888.4  141646.25  16538.31  11.68
1891.9  140029.47  14026.50  10.02
1895.5  138617.85  11983.28  8.64
1899.0  137981.63  10479.48  7.59
1901.3  176690.33  9539.44  5.40
1904.1  176697.75  8503.25  4.81
1906.8  175601.40  7642.20  4.35
1909.6  173378.45  6941.43  4.00
1912.4  171314.27  6425.03  3.75
1915.1  169881.80  6057.52  3.57
1917.9  168351.17  5756.72  3.42
1920.6  167040.57  5542.75  3.32
1923.3  165633.53  5400.73  3.26
1926.1  163854.73  5282.29  3.22
1928.8  162154.67  5206.67  3.21
1931.6  160826.00  5181.25  3.22
1934.3  159656.05  5189.01  3.25
1937.0  158531.77  5219.56  3.29
1939.8  157301.67  5278.14  3.36
1942.5  155727.00  5338.67  3.43
1945.2  153719.50  5406.13  3.52
1947.9  152085.27  5508.30  3.62
1950.7  150807.10  5622.34  3.73
1953.4  148941.80  5733.18  3.85
1956.1  147483.83  5879.14  3.99
1958.8  146187.82  6034.09  4.13
1961.5  144633.20  6194.67  4.28
1964.2  143052.00  6370.00  4.45
1966.9  141424.35  6534.10  4.62
1969.6  140130.00  6729.00  4.80
1972.3  138697.60  6924.20  4.99
1975.0  137608.65  7141.95  5.19
1977.7  136464.37  7361.92  5.39
1980.4  135304.73  7591.94  5.61
1983.1  134184.37  7821.76  5.83
1985.8  133240.50  8067.80  6.06
1988.4  132192.67  8311.33  6.29
1991.1  131243.93  8561.39  6.52
1993.8  130361.55  8811.98  6.76
1996.5  129698.07  9073.35  7.00
1999.1  129008.73  9326.10  7.23
2001.8  128308.60  9580.12  7.47
2004.5  127613.45  9837.93  7.71
2007.1  126869.55  10083.02  7.95
2009.8  126115.73  10316.83  8.18
2012.4  125501.75  10561.16  8.42
2015.1  124950.23  10797.42  8.64
2017.8  124155.97  11004.62  8.86
2020.4  123631.93  11221.77  9.08
2023.1  123258.10  11444.92  9.29
2025.7  123014.67  11671.11  9.49
2028.3  122676.67  11870.44  9.68
2031.0  122270.02  12058.26  9.86
2033.6  121974.00  12243.80  10.04
2036.2  121704.30  12420.70  10.21
2038.9  121095.30  12542.50  10.36
2041.5  120743.27  12688.56  10.51
2044.1  120173.10  12800.60  10.65
2046.8  119790.30  12925.30  10.79
2049.4  119137.80  13009.40  10.92
2052.0  118851.93  13132.02  11.05
2054.6  118440.00  13232.92  11.17
2057.2  117856.33  13324.16  11.31
2059.8  117524.47  13440.60  11.44
2062.4  116637.72  13493.40  11.57
2065.0  116100.93  13577.42  11.69
2067.6  115199.47  13624.15  11.83
2070.2  114598.02  13699.69  11.95
2072.8  113944.27  13766.52  12.08
2075.4  113496.25  13857.08  12.21
2078.0  112857.05  13909.87  12.33
2080.6  112270.40  13971.47  12.44
2083.2  111564.60  14017.90  12.56
2085.8  111074.03  14082.61  12.68
2088.4  110399.00  14130.39  12.80
2090.9  109599.98  14159.57  12.92
2093.5  108689.13  14169.86  13.04
2096.1  107912.03  14190.94  13.15
2098.7  107139.10  14205.58  13.26
2101.2  106153.67  14197.49  13.37
2103.8  105455.00  14220.78  13.49
2106.4  104773.80  14241.15  13.59
2108.9  104118.80  14267.36  13.70
2111.5  103254.20  14267.36  13.82
2114.0  102616.67  14287.73  13.92
2116.6  102068.75  14326.67  14.04
2119.1  101509.23  14356.88  14.14
2121.7  101018.75  14382.08  14.24
2124.2  100606.27  14418.24  14.33
2126.8  99787.45  14404.67  14.44
2129.3  99369.60  14437.87  14.53
2131.9  98788.80  14440.80  14.62
2134.4  98350.05  14463.85  14.71
2136.9  97956.52  14497.60  14.80
2139.4  97409.20  14497.00  14.88
2142.0  96957.00  14517.69  14.97
2144.5  96680.70  14563.37  15.06
2147.0  96453.20  14611.96  15.15
2149.5  95926.13  14614.93  15.24
2152.1  95753.35  14669.78  15.32
2154.6  95671.47  14733.33  15.40
2157.1  95138.83  14721.06  15.47
2159.6  94721.00  14724.08  15.54
2162.1  94558.10  14760.20  15.61
2164.6  94301.67  14768.60  15.66
2167.1  93963.87  14779.04  15.73
2169.6  93632.12  14786.61  15.79
2172.1  93173.57  14770.26  15.85
2174.6  92852.00  14783.42  15.92
2177.1  92387.73  14785.26  16.00
2179.5  91964.82  14773.13  16.06
2182.0  91471.05  14754.30  16.13
2184.5  90933.88  14741.22  16.21
2187.0  90324.17  14712.85  16.29
2189.5  89655.43  14664.40  16.36
2191.9  88853.50  14598.33  16.43
2194.4  88213.35  14554.20  16.50
2196.9  87446.40  14489.60  16.57
2199.3  86777.67  14425.89  16.62
2201.8  85857.73  14327.47  16.69
2204.3  85395.18  14306.15  16.75
2206.7  84729.70  14246.38  16.81
2209.2  84245.53  14199.05  16.85
2211.6  83595.60  14124.00  16.90
2214.1  83291.45  14105.78  16.94
2216.5  82724.80  14035.80  16.97
2219.0  82367.20  13992.76  16.99
2221.4  81981.08  13939.53  17.00
2223.9  81505.08  13863.50  17.01
2226.3  80999.33  13761.03  16.99
2228.7  80430.57  13645.59  16.97
2231.1  79813.80  13500.30  16.91
2233.6  79218.33  13347.09  16.85
2236.0  78668.92  13182.55  16.76
2238.4  78163.17  13017.28  16.65
2240.9  77708.47  12847.11  16.53
2243.3  77142.27  12658.38  16.41
2245.7  76565.25  12447.45  16.26
2248.1  76055.63  12239.07  16.09
2250.5  75533.90  12023.26  15.92
2252.9  74889.53  11780.60  15.73
2255.3  74336.45  11548.63  15.54
2257.7  73850.00  11330.00  15.34
2260.1  73333.63  11110.25  15.15
2262.5  72720.00  10876.67  14.96
2264.9  72209.45  10662.20  14.77
2267.3  71570.00  10450.00  14.60
2269.7  71056.07  10260.76  14.44
2272.1  70497.30  10076.77  14.29
2274.5  69913.28  9883.50  14.14
2276.8  69435.53  9726.18  14.01
2279.2  68842.50  9557.55  13.88
2281.6  68423.13  9408.98  13.75
2284.0  67952.80  9258.33  13.62
2286.3  67467.73  9113.24  13.51
2288.7  67047.07  8974.91  13.39
2291.1  66506.43  8817.72  13.26
2293.4  66066.00  8678.75  13.14
2295.8  65435.90  8514.67  13.01
2298.2  64822.05  8349.00  12.88
2300.5  64138.95  8169.60  12.74
2302.9  63384.67  7977.33  12.59
2305.2  62624.00  7810.83  12.47
2307.6  61941.27  7658.41  12.36
2309.9  61173.33  7495.11  12.25
2312.2  60574.00  7371.11  12.17
2314.6  59957.55  7248.45  12.09
2316.9  59243.40  7113.90  12.01
2319.2  58685.70  7007.87  11.94
2321.6  58042.83  6877.23  11.85
2323.9  57479.17  6763.89  11.77
2326.2  56934.70  6652.99  11.69
2328.6  56430.00  6534.73  11.58
2330.9  55912.50  6433.00  11.51
2333.2  55446.08  6332.36  11.42
2335.5  54998.00  6238.10  11.34
2337.8  54531.32  6132.12  11.25
2340.1  53938.23  6017.10  11.16
2342.4  53505.83  5915.00  11.05
2344.8  53065.92  5814.94  10.96
2347.1  52486.47  5713.64  10.89
2349.4  51921.55  5596.47  10.78
2351.6  51326.65  5482.63  10.68
2353.9  50830.57  5373.23  10.57
2356.2  50314.03  5284.12  10.50
2358.5  49739.20  5181.87  10.42
2360.8  49134.40  5084.80  10.35
2363.1  48691.55  4983.94  10.24
2365.4  48217.10  4892.90  10.15
2367.7  47743.20  4799.40  10.05
2369.9  47196.90  4705.95  9.97
2372.2  46566.13  4609.60  9.90
2374.5  45969.00  4500.65  9.79
2376.7  45351.47  4391.10  9.68
2379.0  44706.90  4273.31  9.56
2381.3  44088.33  4165.00  9.45
2383.5  43577.60  4059.73  9.32
2385.8  42960.10  3957.52  9.21
2388.0  42421.00  3854.67  9.09
2390.3  41901.20  3749.87  8.95
2392.5  41412.00  3656.00  8.83
2394.8  40934.30  3573.53  8.73
2397.0  40440.40  3486.31  8.62
2399.3  39985.70  3386.97  8.47
2401.5  39530.75  3303.42  8.36
2403.8  39006.88  3202.34  8.21
2406.0  38479.25  3116.59  8.10
2408.2  38085.67  3033.56  7.97
2410.4  37649.73  2962.71  7.87
2412.7  37247.60  2886.14  7.75
2414.9  36862.10  2808.30  7.62
2417.1  36461.70  2726.27  7.48
2419.3  36032.00  2649.60  7.35
2421.6  35637.08  2570.42  7.21
2423.8  35243.40  2506.89  7.11
2426.0  34873.23  2436.54  6.99
2428.2  34509.07  2373.78  6.88
2430.4  34208.17  2307.01  6.74
2432.6  33920.00  2248.89  6.63
2434.8  33617.17  2174.31  6.47
2437.0  33247.50  2104.56  6.33
2439.2  32913.08  2036.51  6.19
2441.4  32570.03  1981.38  6.08
2443.6  32331.00  1938.94  6.00
2445.7  32056.62  1883.50  5.88
2447.9  31785.67  1832.36  5.76
2450.1  31472.00  1765.62  5.61
2452.3  31084.90  1708.12  5.50
2454.5  30735.28  1659.45  5.40
2456.6  30345.20  1612.13  5.31
2458.8  29972.80  1553.93  5.18
2461.0  29669.50  1504.14  5.07
2463.1  29376.45  1464.70  4.99
2465.3  29091.07  1429.19  4.91
2467.5  28851.00  1401.25  4.86
2469.6  28610.17  1362.39  4.76
2471.8  28291.40  1321.47  4.67
2473.9  27964.50  1287.11  4.60
2476.1  27618.50  1243.67  4.50
2478.2  27282.90  1213.59  4.45
2480.4  26969.95  1187.07  4.40
2482.5  26631.33  1156.09  4.34
2484.6  26289.08  1122.00  4.27
2486.8  26014.90  1088.53  4.18
2488.9  25711.05  1068.01  4.15
2491.1  25354.93  1047.20  4.13
2493.2  24955.90  1032.51  4.14
2495.3  24547.03  1010.10  4.11
2497.4  24214.40  971.37  4.01
2499.5  23870.42  944.03  3.95
2501.7  23746.17  920.27  3.88
2503.8  23687.52  919.42  3.88
2505.9  23626.25  916.80  3.88
2508.0  23629.98  928.38  3.93
2510.1  23623.88  918.01  3.89
2512.2  23744.90  905.27  3.81
2514.3  23919.00  892.21  3.73
2516.4  24152.20  939.03  3.89
