/*** Spectra Vista SIG Data ***/
name= 6_20221020_ACSA_02_avg.sig
comm= Averaged Ref/Tar of files: HR.102022.0017_moc.sig,HR.102022.0018_moc.sig,HR.102022.0019_moc.sig
data=
337.3  3027.13  259.94  8.59
338.8  3126.50  247.37  7.91
340.3  3279.50  245.40  7.48
341.8  3520.83  243.87  6.93
343.2  3640.80  253.72  6.97
344.7  3795.85  243.71  6.42
346.2  4003.30  237.32  5.93
347.7  4168.45  232.21  5.57
349.2  4347.00  230.40  5.30
350.6  4590.63  223.85  4.88
352.1  4858.60  238.17  4.90
353.6  5135.60  244.55  4.76
355.1  5388.00  240.54  4.46
356.6  5670.08  246.59  4.35
358.0  5933.40  243.05  4.10
359.5  6210.90  250.15  4.03
361.0  6523.65  262.20  4.02
362.5  6850.35  267.66  3.91
364.0  7197.43  278.56  3.87
365.4  7530.80  286.35  3.80
366.9  7900.75  292.03  3.70
368.4  8209.78  303.92  3.70
369.9  8566.93  314.00  3.67
371.3  8971.20  340.74  3.80
372.8  9398.70  364.11  3.87
374.3  9809.38  360.89  3.68
375.8  10214.05  364.47  3.57
377.2  10598.60  368.91  3.48
378.7  11002.10  371.48  3.38
380.2  11351.80  376.60  3.32
381.7  11863.98  383.50  3.23
383.1  12343.10  392.70  3.18
384.6  12813.13  398.20  3.11
386.1  13269.28  409.24  3.08
387.6  13690.60  413.23  3.02
389.0  14150.40  421.14  2.98
390.5  14602.50  429.86  2.94
392.0  15155.85  445.87  2.94
393.4  15712.45  460.44  2.93
394.9  16234.20  459.86  2.83
396.4  16741.13  473.14  2.83
397.9  17245.63  483.21  2.80
399.3  17778.15  494.44  2.78
400.8  18319.88  508.00  2.77
402.2  18952.60  526.07  2.78
403.7  19524.83  525.06  2.69
405.2  20123.75  538.89  2.68
406.6  20671.20  554.59  2.68
408.1  21244.00  572.53  2.70
409.6  21818.30  583.24  2.67
411.0  22460.20  595.77  2.65
412.5  23115.75  612.85  2.65
414.0  23736.88  634.54  2.67
415.4  24426.38  649.25  2.66
416.9  25057.50  671.87  2.68
418.4  25734.15  688.31  2.67
419.8  26462.80  707.20  2.67
421.3  27147.48  724.88  2.67
422.7  27892.20  752.34  2.70
424.2  28636.88  777.86  2.72
425.7  29372.60  804.14  2.74
427.1  30114.98  824.41  2.74
428.6  30891.50  848.81  2.75
430.0  31624.70  870.03  2.75
431.5  32461.88  898.34  2.77
432.9  33314.10  929.23  2.79
434.4  34179.45  959.09  2.81
435.9  35000.00  989.33  2.83
437.3  35832.50  1014.88  2.83
438.8  36652.50  1039.46  2.84
440.2  37487.45  1062.60  2.83
441.7  38431.20  1091.14  2.84
443.1  39312.75  1116.79  2.84
444.6  40256.30  1144.07  2.84
446.0  41169.68  1168.99  2.84
447.5  42109.65  1192.79  2.83
448.9  43021.50  1217.51  2.83
450.4  44017.05  1246.90  2.83
451.8  44876.00  1272.76  2.84
453.3  45775.58  1302.52  2.85
454.7  46758.08  1333.81  2.85
456.2  47596.78  1360.29  2.86
457.6  48546.68  1393.24  2.87
459.1  49502.38  1425.14  2.88
460.5  50423.75  1462.33  2.90
462.0  51476.15  1503.21  2.92
463.4  52498.40  1539.62  2.93
464.8  53474.25  1577.78  2.95
466.3  54417.00  1613.54  2.97
467.7  55371.05  1646.10  2.97
469.2  56412.60  1683.64  2.98
470.6  57380.20  1714.10  2.99
472.0  58425.33  1746.64  2.99
473.5  59423.88  1774.37  2.99
474.9  60448.50  1799.57  2.98
476.4  61574.40  1832.23  2.98
477.8  62611.00  1861.52  2.97
479.2  63597.00  1887.76  2.97
480.7  64674.30  1921.73  2.97
482.1  65790.85  1955.57  2.97
483.6  66961.30  1995.48  2.98
485.0  68018.03  2040.29  3.00
486.4  69170.70  2089.66  3.02
487.9  70243.88  2139.43  3.05
489.3  71357.35  2197.53  3.08
490.7  72417.55  2263.44  3.13
492.2  73617.60  2335.20  3.17
493.6  74700.35  2410.97  3.23
495.0  75786.75  2496.00  3.29
496.5  76941.03  2591.19  3.37
497.9  78041.65  2689.02  3.45
499.3  79186.30  2802.23  3.54
500.7  80428.50  2930.00  3.64
502.2  81570.20  3066.00  3.76
503.6  82796.60  3218.95  3.89
505.0  83856.60  3373.69  4.02
506.5  85148.33  3548.81  4.17
507.9  86325.98  3731.66  4.32
509.3  87645.60  3928.34  4.48
510.7  88861.50  4129.82  4.65
512.2  90222.68  4341.12  4.81
513.6  91682.15  4568.77  4.98
515.0  93088.40  4798.57  5.15
516.4  94476.38  5023.35  5.32
517.8  96078.25  5259.88  5.47
519.3  97399.00  5477.18  5.62
520.7  98926.05  5706.98  5.77
522.1  100214.73  5918.74  5.91
523.5  101539.50  6127.91  6.04
524.9  102992.85  6341.27  6.16
526.3  104396.25  6546.33  6.27
527.8  105865.65  6747.56  6.37
529.2  106922.40  6927.79  6.48
530.6  108461.70  7134.17  6.58
532.0  110096.00  7349.33  6.68
533.4  111396.45  7536.06  6.77
534.8  112267.03  7693.17  6.85
536.3  113829.60  7898.48  6.94
537.7  115718.40  8124.00  7.02
539.1  117136.80  8322.31  7.10
540.5  118294.85  8513.04  7.20
541.9  119999.03  8748.26  7.29
543.3  121294.43  8959.05  7.39
544.7  122595.60  9186.23  7.49
546.1  124374.53  9458.11  7.60
547.5  125585.60  9696.00  7.72
549.0  127226.00  9977.53  7.84
550.4  128700.63  10252.62  7.97
551.8  130225.83  10553.07  8.10
553.2  131723.13  10866.07  8.25
554.6  133036.80  11180.50  8.40
556.0  134518.95  11527.93  8.57
557.4  136104.15  11910.13  8.75
558.8  137727.45  12325.37  8.95
560.2  139159.88  12751.37  9.16
561.6  140800.05  13223.86  9.39
563.0  142355.25  13715.27  9.63
564.4  143944.20  14255.56  9.90
565.8  145435.00  14830.48  10.20
567.2  147167.50  15469.76  10.51
568.6  148628.63  16121.93  10.85
570.0  150028.25  16782.34  11.19
571.4  151727.55  17486.36  11.52
572.8  153458.25  18220.63  11.87
574.2  155052.80  18969.60  12.23
575.6  156588.75  19738.93  12.61
577.0  158098.30  20538.02  12.99
578.4  159784.63  21388.25  13.39
579.8  161281.13  22244.01  13.79
581.2  162976.00  23151.11  14.21
582.5  164373.30  24039.60  14.63
583.9  165884.40  24957.56  15.05
585.3  167641.65  25934.04  15.47
586.7  169119.60  26881.03  15.89
588.1  170574.50  27837.85  16.32
589.5  172210.50  28834.17  16.74
590.9  173810.80  29832.04  17.16
592.3  175574.50  30867.02  17.58
593.7  177031.73  31845.64  17.99
595.0  178613.78  32849.10  18.39
596.4  180056.80  33819.23  18.78
597.8  181520.23  34788.22  19.16
599.2  183031.20  35746.86  19.53
600.6  184737.80  36731.31  19.88
602.0  186030.23  37604.06  20.21
603.3  187789.45  38547.81  20.53
604.7  189426.10  39441.30  20.82
606.1  190895.40  40271.03  21.10
607.5  192513.13  41094.66  21.35
608.9  194185.05  41901.11  21.58
610.2  195544.13  42612.75  21.79
611.6  197126.33  43354.27  21.99
613.0  198658.60  44055.99  22.18
614.4  200018.85  44697.60  22.35
615.8  201459.38  45337.50  22.50
617.1  202992.30  45984.40  22.65
618.5  204580.40  46649.60  22.80
619.9  206084.40  47293.77  22.95
621.3  207688.28  47967.22  23.10
622.6  209260.50  48651.86  23.25
624.0  210707.10  49320.81  23.41
625.4  212161.13  50000.26  23.57
626.8  213681.65  50714.30  23.73
628.1  214932.58  51368.35  23.90
629.5  216692.33  52141.88  24.06
630.9  218192.43  52830.07  24.21
632.2  219452.80  53427.60  24.35
633.6  220963.88  54022.03  24.45
635.0  222396.00  54505.98  24.51
636.3  223896.60  54887.13  24.51
637.7  225232.13  55105.23  24.47
639.1  226835.00  55266.67  24.36
640.4  228290.30  55262.15  24.21
641.8  229479.05  55079.25  24.00
643.2  231008.40  54892.13  23.76
644.5  232359.00  54581.40  23.49
645.9  233909.10  54292.20  23.21
647.2  234889.55  53900.50  22.95
648.6  236317.50  53677.93  22.71
650.0  237643.20  53498.06  22.51
651.3  238681.03  53314.85  22.34
652.7  240941.65  53436.49  22.18
654.0  242991.90  53538.02  22.03
655.4  244307.43  53467.03  21.89
656.8  244479.00  53085.57  21.71
658.1  245863.70  52847.76  21.49
659.5  248031.53  52629.85  21.22
660.8  249345.00  52090.71  20.89
662.2  250297.60  51368.53  20.52
663.5  251756.90  50696.07  20.14
664.9  252757.70  49935.48  19.76
666.2  253501.80  49174.06  19.40
667.6  255197.08  48670.63  19.07
668.9  256086.73  48149.87  18.80
670.3  257939.00  47948.56  18.59
671.6  258928.88  47764.71  18.45
673.0  260101.50  47796.32  18.38
674.3  261354.60  48026.46  18.38
675.7  262670.43  48426.24  18.44
677.0  263771.40  48939.55  18.55
678.4  265070.88  49675.82  18.74
679.7  266150.10  50596.67  19.01
681.1  267416.55  51844.72  19.39
682.4  268515.00  53444.12  19.90
683.8  269730.50  55508.89  20.58
685.1  270765.75  58005.43  21.42
686.4  272105.40  61043.66  22.43
687.8  273341.25  64480.50  23.59
689.1  274431.50  68216.38  24.86
690.5  275799.00  72286.29  26.21
691.8  276599.83  76423.56  27.63
693.1  277960.80  80804.41  29.07
694.5  279165.25  85069.83  30.47
695.8  280416.50  89184.33  31.80
697.1  281622.25  93060.50  33.04
698.5  282683.10  96667.41  34.20
699.8  283732.28  100035.62  35.26
701.1  284911.38  103177.73  36.21
702.5  285708.50  105918.42  37.07
703.8  286627.50  108458.57  37.84
705.1  287802.45  110830.76  38.51
706.5  288838.88  112951.13  39.11
707.8  289812.45  114857.72  39.63
709.1  290626.85  116549.26  40.10
710.5  291743.10  118201.31  40.52
711.8  292576.00  119634.19  40.89
713.1  293557.20  121029.54  41.23
714.4  294471.50  122299.57  41.53
715.8  295296.60  123467.67  41.81
717.1  296584.50  124764.09  42.07
718.4  297539.20  125851.73  42.30
719.7  298602.85  126940.94  42.51
721.0  299137.50  127748.57  42.71
722.4  299892.45  128616.61  42.89
723.7  300837.30  129529.96  43.06
725.0  301833.45  130435.01  43.21
726.3  302773.63  131272.01  43.36
727.6  303321.43  131911.11  43.49
729.0  304191.83  132672.43  43.61
730.3  304966.13  133365.19  43.73
731.6  305857.80  134084.80  43.84
732.9  306601.58  134726.78  43.94
734.2  307404.63  135354.61  44.03
735.5  308412.75  136059.64  44.12
736.8  309190.20  136656.46  44.20
738.1  310006.90  137263.39  44.28
739.5  310938.85  137898.80  44.35
740.8  311640.18  138407.29  44.41
742.1  312313.65  138912.25  44.48
743.4  312950.00  139400.00  44.54
744.7  313856.73  139984.99  44.60
746.0  314720.25  140537.99  44.65
747.3  315284.80  140953.91  44.71
748.6  316055.50  141431.26  44.75
749.9  316706.00  141873.33  44.80
751.2  317304.10  142310.79  44.85
752.5  318088.60  142801.41  44.89
753.8  318584.35  143171.62  44.94
755.1  319228.00  143581.90  44.98
756.4  319778.23  143946.03  45.01
757.7  320748.58  144495.23  45.05
759.0  322488.83  145386.41  45.08
760.3  323611.20  145997.03  45.11
761.6  325078.60  146778.80  45.15
762.9  325601.00  147099.53  45.18
764.2  325920.40  147350.51  45.21
765.5  326164.73  147559.08  45.24
766.8  326536.00  147820.34  45.27
768.1  327019.00  148129.62  45.30
769.3  327569.55  148467.33  45.32
770.6  328188.90  148840.41  45.35
771.9  328858.60  149225.53  45.38
773.2  329184.40  149465.14  45.40
774.5  329729.40  149809.53  45.43
775.8  330303.65  150168.37  45.46
777.1  330852.50  150486.18  45.48
778.4  331119.53  150692.43  45.51
779.6  331820.18  151082.27  45.53
780.9  332220.00  151357.14  45.56
782.2  332659.25  151644.69  45.59
783.5  332877.00  151846.43  45.62
784.8  333341.55  152137.52  45.64
786.0  333647.65  152365.03  45.67
787.3  334012.70  152584.80  45.68
788.6  334385.28  152820.62  45.70
789.9  334783.40  153081.87  45.73
791.2  335359.63  153434.46  45.75
792.4  335949.30  153789.12  45.78
793.7  336371.40  154050.34  45.80
795.0  336930.83  154367.64  45.82
796.2  337526.95  154697.00  45.83
797.5  338117.33  155045.47  45.86
798.8  338723.60  155405.99  45.88
800.0  339304.93  155750.26  45.90
801.3  339701.00  155989.82  45.92
802.6  340233.98  156301.86  45.94
803.8  340857.58  156641.29  45.96
805.1  341258.75  156885.50  45.97
806.4  341604.60  157131.66  46.00
807.7  342081.23  157421.38  46.02
808.9  342604.20  157710.40  46.03
810.2  343056.70  157985.30  46.05
811.4  343496.60  158249.88  46.07
812.7  344093.75  158572.92  46.08
814.0  344837.00  158976.17  46.10
815.2  345397.75  159294.14  46.12
816.5  345809.50  159533.77  46.13
817.7  346228.00  159785.61  46.15
819.0  346687.55  160061.53  46.17
820.2  346808.00  160172.57  46.18
821.5  347466.30  160527.38  46.20
822.7  347802.55  160730.56  46.21
824.0  348105.60  160903.54  46.22
825.2  348520.73  161158.37  46.24
826.5  348794.95  161329.32  46.25
827.7  349381.88  161620.13  46.26
829.0  349748.05  161827.33  46.27
830.2  350056.55  161998.20  46.28
831.5  350548.50  162251.97  46.29
832.7  350822.33  162411.95  46.29
834.0  351161.03  162598.77  46.30
835.2  351497.30  162797.49  46.32
836.4  351789.90  162961.38  46.32
837.7  352191.60  163198.78  46.34
838.9  352645.23  163436.37  46.35
840.1  353013.53  163630.35  46.35
841.4  353462.80  163855.74  46.36
842.6  353793.80  164063.93  46.37
843.8  354178.40  164280.91  46.38
845.1  354675.60  164569.07  46.40
846.3  355070.80  164782.75  46.41
847.5  355473.30  164992.60  46.41
848.8  355906.20  165194.34  46.42
850.0  356227.90  165401.97  46.43
851.2  356842.80  165683.06  46.43
852.5  357186.50  165887.87  46.44
853.7  357635.25  166151.36  46.46
854.9  358195.90  166383.14  46.45
856.1  358584.20  166616.23  46.47
857.4  358794.25  166739.69  46.47
858.6  359382.75  166996.03  46.47
859.8  359709.38  167200.36  46.48
861.0  360196.20  167430.34  46.48
862.2  360563.48  167669.31  46.50
863.5  360992.45  167851.60  46.50
864.7  361475.40  168107.03  46.51
865.9  361862.00  168302.71  46.51
867.1  362222.75  168468.80  46.51
868.3  362648.25  168690.52  46.52
869.5  363120.00  168915.64  46.52
870.8  363604.50  169181.57  46.53
872.0  364123.43  169430.12  46.53
873.2  364569.75  169630.16  46.53
874.4  364943.48  169833.86  46.54
875.6  365369.50  170011.92  46.53
876.8  365747.75  170225.27  46.54
878.0  366281.90  170469.65  46.54
879.2  366800.70  170715.54  46.54
880.4  367364.63  170937.46  46.53
881.6  367732.10  171155.63  46.54
882.8  368165.60  171314.13  46.53
884.0  368809.50  171575.16  46.52
885.2  369217.00  171800.12  46.53
886.5  369704.85  172064.37  46.54
887.7  370182.80  172273.55  46.54
888.8  370759.05  172561.91  46.54
890.0  371371.65  172802.26  46.53
891.2  371895.30  173023.74  46.52
892.4  372402.98  173289.40  46.53
893.6  372970.85  173549.29  46.53
894.8  373796.00  173939.14  46.53
896.0  374569.50  174292.45  46.53
897.2  375293.75  174604.55  46.52
898.4  375952.50  174913.51  46.53
899.6  376546.88  175123.36  46.51
900.8  376788.95  175276.59  46.52
902.0  377105.70  175377.63  46.51
903.2  377341.43  175479.76  46.50
904.3  377532.90  175593.77  46.51
905.5  378134.83  175838.04  46.50
906.7  378636.00  176076.33  46.50
907.9  379073.80  176267.23  46.50
909.1  379285.20  176341.37  46.49
910.2  379315.28  176374.30  46.50
911.4  379562.63  176483.91  46.50
912.6  379722.20  176536.91  46.49
913.8  379902.68  176587.29  46.48
915.0  380222.85  176726.90  46.48
916.2  380250.00  176725.72  46.48
917.3  380286.00  176647.01  46.45
918.5  380412.40  176663.41  46.44
919.7  380442.60  176740.56  46.46
920.8  380451.50  176720.54  46.45
922.0  380399.25  176702.17  46.45
923.2  380562.00  176709.00  46.43
924.4  380808.00  176724.64  46.41
925.5  380914.50  176791.36  46.41
926.7  381565.00  176965.34  46.38
927.9  382177.80  177265.83  46.38
929.0  383620.05  177827.27  46.36
930.2  385606.90  178719.07  46.35
931.4  387965.70  179711.04  46.32
932.5  390435.70  180807.80  46.31
933.7  391620.85  181311.85  46.30
934.9  392223.13  181454.17  46.26
936.0  391766.38  181162.74  46.24
937.2  389634.75  180088.39  46.22
938.3  387788.00  179152.96  46.20
939.5  386114.40  178336.80  46.19
940.7  386259.30  178284.86  46.16
941.8  387513.83  178816.55  46.14
943.0  388793.25  179335.36  46.13
944.2  389592.45  179536.25  46.08
945.3  389210.25  179180.86  46.04
946.5  388247.85  178624.93  46.01
947.6  388265.20  178549.69  45.99
948.8  388050.00  178244.30  45.93
949.9  388088.40  178111.20  45.89
951.1  387614.83  177741.54  45.86
952.2  387396.00  177382.86  45.79
953.4  386935.75  176952.02  45.73
954.5  386661.60  176683.37  45.69
955.7  386631.00  176337.60  45.61
956.8  386118.80  175980.19  45.58
958.0  385853.00  175617.86  45.51
959.1  385538.30  175313.08  45.47
960.3  384978.15  174956.22  45.45
961.4  384662.00  174706.25  45.42
962.6  384798.75  174538.00  45.36
963.7  384424.28  174344.30  45.35
964.9  384068.25  174115.72  45.33
966.0  383962.28  173948.27  45.30
967.2  383545.80  173911.33  45.34
968.3  383417.55  173689.84  45.30
969.5  383297.33  173496.26  45.26
970.6  383138.08  173372.49  45.25
971.8  383264.00  173381.33  45.24
972.9  383100.08  173240.27  45.22
974.0  383258.40  173409.84  45.25
975.2  383083.38  173291.50  45.24
976.3  382904.70  173218.79  45.24
977.5  383091.28  173132.12  45.19
978.6  382895.70  173033.72  45.19
979.7  383101.95  173045.10  45.17
980.9  382384.40  173026.36  45.25
982.0  382520.15  172964.84  45.22
983.2  382171.90  172887.29  45.24
984.3  381747.60  172721.24  45.24
985.4  381859.50  172690.86  45.22
986.6  381371.63  172656.86  45.27
987.7  382203.85  172932.80  45.25
988.9  381927.60  172809.60  45.25
990.0  382770.20  173053.99  45.21
993.1  389917.21  175167.65  44.92
996.9  388150.68  174817.84  45.04
1000.7  387934.87  175085.97  45.13
1004.5  387938.92  175423.51  45.22
1008.4  387557.21  175604.32  45.31
1012.2  387449.83  175853.46  45.39
1016.0  386929.20  175938.34  45.47
1019.8  386099.18  175808.33  45.53
1023.7  384652.62  175339.28  45.58
1027.5  382659.87  174649.31  45.64
1031.3  381350.75  174189.57  45.68
1035.1  380137.22  173753.94  45.71
1038.9  379590.38  173623.61  45.74
1042.7  379275.00  173605.14  45.77
1046.5  379148.50  173626.48  45.79
1050.3  379171.28  173669.43  45.80
1054.2  378791.00  173579.42  45.82
1058.0  378437.03  173436.56  45.83
1061.8  378374.87  173454.66  45.84
1065.6  377669.17  173086.39  45.83
1069.4  376697.67  172605.46  45.82
1073.2  375207.58  171874.28  45.81
1077.0  374561.88  171485.64  45.78
1080.8  374915.63  171553.12  45.76
1084.6  375260.78  171609.08  45.73
1088.4  375738.25  171757.52  45.71
1092.2  375306.75  171446.78  45.68
1096.0  374609.35  170985.01  45.64
1099.8  373865.27  170470.30  45.60
1103.6  372845.80  169837.03  45.55
1107.4  371656.33  169068.08  45.49
1111.2  371290.80  168700.91  45.44
1114.9  370728.17  168201.25  45.37
1118.7  370477.80  167768.23  45.28
1122.5  370142.07  167233.49  45.18
1126.3  369271.23  166348.00  45.05
1130.1  368902.72  165483.29  44.86
1133.9  367236.10  163795.30  44.60
1137.7  365659.60  161950.39  44.29
1141.4  363606.21  159700.42  43.92
1145.2  362619.14  157799.49  43.52
1149.0  361313.75  155890.00  43.15
1152.8  359534.75  153963.57  42.82
1156.6  357703.50  152340.10  42.59
1160.3  355948.00  151043.95  42.43
1164.1  353612.80  149741.23  42.35
1167.9  352019.79  148904.46  42.30
1171.7  350713.13  148250.25  42.27
1175.4  349226.97  147556.35  42.25
1179.2  347767.55  146864.71  42.23
1183.0  347474.00  146618.38  42.20
1186.7  347608.33  146577.93  42.17
1190.5  347394.60  146397.19  42.14
1194.3  346467.40  145932.62  42.12
1198.0  344931.40  145258.30  42.11
1201.8  343213.43  144565.45  42.12
1205.6  342169.00  144251.00  42.16
1209.3  341676.65  144250.06  42.22
1213.1  341272.88  144293.57  42.28
1216.8  340694.75  144320.71  42.36
1220.6  339518.67  144070.67  42.43
1224.3  338223.42  143756.50  42.50
1228.1  336648.20  143332.74  42.58
1231.9  335011.23  142807.08  42.63
1235.6  333258.98  142214.81  42.67
1239.4  331674.00  141712.31  42.73
1243.1  330259.16  141232.23  42.76
1246.9  328959.91  140780.11  42.80
1250.6  327928.93  140392.38  42.81
1254.3  326765.08  139930.98  42.82
1258.1  325485.53  139403.20  42.83
1261.8  324024.13  138772.66  42.83
1265.6  322960.75  138284.10  42.82
1269.3  322387.40  137958.09  42.79
1273.1  322749.74  137998.64  42.76
1276.8  322309.20  137633.49  42.70
1280.6  320917.60  136837.02  42.64
1284.3  318816.00  135705.31  42.57
1288.0  317670.76  134949.69  42.48
1291.8  317427.13  134501.88  42.37
1295.5  316826.40  133872.09  42.25
1299.2  315653.15  132934.58  42.11
1302.9  313961.63  131691.97  41.95
1306.7  312102.23  130306.75  41.75
1310.4  310308.43  128829.08  41.52
1314.1  308700.52  127352.63  41.25
1317.9  307253.96  125825.06  40.95
1321.6  305686.72  124146.30  40.61
1325.3  303982.35  122306.78  40.23
1329.0  302686.42  120574.58  39.83
1332.8  300777.40  118492.00  39.40
1336.5  299119.80  116499.93  38.95
1340.2  298965.33  115091.17  38.50
1343.9  298828.54  113693.15  38.05
1347.6  298818.45  112334.74  37.59
1351.4  300111.00  111500.36  37.15
1355.1  301978.97  110864.44  36.71
1358.8  303600.00  110075.43  36.26
1362.5  303847.38  108631.30  35.75
1366.2  302053.45  106216.24  35.16
1369.9  298926.25  103012.88  34.46
1373.6  295979.43  99375.70  33.58
1377.3  294372.60  95522.66  32.45
1381.0  293845.33  91205.40  31.04
1384.8  292028.75  85635.18  29.32
1388.4  288850.80  79158.60  27.40
1392.2  286588.92  72618.55  25.34
1395.9  285148.85  66283.98  23.25
1399.6  283395.01  60275.44  21.27
1403.3  282026.89  55019.09  19.51
1407.0  280370.60  50529.33  18.02
1410.7  278638.80  46904.08  16.83
1414.3  276794.35  44083.19  15.93
1418.1  275142.96  42030.24  15.28
1421.7  273756.70  40565.56  14.82
1425.4  272368.53  39546.97  14.52
1429.1  271107.38  38883.37  14.34
1432.8  269445.53  38430.59  14.26
1436.5  268681.85  38287.24  14.25
1440.2  268104.70  38316.24  14.29
1443.9  267076.33  38366.22  14.37
1447.6  265573.00  38409.80  14.46
1451.2  264328.72  38519.91  14.57
1454.9  262867.65  38643.32  14.70
1458.6  261614.04  38908.47  14.87
1462.3  260377.33  39312.17  15.10
1466.0  259002.48  39852.10  15.39
1469.7  257280.29  40515.63  15.75
1473.3  256216.17  41414.67  16.16
1477.0  254163.87  42257.98  16.63
1480.7  252495.27  43220.46  17.12
1484.4  250475.66  44132.34  17.62
1488.0  248878.67  45144.00  18.14
1491.7  247299.57  46136.76  18.66
1495.4  245657.32  47114.93  19.18
1499.0  244107.50  48065.43  19.69
1502.7  242848.75  49059.92  20.20
1506.4  241435.38  49964.95  20.69
1510.0  239966.43  50833.37  21.18
1513.7  238442.17  51633.75  21.65
1517.4  237044.67  52423.14  22.12
1521.0  235770.93  53194.28  22.56
1524.7  234529.75  53900.94  22.98
1528.3  233232.00  54560.84  23.39
1532.0  231993.30  55182.05  23.79
1535.7  230572.49  55697.69  24.16
1539.3  229280.05  56208.58  24.52
1543.0  228293.81  56761.77  24.86
1546.6  227586.67  57349.35  25.20
1550.3  226584.35  57811.74  25.51
1553.9  225515.67  58224.30  25.82
1557.6  224257.00  58557.82  26.11
1561.2  222976.80  58833.13  26.39
1564.9  221636.33  59076.10  26.65
1568.5  220286.85  59283.82  26.91
1572.2  219109.75  59509.78  27.16
1575.8  218008.00  59730.00  27.40
1579.5  216974.10  59936.86  27.62
1583.1  215871.24  60113.80  27.85
1586.8  214536.00  60188.00  28.05
1590.4  213264.57  60265.15  28.26
1594.0  211952.54  60308.50  28.45
1597.7  211211.08  60503.97  28.65
1601.3  210371.18  60654.83  28.83
1604.9  209430.35  60751.19  29.01
1608.6  208030.05  60683.67  29.17
1612.2  206588.25  60569.97  29.32
1615.8  205083.13  60419.91  29.46
1619.5  203809.58  60302.90  29.59
1623.1  202432.87  60150.44  29.71
1626.7  201212.05  60008.65  29.82
1630.3  200024.25  59843.65  29.92
1634.0  198898.00  59668.00  30.00
1637.6  197889.87  59491.95  30.06
1641.2  196854.55  59242.83  30.09
1644.8  195612.04  58884.15  30.10
1648.5  194521.37  58534.77  30.09
1652.1  193564.80  58180.63  30.06
1655.7  192623.00  57820.37  30.02
1659.3  191788.78  57521.26  29.99
1662.9  190343.33  57073.45  29.98
1666.6  188901.27  56636.42  29.98
1670.2  187481.93  56197.19  29.97
1673.8  185991.23  55706.82  29.95
1677.4  184799.65  55264.67  29.91
1681.0  183974.33  54862.34  29.82
1684.6  183562.17  54508.53  29.69
1688.2  182860.45  53978.21  29.52
1691.8  182158.81  53463.58  29.35
1695.4  181703.20  53006.57  29.17
1699.0  181332.67  52575.90  28.99
1702.6  180972.67  52111.91  28.80
1706.2  180349.11  51511.85  28.56
1709.8  179379.94  50830.54  28.34
1713.4  178616.09  50263.10  28.14
1717.0  177722.75  49758.07  28.00
1720.6  176886.30  49316.84  27.88
1724.2  176144.85  48930.55  27.78
1727.8  175422.80  48566.35  27.69
1731.4  174950.88  48248.75  27.58
1735.0  174778.63  47997.71  27.46
1738.6  174585.00  47661.05  27.30
1742.2  174050.03  47180.78  27.11
1745.8  173441.70  46641.36  26.89
1749.4  172503.38  45990.45  26.66
1753.0  171006.47  45190.90  26.43
1756.6  169330.58  44385.29  26.21
1760.1  167986.27  43689.19  26.01
1763.7  166213.33  42915.81  25.82
1767.3  164739.80  42240.70  25.64
1770.9  163457.06  41610.51  25.46
1774.5  161966.79  40959.98  25.29
1778.0  160788.60  40451.07  25.16
1781.6  159681.00  40030.63  25.07
1785.2  158498.73  39648.83  25.02
1788.8  157326.90  39318.24  24.99
1792.3  156050.27  38971.22  24.97
1795.9  155458.88  38804.41  24.96
1799.5  155288.00  38759.33  24.96
1803.1  156516.62  39079.83  24.97
1806.6  158806.73  39657.24  24.97
1810.2  160537.77  40070.90  24.96
1813.8  161123.05  40187.36  24.94
1817.3  160384.60  39960.72  24.92
1820.9  158895.30  39537.38  24.88
1824.5  157370.70  39086.78  24.84
1828.0  156084.04  38648.37  24.76
1831.6  155498.43  38352.51  24.66
1835.2  155181.67  38053.69  24.52
1838.7  154939.87  37697.39  24.33
1842.3  154785.00  37277.14  24.08
1845.8  153635.38  36503.39  23.76
1849.4  153016.80  35707.46  23.34
1852.9  152218.44  34683.49  22.79
1856.5  151238.80  33402.94  22.09
1860.0  150177.99  31866.89  21.22
1863.6  150007.98  30261.68  20.17
1867.1  150491.25  28493.50  18.93
1870.7  151331.53  26410.41  17.45
1874.2  150496.65  23737.24  15.77
1877.8  148028.80  20753.89  14.02
1881.3  145144.63  17752.29  12.23
1884.9  143244.38  15092.03  10.54
1888.4  141626.16  12732.37  8.99
1891.9  139881.53  10774.98  7.70
1895.5  138300.28  9271.00  6.70
1899.0  137434.38  8240.74  6.00
1901.3  176653.17  7433.33  4.21
1904.1  176504.25  6729.50  3.81
1906.8  175347.60  6175.80  3.52
1909.6  173129.95  5756.92  3.33
1912.4  171046.87  5429.71  3.17
1915.1  169556.20  5229.95  3.08
1917.9  168012.17  5072.44  3.02
1920.6  166758.43  4954.97  2.97
1923.3  165451.30  4881.64  2.95
1926.1  163792.47  4830.85  2.95
1928.8  162272.00  4796.00  2.96
1931.6  161102.33  4803.59  2.98
1934.3  160071.52  4834.13  3.02
1937.0  159045.57  4885.18  3.07
1939.8  157869.25  4930.64  3.12
1942.5  156354.00  4983.00  3.19
1945.2  154377.85  5036.90  3.26
1947.9  152757.50  5106.97  3.34
1950.7  151471.23  5202.38  3.43
1953.4  149581.65  5281.15  3.53
1956.1  148105.33  5392.61  3.64
1958.8  146784.08  5509.25  3.75
1961.5  145222.00  5621.20  3.87
1964.2  143643.50  5748.17  4.00
1966.9  142003.55  5882.50  4.14
1969.6  140733.00  6042.00  4.29
1972.3  139293.90  6191.43  4.44
1975.0  138210.45  6374.95  4.61
1977.7  137072.72  6556.66  4.78
1980.4  135900.87  6747.41  4.96
1983.1  134777.10  6938.46  5.15
1985.8  133832.10  7134.00  5.33
1988.4  132782.00  7334.89  5.52
1991.1  131822.37  7539.78  5.72
1993.8  130938.87  7746.39  5.92
1996.5  130292.62  7976.16  6.12
1999.1  129577.43  8203.07  6.33
2001.8  128861.13  8431.89  6.54
2004.5  128175.70  8650.00  6.75
2007.1  127431.80  8863.37  6.96
2009.8  126676.90  9073.63  7.16
2012.4  126087.68  9280.15  7.36
2015.1  125520.03  9488.03  7.56
2017.8  124717.13  9677.97  7.76
2020.4  124183.40  9880.45  7.96
2023.1  123819.27  10080.85  8.14
2025.7  123569.33  10284.44  8.32
2028.3  123240.00  10475.11  8.50
2031.0  122825.75  10660.24  8.68
2033.6  122548.20  10831.50  8.84
2036.2  122287.20  11002.60  9.00
2038.9  121669.50  11133.10  9.15
2041.5  121301.13  11276.46  9.30
2044.1  120738.60  11397.00  9.44
2046.8  120364.50  11521.70  9.57
2049.4  119703.30  11614.50  9.70
2052.0  119393.40  11731.78  9.83
2054.6  118982.50  11830.00  9.94
2057.2  118415.27  11918.09  10.06
2059.8  118083.40  12034.53  10.19
2062.4  117186.87  12075.49  10.30
2065.0  116642.40  12156.80  10.42
2067.6  115722.47  12185.90  10.53
2070.2  115112.30  12246.92  10.64
2072.8  114475.98  12299.22  10.74
2075.4  114021.25  12369.58  10.85
2078.0  113375.27  12416.70  10.95
2080.6  112789.60  12472.53  11.06
2083.2  112081.83  12507.11  11.16
2085.8  111592.25  12563.09  11.26
2088.4  110911.33  12596.33  11.36
2090.9  110076.08  12613.71  11.46
2093.5  109180.07  12612.31  11.55
2096.1  108395.12  12630.43  11.65
2098.7  107613.40  12636.29  11.74
2101.2  106634.00  12622.58  11.84
2103.8  105952.80  12642.96  11.93
2106.4  105271.60  12666.24  12.03
2108.9  104616.60  12674.98  12.12
2111.5  103752.00  12657.51  12.20
2114.0  103105.73  12674.98  12.29
2116.6  102558.75  12699.17  12.38
2119.1  101982.63  12720.43  12.47
2121.7  101482.50  12728.33  12.54
2124.2  101097.20  12761.34  12.62
2126.8  100279.32  12735.83  12.70
2129.3  99862.40  12757.07  12.77
2131.9  99255.20  12760.00  12.86
2134.4  98819.10  12782.35  12.94
2136.9  98418.45  12803.85  13.01
2139.4  97879.13  12803.47  13.08
2142.0  97409.20  12818.24  13.16
2144.5  97134.60  12860.50  13.24
2147.0  96899.87  12905.69  13.32
2149.5  96390.67  12908.67  13.39
2152.1  96211.50  12947.98  13.46
2154.6  96124.80  12995.56  13.52
2157.1  95602.08  12992.20  13.59
2159.6  95184.25  13007.33  13.67
2162.1  95004.00  13043.33  13.73
2164.6  94749.20  13060.67  13.78
2167.1  94413.85  13064.82  13.84
2169.6  94065.30  13072.31  13.90
2172.1  93589.07  13065.17  13.96
2174.6  93269.00  13062.91  14.01
2177.1  92824.05  13043.08  14.05
2179.5  92393.38  13027.81  14.10
2182.0  91901.15  13005.85  14.15
2184.5  91337.37  12974.02  14.20
2187.0  90710.93  12933.10  14.26
2189.5  90025.28  12881.53  14.31
2191.9  89233.50  12812.33  14.36
2194.4  88585.80  12755.62  14.40
2196.9  87830.40  12681.60  14.44
2199.3  87145.00  12618.22  14.48
2201.8  86227.60  12513.82  14.51
2204.3  85758.40  12470.44  14.54
2206.7  85113.85  12394.58  14.56
2209.2  84621.10  12347.58  14.59
2211.6  83981.70  12272.70  14.61
2214.1  83679.50  12245.13  14.63
2216.5  83102.27  12161.71  14.63
2219.0  82764.53  12112.04  14.63
2221.4  82377.75  12052.06  14.63
2223.9  81901.75  11969.41  14.61
2226.3  81376.17  11870.25  14.59
2228.7  80806.13  11754.58  14.55
2231.1  80190.00  11619.30  14.49
2233.6  79585.87  11473.00  14.42
2236.0  79016.00  11324.83  14.33
2238.4  78510.25  11176.08  14.24
2240.9  78036.27  11022.69  14.13
2243.3  77489.93  10857.13  14.01
2245.7  76913.50  10673.03  13.88
2248.1  76404.47  10484.93  13.72
2250.5  75873.33  10299.47  13.57
2252.9  75228.40  10096.23  13.42
2255.3  74664.80  9900.25  13.26
2257.7  74180.00  9720.00  13.10
2260.1  73684.80  9535.01  12.94
2262.5  73050.00  9340.00  12.79
2264.9  72508.95  9158.05  12.63
2267.3  71890.00  8983.33  12.50
2269.7  71387.17  8819.30  12.35
2272.1  70807.82  8661.08  12.23
2274.5  70232.75  8509.13  12.12
2276.8  69756.07  8370.59  12.00
2279.2  69164.10  8234.30  11.91
2281.6  68705.00  8107.02  11.80
2284.0  68235.60  7975.63  11.69
2286.3  67761.60  7843.20  11.57
2288.7  67332.20  7712.18  11.45
2291.1  66782.73  7582.90  11.35
2293.4  66322.67  7453.60  11.24
2295.8  65703.70  7313.00  11.13
2298.2  65080.80  7162.20  11.01
2300.5  64397.70  7006.95  10.88
2302.9  63632.67  6847.56  10.76
2305.2  62902.10  6698.43  10.65
2307.6  62209.50  6571.71  10.56
2309.9  61411.00  6430.78  10.47
2312.2  60811.67  6320.56  10.39
2314.6  60195.60  6216.90  10.33
2316.9  59491.80  6096.15  10.25
2319.2  58903.40  5988.48  10.17
2321.6  58271.27  5883.89  10.10
2323.9  57708.33  5770.83  10.00
2326.2  57164.23  5661.82  9.90
2328.6  56628.55  5566.37  9.83
2330.9  56122.50  5481.00  9.77
2333.2  55636.58  5390.44  9.69
2335.5  55190.60  5317.90  9.64
2337.8  54725.42  5229.91  9.56
2340.1  54143.12  5129.27  9.47
2342.4  53690.00  5048.33  9.40
2344.8  53251.50  4963.44  9.32
2347.1  52672.90  4869.20  9.24
2349.4  52130.87  4770.22  9.15
2351.6  51535.97  4682.08  9.09
2353.9  51029.17  4589.87  8.99
2356.2  50480.78  4505.95  8.93
2358.5  49884.80  4427.73  8.88
2360.8  49302.40  4345.60  8.81
2363.1  48848.58  4262.33  8.73
2365.4  48375.30  4181.00  8.64
2367.7  47891.40  4115.40  8.59
2369.9  47345.75  4026.58  8.50
2372.2  46715.20  3925.42  8.40
2374.5  46119.15  3846.15  8.34
2376.7  45479.25  3759.93  8.27
2379.0  44869.77  3660.62  8.16
2381.3  44228.33  3570.00  8.07
2383.5  43706.67  3484.80  7.97
2385.8  43089.53  3396.64  7.88
2388.0  42550.80  3315.80  7.79
2390.3  42019.87  3239.60  7.71
2392.5  41532.00  3156.00  7.60
2394.8  41067.40  3077.43  7.49
2397.0  40586.00  3013.11  7.42
2399.3  40119.72  2928.06  7.30
2401.5  39653.25  2850.17  7.19
2403.8  39093.10  2771.25  7.09
2406.0  38578.58  2698.56  6.99
2408.2  38160.47  2638.78  6.91
2410.4  37749.60  2575.73  6.82
2412.7  37348.13  2504.96  6.71
2414.9  36963.30  2441.45  6.61
2417.1  36550.60  2379.13  6.51
2419.3  36121.60  2316.80  6.41
2421.6  35740.42  2247.50  6.29
2423.8  35360.10  2191.37  6.20
2426.0  34990.08  2142.25  6.12
2428.2  34626.67  2086.31  6.03
2430.4  34300.80  2042.35  5.95
2432.6  34053.33  2000.00  5.87
2434.8  33737.47  1938.17  5.74
2437.0  33354.97  1867.24  5.60
2439.2  32994.18  1824.75  5.53
2441.4  32665.47  1772.33  5.43
2443.6  32413.90  1727.08  5.33
2445.7  32126.03  1684.51  5.24
2447.9  31855.25  1646.80  5.17
2450.1  31542.25  1606.38  5.09
2452.3  31169.60  1548.13  4.97
2454.5  30820.38  1508.16  4.89
2456.6  30430.80  1464.71  4.81
2458.8  30058.60  1430.00  4.76
2461.0  29741.58  1393.61  4.69
2463.1  29449.20  1358.00  4.61
2465.3  29134.97  1317.00  4.52
2467.5  28895.25  1293.08  4.48
2469.6  28669.83  1272.89  4.44
2471.8  28381.50  1241.38  4.37
2473.9  28039.92  1206.66  4.30
2476.1  27694.33  1177.94  4.25
2478.2  27328.60  1157.73  4.24
2480.4  27016.00  1120.55  4.15
2482.5  26662.30  1089.00  4.08
2484.6  26335.83  1064.86  4.04
2486.8  26046.30  1046.67  4.02
2488.9  25742.62  1025.92  3.99
2491.1  25402.53  983.73  3.87
2493.2  25003.80  973.97  3.90
2495.3  24547.03  951.31  3.88
2497.4  24214.40  933.80  3.86
2499.5  23918.97  917.06  3.83
2501.7  23795.47  909.31  3.82
2503.8  23704.23  897.13  3.78
2505.9  23626.25  899.72  3.81
2508.0  23629.98  875.84  3.71
2510.1  23623.88  870.32  3.68
2512.2  23744.90  874.68  3.68
2514.3  23919.00  873.23  3.65
2516.4  24112.80  893.07  3.70
