/*** Spectra Vista SIG Data ***/
name= 22_20221020_BENI_49_avg.sig
comm= Averaged Ref/Tar of files: HR.102022.0062_moc.sig,HR.102022.0063_moc.sig,HR.102022.0064_moc.sig
data=
337.3  3076.75  239.15  7.77
338.8  3174.60  231.80  7.30
340.3  3279.50  225.77  6.88
341.8  3475.10  216.00  6.22
343.2  3685.20  230.03  6.24
344.7  3838.50  220.97  5.76
346.2  4044.15  206.20  5.10
347.7  4207.78  203.74  4.84
349.2  4384.80  190.80  4.35
350.6  4627.35  190.27  4.11
352.1  4858.60  193.26  3.98
353.6  5170.30  200.27  3.87
355.1  5421.68  211.03  3.89
356.6  5735.63  205.39  3.58
358.0  5997.20  205.98  3.43
359.5  6272.70  194.23  3.10
361.0  6553.58  206.91  3.16
362.5  6908.90  216.91  3.14
364.0  7283.45  230.49  3.16
365.4  7615.10  233.36  3.06
366.9  7983.63  235.73  2.95
368.4  8291.60  230.67  2.78
369.9  8620.98  243.48  2.82
371.3  9024.60  263.44  2.92
372.8  9451.80  278.65  2.95
374.3  9863.13  286.67  2.91
375.8  10294.90  287.47  2.79
377.2  10679.30  285.91  2.68
378.7  11082.80  294.62  2.66
380.2  11432.50  293.59  2.57
381.7  11918.03  302.17  2.54
383.1  12370.05  312.11  2.52
384.6  12867.08  322.16  2.50
386.1  13323.33  314.00  2.36
387.6  13771.45  320.83  2.33
389.0  14204.00  331.30  2.33
390.5  14655.60  354.51  2.42
392.0  15208.75  359.22  2.36
393.4  15738.73  366.35  2.33
394.9  16260.30  369.87  2.27
396.4  16792.88  381.96  2.27
397.9  17296.88  395.85  2.29
399.3  17828.80  402.79  2.26
400.8  18344.80  416.84  2.27
402.2  18977.15  426.00  2.24
403.7  19548.90  438.39  2.24
405.2  20147.43  450.50  2.24
406.6  20694.40  463.56  2.24
408.1  21266.60  477.40  2.24
409.6  21862.20  492.52  2.25
411.0  22502.90  514.03  2.28
412.5  23136.58  529.55  2.29
414.0  23757.25  540.23  2.27
415.4  24426.38  564.83  2.31
416.9  25096.05  581.19  2.32
418.4  25752.83  601.16  2.33
419.8  26462.80  624.00  2.36
421.3  27147.48  644.42  2.37
422.7  27892.20  672.47  2.41
424.2  28636.88  695.89  2.43
425.7  29372.60  718.75  2.45
427.1  30146.63  740.91  2.46
428.6  30907.00  769.98  2.49
430.0  31624.70  795.17  2.51
431.5  32461.88  820.73  2.53
432.9  33299.45  846.35  2.54
434.4  34150.80  876.96  2.57
435.9  34986.00  900.80  2.57
437.3  35818.75  929.76  2.60
438.8  36652.50  953.09  2.60
440.2  37487.45  982.26  2.62
441.7  38417.80  1008.45  2.62
443.1  39286.25  1039.30  2.65
444.6  40230.10  1072.70  2.67
446.0  41156.70  1105.47  2.69
447.5  42096.73  1140.60  2.71
448.9  43021.50  1173.04  2.73
450.4  43991.15  1208.67  2.75
451.8  44850.00  1236.36  2.76
453.3  45736.35  1266.66  2.77
454.7  46731.73  1299.68  2.78
456.2  47570.33  1332.83  2.80
457.6  48520.13  1361.38  2.81
459.1  49489.05  1394.94  2.82
460.5  50397.00  1423.35  2.82
462.0  51449.10  1457.09  2.83
463.4  52457.30  1490.82  2.84
464.8  53418.75  1524.40  2.85
466.3  54374.93  1556.11  2.86
467.7  55328.83  1584.17  2.86
469.2  56370.38  1615.01  2.86
470.6  57352.10  1649.07  2.88
472.0  58369.03  1683.37  2.88
473.5  59367.38  1718.14  2.89
474.9  60391.50  1751.53  2.90
476.4  61502.40  1789.71  2.91
477.8  62538.50  1826.45  2.92
479.2  63524.50  1862.08  2.93
480.7  64601.93  1898.29  2.94
482.1  65704.15  1936.85  2.95
483.6  66874.60  1978.96  2.96
485.0  67931.18  2011.34  2.96
486.4  69097.95  2058.06  2.98
487.9  70141.50  2104.61  3.00
489.3  71254.28  2152.94  3.02
490.7  72299.75  2197.25  3.04
492.2  73485.30  2252.88  3.07
493.6  74568.50  2308.56  3.10
495.0  75669.75  2371.76  3.13
496.5  76823.63  2439.96  3.18
497.9  77894.90  2514.04  3.23
499.3  79039.55  2593.98  3.28
500.7  80267.35  2688.90  3.35
502.2  81409.60  2789.85  3.43
503.6  82621.40  2908.04  3.52
505.0  83695.45  3033.25  3.62
506.5  84971.03  3188.87  3.75
507.9  86118.43  3357.51  3.90
509.3  87438.40  3552.56  4.06
510.7  88627.50  3765.17  4.25
512.2  89991.08  4017.98  4.46
513.6  91452.55  4301.72  4.70
515.0  92860.80  4616.76  4.97
516.4  94221.23  4963.41  5.27
517.8  95809.88  5358.89  5.59
519.3  97117.50  5770.48  5.94
520.7  98659.10  6226.69  6.31
522.1  99921.25  6685.91  6.69
523.5  101233.70  7175.31  7.09
524.9  102685.95  7677.55  7.48
526.3  104066.20  8181.14  7.86
527.8  105509.25  8693.90  8.24
529.2  106549.90  9174.14  8.61
530.6  108086.00  9699.12  8.97
532.0  109732.00  10216.80  9.31
533.4  111029.93  10681.33  9.62
534.8  111896.73  11084.31  9.91
536.3  113429.70  11532.35  10.17
537.7  115315.20  11997.60  10.40
539.1  116705.43  12401.30  10.63
540.5  117873.10  12776.90  10.84
541.9  119563.35  13199.44  11.04
543.3  120843.00  13575.60  11.23
544.7  122128.20  13946.65  11.42
546.1  123900.98  14364.56  11.59
547.5  125115.20  14713.81  11.76
549.0  126720.00  15088.02  11.91
550.4  128180.00  15435.39  12.04
551.8  129720.63  15759.23  12.15
553.2  131199.38  16039.32  12.23
554.6  132496.00  16251.34  12.27
556.0  133980.75  16436.79  12.27
557.4  135546.60  16588.24  12.24
558.8  137168.55  16708.05  12.18
560.2  138578.88  16766.00  12.10
561.6  140226.68  16813.24  11.99
563.0  141768.65  16812.47  11.86
564.4  143353.40  16785.15  11.71
565.8  144829.38  16715.65  11.54
567.2  146544.00  16642.43  11.36
568.6  148008.75  16504.52  11.15
570.0  149391.70  16311.36  10.92
571.4  151064.55  16121.63  10.67
572.8  152790.75  15927.82  10.42
574.2  154369.60  15722.03  10.18
575.6  155891.25  15531.43  9.96
577.0  157386.40  15350.78  9.75
578.4  159056.63  15209.13  9.56
579.8  160558.20  15069.41  9.39
581.2  162235.20  14964.38  9.22
582.5  163624.50  14854.10  9.08
583.9  165117.40  14769.55  8.94
585.3  166866.53  14720.45  8.82
586.7  168313.93  14663.40  8.71
588.1  169774.25  14620.44  8.61
589.5  171389.75  14607.83  8.52
590.9  172967.60  14611.92  8.45
592.3  174721.10  14647.64  8.38
593.7  176144.48  14673.55  8.33
595.0  177728.85  14725.79  8.29
596.4  179150.30  14762.75  8.24
597.8  180604.98  14799.41  8.19
599.2  182107.20  14834.54  8.15
600.6  183818.38  14871.97  8.09
602.0  185077.05  14856.49  8.03
603.3  186827.40  14846.93  7.95
604.7  188455.18  14797.13  7.85
606.1  189915.60  14699.23  7.74
607.5  191510.53  14587.03  7.62
608.9  193173.45  14456.25  7.48
610.2  194523.53  14284.08  7.34
611.6  196094.93  14121.99  7.20
613.0  197618.20  13952.37  7.06
614.4  198971.25  13773.17  6.92
615.8  200406.38  13612.95  6.79
617.1  201889.80  13469.68  6.67
618.5  203485.20  13356.37  6.56
619.9  204965.03  13263.92  6.47
621.3  206557.65  13204.26  6.39
622.6  208116.75  13180.94  6.33
624.0  209548.35  13172.23  6.29
625.4  210985.50  13184.91  6.25
626.8  212519.13  13230.79  6.23
628.1  213748.15  13279.16  6.21
629.5  215486.00  13366.05  6.20
630.9  216951.08  13439.17  6.19
632.2  218179.68  13483.65  6.18
633.6  219662.38  13516.35  6.15
635.0  221088.80  13499.54  6.11
636.3  222564.50  13429.74  6.03
637.7  223911.63  13302.96  5.94
639.1  225505.00  13142.67  5.83
640.4  226929.33  12928.00  5.70
641.8  228088.70  12675.44  5.56
643.2  229620.48  12422.49  5.41
644.5  230953.75  12149.98  5.26
645.9  232506.90  11887.77  5.11
647.2  233458.93  11619.76  4.98
648.6  234879.75  11412.13  4.86
650.0  236174.40  11227.47  4.75
651.3  237197.40  11067.73  4.67
652.7  239420.35  10952.04  4.57
654.0  241549.20  10838.46  4.49
655.4  242872.60  10680.39  4.40
656.8  243048.90  10468.81  4.31
658.1  244388.20  10277.70  4.21
659.5  246564.15  10085.22  4.09
660.8  247860.00  9852.00  3.97
662.2  248841.60  9605.97  3.86
663.5  250317.15  9375.57  3.75
664.9  251321.20  9164.13  3.65
666.2  252081.00  8971.34  3.56
667.6  253768.28  8851.33  3.49
668.9  254667.65  8749.57  3.44
670.3  256484.63  8701.53  3.39
671.6  257490.75  8664.99  3.37
673.0  258641.25  8667.52  3.35
674.3  259918.10  8703.61  3.35
675.7  261213.48  8760.62  3.35
677.0  262273.70  8837.69  3.37
678.4  263551.15  8959.77  3.40
679.7  264586.33  9102.83  3.44
681.1  265805.08  9301.35  3.50
682.4  266879.60  9551.41  3.58
683.8  268050.90  9894.91  3.69
685.1  269062.13  10348.18  3.85
686.4  270351.60  10972.72  4.06
687.8  271561.25  11815.81  4.35
689.1  272651.50  12927.46  4.74
690.5  273943.95  14404.89  5.26
691.8  274734.40  16291.59  5.93
693.1  276058.20  18706.31  6.78
694.5  277208.75  21623.77  7.80
695.8  278460.00  25033.23  8.99
697.1  279643.00  28901.60  10.34
698.5  280640.10  33179.18  11.82
699.8  281691.53  37807.22  13.42
701.1  282825.28  42722.29  15.11
702.5  283611.35  47769.49  16.84
703.8  284512.50  52936.29  18.61
705.1  285649.65  58181.13  20.37
706.5  286690.88  63385.18  22.11
707.8  287644.50  68546.81  23.83
709.1  288439.00  73583.20  25.51
710.5  289510.60  78617.59  27.16
711.8  290323.70  83488.65  28.76
713.1  291282.60  88312.67  30.32
714.4  292196.90  92998.22  31.83
715.8  292999.70  97558.89  33.30
717.1  294282.45  102158.23  34.71
718.4  295209.60  106498.99  36.08
719.7  296265.45  110751.23  37.38
721.0  296775.00  114639.43  38.63
722.4  297524.70  118453.22  39.81
723.7  298459.05  122188.34  40.94
725.0  299447.33  125769.24  42.00
726.3  300354.18  129138.20  43.00
727.6  300879.15  132158.49  43.92
729.0  301738.85  135148.77  44.79
730.3  302502.45  137919.31  45.59
731.6  303380.75  140559.30  46.33
732.9  304111.15  142986.08  47.02
734.2  304903.50  145261.60  47.64
735.5  305872.05  147496.82  48.22
736.8  306654.30  149489.22  48.75
738.1  307473.50  151371.22  49.23
739.5  308400.48  153176.94  49.67
740.8  309045.83  154740.27  50.07
742.1  309712.28  156206.61  50.44
743.4  310325.00  157560.48  50.77
744.7  311213.35  158956.39  51.08
746.0  312058.50  160255.46  51.35
747.3  312630.20  161332.10  51.60
748.6  313351.75  162417.76  51.83
749.9  313976.00  163381.03  52.04
751.2  314558.35  164265.33  52.22
752.5  315264.40  165178.34  52.39
753.8  315768.25  165915.97  52.54
755.1  316420.00  166660.99  52.67
756.4  316946.95  167328.48  52.79
757.7  317880.33  168176.80  52.91
759.0  319577.85  169382.03  53.00
760.3  320707.20  170241.78  53.08
761.6  322179.20  171271.07  53.16
762.9  322658.50  171744.17  53.23
764.2  323015.20  172123.62  53.29
765.5  323219.00  172419.50  53.34
766.8  323571.20  172771.81  53.40
768.1  324005.00  173161.74  53.44
769.3  324555.70  173580.38  53.48
770.6  325142.35  174036.93  53.53
771.9  325787.53  174491.26  53.56
773.2  326117.20  174768.19  53.59
774.5  326669.20  175150.21  53.62
775.8  327245.55  175561.32  53.65
777.1  327733.45  175917.75  53.68
778.4  327971.05  176134.13  53.70
779.6  328669.33  176585.75  53.73
780.9  329070.00  176872.00  53.75
782.2  329513.25  177160.71  53.76
783.5  329735.50  177365.92  53.79
784.8  330135.75  177670.02  53.82
786.0  330439.20  177896.76  53.84
787.3  330770.78  178120.92  53.85
788.6  331107.30  178364.27  53.87
789.9  331499.00  178636.40  53.89
791.2  332036.98  178993.11  53.91
792.4  332651.80  179368.30  53.92
793.7  332998.00  179632.20  53.94
795.0  333548.33  179981.21  53.96
796.2  334104.45  180325.33  53.97
797.5  334679.55  180700.96  53.99
798.8  335306.78  181069.25  54.00
800.0  335880.13  181431.50  54.02
801.3  336271.50  181669.64  54.02
802.6  336786.53  181993.23  54.04
803.8  337325.95  182352.23  54.06
805.1  337722.00  182601.65  54.07
806.4  338061.30  182853.15  54.09
807.7  338541.53  183160.79  54.10
808.9  339059.75  183451.53  54.11
810.2  339497.20  183731.97  54.12
811.4  339927.70  184003.24  54.13
812.7  340478.13  184350.06  54.14
814.0  341215.80  184800.34  54.16
815.2  341807.25  185149.72  54.17
816.5  342173.85  185404.46  54.18
817.7  342585.75  185672.72  54.20
819.0  343081.20  185960.21  54.20
820.2  343200.00  186066.36  54.22
821.5  343849.65  186455.00  54.23
822.7  344180.55  186665.81  54.23
824.0  344433.60  186870.70  54.25
825.2  344887.88  187152.54  54.26
826.5  345154.78  187344.07  54.28
827.7  345731.98  187670.72  54.28
829.0  346093.68  187908.66  54.29
830.2  346397.25  188097.44  54.30
831.5  346837.40  188398.74  54.32
832.7  347155.73  188593.22  54.33
834.0  347488.55  188816.94  54.34
835.2  347925.60  189046.98  54.34
836.4  348215.45  189225.84  54.34
837.7  348668.60  189498.69  54.35
838.9  349065.35  189789.50  54.37
840.1  349371.90  190048.54  54.40
841.4  349764.30  190309.37  54.41
842.6  350210.20  190561.65  54.41
843.8  350603.80  190797.14  54.42
845.1  351114.60  191116.04  54.43
846.3  351524.90  191373.28  54.44
847.5  351941.10  191662.16  54.46
848.8  352321.80  191913.13  54.47
850.0  352782.15  192152.92  54.47
851.2  353289.60  192484.34  54.48
852.5  353714.30  192730.98  54.49
853.7  354242.25  193069.16  54.50
854.9  354692.60  193343.13  54.51
856.1  355169.75  193616.85  54.51
857.4  355403.00  193765.04  54.52
858.6  355950.25  194078.13  54.52
859.8  356379.38  194337.21  54.53
861.0  356826.60  194599.75  54.54
862.2  357294.03  194874.11  54.54
863.5  357688.50  195095.85  54.54
864.7  358208.40  195396.33  54.55
865.9  358632.40  195638.26  54.55
867.1  358960.15  195864.75  54.56
868.3  359429.70  196111.28  54.56
869.5  359867.05  196361.46  54.57
870.8  360391.50  196686.60  54.58
872.0  360953.10  196976.97  54.57
873.2  361365.60  197220.83  54.58
874.4  361863.45  197493.16  54.58
875.6  362338.05  197717.40  54.57
876.8  362844.35  197976.55  54.56
878.0  363260.85  198249.31  54.57
879.2  363742.65  198563.08  54.59
880.4  364270.50  198837.95  54.59
881.6  364687.40  199097.60  54.59
882.8  365169.60  199296.37  54.58
884.0  365779.38  199587.53  54.57
885.2  366235.20  199877.49  54.58
886.5  366772.80  200176.51  54.58
887.7  367302.00  200405.94  54.56
888.8  367929.53  200749.37  54.56
890.0  368413.25  201026.80  54.57
891.2  368896.90  201308.65  54.57
892.4  369457.20  201615.90  54.57
893.6  370080.35  201896.38  54.55
894.8  370863.50  202364.84  54.57
896.0  371691.25  202804.61  54.56
897.2  372472.75  203204.11  54.56
898.4  373190.40  203526.34  54.54
899.6  373742.25  203798.79  54.53
900.8  373942.48  203970.27  54.55
902.0  374218.05  204048.38  54.53
903.2  374411.25  204177.90  54.53
904.3  374670.30  204318.34  54.53
905.5  375228.68  204571.67  54.52
906.7  375912.00  204844.80  54.49
907.9  376310.20  205089.83  54.50
909.1  376599.38  205214.82  54.49
910.2  376591.50  205283.53  54.51
911.4  376804.35  205361.85  54.50
912.6  376926.55  205419.50  54.50
913.8  377068.50  205450.11  54.49
915.0  377473.95  205610.58  54.47
916.2  377588.25  205651.27  54.46
917.3  377459.55  205618.73  54.47
918.5  377550.20  205637.30  54.47
919.7  377680.05  205694.09  54.46
920.8  377657.98  205676.92  54.46
922.0  377704.25  205649.03  54.45
923.2  377832.00  205670.40  54.43
924.4  378040.50  205691.14  54.41
925.5  378248.80  205741.26  54.39
926.7  378717.50  205977.30  54.39
927.9  379430.40  206298.75  54.37
929.0  380677.05  206999.41  54.38
930.2  382755.00  208078.63  54.36
931.4  385207.65  209296.59  54.33
932.5  387774.35  210552.30  54.30
933.7  389071.65  211155.70  54.27
934.9  389633.13  211402.58  54.26
936.0  388976.25  211042.87  54.26
937.2  386822.10  209746.48  54.22
938.3  384946.45  208650.96  54.20
939.5  383407.20  207658.35  54.16
940.7  383680.80  207606.09  54.11
941.8  385057.88  208281.27  54.09
943.0  386283.75  208944.04  54.09
944.2  386852.70  209146.43  54.06
945.3  386246.25  208704.41  54.03
946.5  385433.10  208023.43  53.97
947.6  385595.40  207852.10  53.90
948.8  385333.65  207580.88  53.87
949.9  385522.20  207431.68  53.81
951.1  384807.48  206960.90  53.78
952.2  384540.00  206521.83  53.71
953.4  384034.25  206053.87  53.66
954.5  384134.40  205718.09  53.55
955.7  383846.40  205350.48  53.50
956.8  383504.00  204987.87  53.45
958.0  382973.50  204547.87  53.41
959.1  382603.88  204141.39  53.36
960.3  382218.45  203709.66  53.30
961.4  382081.95  203370.49  53.23
962.6  382161.50  203234.93  53.18
963.7  381725.70  202988.91  53.18
964.9  381306.98  202799.51  53.19
966.0  381133.35  202531.44  53.14
967.2  380904.30  202489.84  53.16
968.3  380704.05  202111.82  53.09
969.5  380501.58  201975.63  53.08
970.6  380828.28  201865.52  53.01
971.8  380569.18  201835.26  53.04
972.9  380602.28  201863.87  53.04
974.0  380325.30  201964.89  53.10
975.2  380354.38  201738.08  53.04
976.3  380395.03  201695.92  53.02
977.5  380444.05  201578.08  52.98
978.6  380495.10  201627.54  52.99
979.7  380553.60  201699.88  53.00
980.9  380580.70  201576.36  52.97
982.0  379640.45  201396.16  53.05
983.2  379106.35  201226.59  53.08
984.3  379028.60  201102.42  53.06
985.4  379545.20  201101.65  52.98
986.6  379529.25  201035.28  52.97
987.7  380247.18  201382.23  52.96
988.9  379170.00  201173.49  53.06
990.0  379859.40  201330.33  53.00
993.1  386926.93  204143.67  52.76
996.9  385447.00  203892.53  52.90
1000.7  385286.42  204309.00  53.03
1004.5  385290.08  204804.72  53.16
1008.4  384959.29  205073.77  53.27
1012.2  384839.63  205431.31  53.38
1016.0  384345.00  205645.87  53.51
1019.8  383633.25  205628.50  53.60
1023.7  382338.18  205247.55  53.68
1027.5  380542.75  204558.92  53.75
1031.3  379359.90  204149.84  53.81
1035.1  378185.03  203715.19  53.87
1038.9  377654.20  203601.89  53.91
1042.7  377362.42  203598.28  53.95
1046.5  377250.67  203672.19  53.99
1050.3  377280.78  203781.90  54.01
1054.2  376936.00  203699.61  54.04
1058.0  376552.75  203583.64  54.07
1061.8  376545.38  203623.42  54.08
1065.6  375867.17  203272.27  54.08
1069.4  375014.27  202802.12  54.08
1073.2  373665.34  202012.79  54.06
1077.0  372970.55  201587.85  54.05
1080.8  373223.96  201657.41  54.03
1084.6  373447.78  201706.32  54.01
1088.4  373825.18  201821.89  53.99
1092.2  373376.25  201441.50  53.95
1096.0  372731.39  200919.07  53.90
1099.8  372020.35  200335.87  53.85
1103.6  371080.75  199621.86  53.79
1107.4  369907.55  198755.84  53.73
1111.2  369601.10  198368.93  53.67
1114.9  369110.58  197832.58  53.60
1118.7  368925.98  197351.00  53.49
1122.5  368610.67  196711.76  53.37
1126.3  367698.39  195630.70  53.20
1130.1  367319.22  194553.50  52.97
1133.9  365604.40  192517.58  52.66
1137.7  364066.20  190271.38  52.26
1141.4  362015.98  187534.37  51.80
1145.2  361040.47  185303.59  51.32
1149.0  359751.88  183001.06  50.87
1152.8  357889.90  180671.63  50.48
1156.6  356045.43  178653.97  50.18
1160.3  354244.67  176968.22  49.96
1164.1  351916.47  175266.24  49.80
1167.9  350342.71  174102.55  49.69
1171.7  349059.38  173202.75  49.62
1175.4  347539.77  172235.00  49.56
1179.2  346127.80  171283.60  49.49
1183.0  345817.33  170862.81  49.41
1186.7  345887.97  170669.80  49.34
1190.5  345626.33  170363.70  49.29
1194.3  344693.83  169791.50  49.26
1198.0  343173.88  168976.01  49.24
1201.8  341479.00  168156.63  49.24
1205.6  340427.00  167733.26  49.27
1209.3  339937.33  167674.04  49.32
1213.1  339517.20  167725.97  49.40
1216.8  338910.46  167770.07  49.50
1220.6  337773.33  167570.25  49.61
1224.3  336476.17  167280.78  49.72
1228.1  334941.00  166891.73  49.83
1231.9  333337.03  166384.19  49.91
1235.6  331583.55  165768.77  49.99
1239.4  329979.13  165224.44  50.07
1243.1  328585.52  164719.86  50.13
1246.9  327322.66  164226.28  50.17
1250.6  326279.07  163807.05  50.20
1254.3  325084.38  163301.94  50.23
1258.1  323829.57  162738.85  50.25
1261.8  322382.27  162036.32  50.26
1265.6  321293.97  161462.24  50.25
1269.3  320610.28  161073.34  50.24
1273.1  320989.26  161156.19  50.21
1276.8  320669.20  160840.26  50.16
1280.6  319428.23  159996.90  50.09
1284.3  317405.60  158730.13  50.01
1288.0  316209.01  157829.30  49.91
1291.8  315835.45  157266.25  49.79
1295.5  315148.53  156496.92  49.66
1299.2  313998.68  155396.13  49.49
1302.9  312369.58  153943.25  49.28
1306.7  310550.57  152325.39  49.05
1310.4  308798.41  150597.62  48.77
1314.1  307194.07  148839.29  48.45
1317.9  305763.54  147030.79  48.09
1321.6  304228.32  145043.28  47.68
1325.3  302551.20  142868.02  47.22
1329.0  301295.63  140786.67  46.73
1332.8  299391.40  138339.91  46.21
1336.5  297761.07  135981.89  45.67
1340.2  297661.00  134332.85  45.13
1343.9  297748.75  132761.99  44.59
1347.6  298123.20  131359.33  44.06
1351.4  299956.00  130623.67  43.55
1355.1  302483.50  130211.64  43.05
1358.8  304560.00  129525.34  42.53
1362.5  305011.98  127983.79  41.96
1366.2  302893.25  125065.60  41.29
1369.9  299434.25  121228.56  40.49
1373.6  296485.29  117034.36  39.47
1377.3  295072.20  112678.00  38.19
1381.0  294669.83  107770.59  36.57
1384.8  292662.50  101255.56  34.60
1388.4  289234.40  93665.89  32.38
1392.2  286926.67  86106.59  30.01
1395.9  285421.28  78807.39  27.61
1399.6  283554.43  71854.40  25.34
1403.3  281963.86  65729.76  23.31
1407.0  280150.80  60431.05  21.57
1410.7  278199.90  56053.80  20.15
1414.3  276150.00  52529.87  19.02
1418.1  274332.50  49840.64  18.17
1421.7  272851.54  47801.22  17.52
1425.4  271421.48  46276.46  17.05
1429.1  270154.13  45158.08  16.72
1432.8  268428.58  44293.82  16.50
1436.5  267620.48  43814.32  16.37
1440.2  266999.47  43562.45  16.32
1443.9  265914.46  43369.78  16.31
1447.6  264325.60  43191.86  16.34
1451.2  263080.95  43144.32  16.40
1454.9  261595.05  43137.10  16.49
1458.6  260346.34  43289.61  16.63
1462.3  259159.63  43603.35  16.82
1466.0  257809.81  44078.97  17.10
1469.7  256092.96  44670.12  17.44
1473.3  255029.50  45525.15  17.85
1477.0  252953.00  46318.11  18.31
1480.7  251271.71  47261.79  18.81
1484.4  249237.36  48152.84  19.32
1488.0  247646.67  49165.92  19.85
1491.7  246059.28  50175.88  20.39
1495.4  244405.30  51187.10  20.94
1499.0  242889.50  52203.22  21.49
1502.7  241594.50  53258.37  22.04
1506.4  240186.20  54252.17  22.59
1510.0  238730.90  55206.31  23.12
1513.7  237198.79  56112.26  23.66
1517.4  235826.33  57011.63  24.18
1521.0  234558.27  57909.98  24.69
1524.7  233318.58  58743.15  25.18
1528.3  232031.38  59522.75  25.65
1532.0  230807.50  60268.76  26.11
1535.7  229415.61  60916.65  26.55
1539.3  228133.23  61569.87  26.99
1543.0  227145.13  62256.15  27.41
1546.6  226431.83  62980.66  27.81
1550.3  225432.25  63571.57  28.20
1553.9  224378.97  64110.51  28.57
1557.6  223128.40  64554.68  28.93
1561.2  221832.90  64935.70  29.27
1564.9  220499.94  65285.07  29.61
1568.5  219162.30  65584.87  29.93
1572.2  218013.85  65903.87  30.23
1575.8  216916.00  66229.33  30.53
1579.5  215893.80  66547.71  30.82
1583.1  214828.12  66831.09  31.11
1586.8  213500.00  67004.00  31.38
1590.4  212282.23  67185.36  31.65
1594.0  210944.93  67322.11  31.91
1597.7  210148.57  67614.98  32.17
1601.3  209265.53  67851.00  32.42
1604.9  208288.93  68034.57  32.66
1608.6  206911.38  68046.01  32.89
1612.2  205522.35  68005.67  33.09
1615.8  204076.93  67921.60  33.28
1619.5  202821.50  67876.22  33.47
1623.1  201469.17  67769.37  33.64
1626.7  200233.80  67682.48  33.80
1630.3  199036.17  67576.24  33.95
1634.0  197932.00  67473.78  34.09
1637.6  196919.27  67369.95  34.21
1641.2  195899.15  67193.35  34.30
1644.8  194666.78  66898.58  34.37
1648.5  193563.13  66590.95  34.40
1652.1  192577.80  66251.20  34.40
1655.7  191657.40  65859.60  34.36
1659.3  190826.02  65468.13  34.31
1662.9  189394.17  64861.30  34.25
1666.6  187958.80  64247.15  34.18
1670.2  186525.97  63646.76  34.12
1673.8  185053.78  63030.90  34.06
1677.4  183872.35  62488.15  33.98
1681.0  183045.38  62014.45  33.88
1684.6  182632.67  61631.80  33.75
1688.2  181926.55  61093.41  33.58
1691.8  181239.60  60554.62  33.41
1695.4  180808.60  60066.00  33.22
1699.0  180421.73  59590.22  33.03
1702.6  180069.67  59091.56  32.82
1706.2  179426.98  58465.82  32.58
1709.8  178470.12  57734.58  32.35
1713.4  177724.98  57099.11  32.13
1717.0  176823.00  56440.06  31.92
1720.6  175999.80  55819.95  31.72
1724.2  175264.28  55229.13  31.51
1727.8  174534.85  54688.36  31.33
1731.4  174073.63  54285.31  31.19
1735.0  173896.07  54029.31  31.07
1738.6  173688.90  53728.23  30.93
1742.2  173166.05  53269.40  30.76
1745.8  172552.98  52727.55  30.56
1749.4  171609.90  52058.42  30.34
1753.0  170121.07  51208.22  30.10
1756.6  168449.46  50328.90  29.88
1760.1  167117.80  49571.53  29.66
1763.7  165354.67  48739.56  29.48
1767.3  163890.00  48044.05  29.31
1770.9  162626.10  47433.45  29.17
1774.5  161133.08  46788.73  29.04
1778.0  159983.44  46273.82  28.92
1781.6  158878.05  45823.70  28.84
1785.2  157732.45  45412.23  28.79
1788.8  156541.70  45028.20  28.76
1792.3  155303.83  44643.82  28.75
1795.9  154761.75  44485.18  28.74
1799.5  154614.33  44479.41  28.77
1803.1  155849.40  44884.55  28.80
1806.6  158192.07  45594.66  28.82
1810.2  160039.60  46141.30  28.83
1813.8  160865.60  46386.17  28.84
1817.3  160317.60  46218.09  28.83
1820.9  159039.58  45829.64  28.82
1824.5  157619.13  45384.78  28.79
1828.0  156522.67  44987.86  28.74
1831.6  156154.83  44756.76  28.66
1835.2  156017.50  44521.11  28.54
1838.7  155855.47  44187.79  28.35
1842.3  155640.00  43746.67  28.11
1845.8  154354.08  42860.84  27.77
1849.4  153728.65  41978.52  27.31
1852.9  152819.16  40810.09  26.70
1856.5  151738.42  39342.58  25.93
1860.0  150645.13  37596.85  24.96
1863.6  150673.65  35831.36  23.78
1867.1  151520.25  33888.40  22.37
1870.7  152553.83  31564.10  20.69
1874.2  151437.60  28437.60  18.78
1877.8  148527.40  24893.07  16.76
1881.3  145312.25  21331.83  14.68
1884.9  143321.75  18185.46  12.69
1888.4  141686.43  15358.96  10.84
1891.9  140050.60  12980.57  9.27
1895.5  138685.90  11114.83  8.01
1899.0  138056.25  9795.22  7.10
1901.3  176764.67  8647.44  4.89
1904.1  176794.50  7740.00  4.38
1906.8  175657.80  7021.80  4.00
1909.6  173403.30  6452.72  3.72
1912.4  171314.27  6023.93  3.52
1915.1  169800.40  5698.00  3.36
1917.9  168238.17  5461.67  3.25
1920.6  166899.50  5272.37  3.16
1923.3  165534.13  5157.76  3.12
1926.1  163761.33  5053.98  3.09
1928.8  162096.00  4991.55  3.08
1931.6  160839.82  4955.58  3.08
1934.3  159707.98  4963.96  3.11
1937.0  158617.40  4987.12  3.14
1939.8  157405.92  5038.75  3.20
1942.5  155837.00  5082.00  3.26
1945.2  153813.55  5123.98  3.33
1947.9  152165.53  5197.27  3.42
1950.7  150855.93  5296.79  3.51
1953.4  148970.45  5386.20  3.62
1956.1  147483.83  5505.61  3.73
1958.8  146150.55  5630.37  3.85
1961.5  144587.20  5762.27  3.99
1964.2  142988.30  5905.90  4.13
1966.9  141351.95  6057.47  4.29
1969.6  140058.00  6225.00  4.44
1972.3  138635.30  6396.13  4.61
1975.0  137537.85  6587.35  4.79
1977.7  136393.83  6777.08  4.97
1980.4  135234.60  6975.35  5.16
1983.1  134114.63  7176.72  5.35
1985.8  133162.20  7389.20  5.55
1988.4  132114.67  7606.44  5.76
1991.1  131183.50  7827.56  5.97
1993.8  130301.23  8053.71  6.18
1996.5  129646.37  8292.11  6.40
1999.1  128948.42  8533.37  6.62
2001.8  128239.53  8768.59  6.84
2004.5  127535.60  9001.77  7.06
2007.1  126791.70  9235.32  7.28
2009.8  126029.40  9456.38  7.50
2012.4  125415.58  9682.26  7.72
2015.1  124863.90  9899.56  7.93
2017.8  124061.00  10101.00  8.14
2020.4  123554.38  10317.02  8.35
2023.1  123180.40  10532.67  8.55
2025.7  122936.67  10749.56  8.74
2028.3  122598.67  10946.00  8.93
2031.0  122174.50  11134.93  9.11
2033.6  121878.30  11318.70  9.29
2036.2  121608.60  11484.00  9.44
2038.9  120990.90  11611.60  9.60
2041.5  120638.67  11761.69  9.75
2044.1  120077.40  11872.60  9.89
2046.8  119685.90  12000.20  10.03
2049.4  119024.70  12095.90  10.16
2052.0  118729.67  12226.67  10.30
2054.6  118317.50  12340.42  10.43
2057.2  117734.07  12433.36  10.56
2059.8  117419.67  12567.27  10.70
2062.4  116533.12  12633.36  10.84
2065.0  115996.13  12741.93  10.98
2067.6  115086.15  12801.88  11.12
2070.2  114467.27  12897.76  11.27
2072.8  113830.95  12990.74  11.41
2075.4  113391.25  13090.00  11.54
2078.0  112751.65  13166.22  11.68
2080.6  112147.20  13255.73  11.82
2083.2  111433.10  13322.41  11.96
2085.8  110933.50  13415.08  12.09
2088.4  110275.33  13476.72  12.22
2090.9  109458.92  13510.07  12.34
2093.5  108557.63  13535.74  12.47
2096.1  107771.50  13581.96  12.60
2098.7  106998.57  13614.17  12.72
2101.2  106013.93  13618.18  12.85
2103.8  105332.73  13653.11  12.96
2106.4  104651.53  13702.60  13.09
2108.9  103987.80  13746.27  13.22
2111.5  103123.20  13755.00  13.34
2114.0  102485.67  13789.93  13.46
2116.6  101946.25  13833.75  13.57
2119.1  101377.73  13871.79  13.68
2121.7  100870.00  13906.67  13.79
2124.2  100457.23  13959.45  13.90
2126.8  99629.35  13939.15  13.99
2129.3  99220.00  13971.47  14.08
2131.9  98639.20  13977.33  14.17
2134.4  98208.45  13997.75  14.25
2136.9  97805.50  14014.94  14.33
2139.4  97276.20  14009.33  14.40
2142.0  96832.87  14021.15  14.48
2144.5  96529.40  14056.07  14.56
2147.0  96283.47  14105.73  14.65
2149.5  95783.20  14114.67  14.74
2152.1  95627.58  14166.71  14.81
2154.6  95535.47  14237.69  14.90
2157.1  95002.58  14230.55  14.98
2159.6  94584.75  14233.58  15.05
2162.1  94412.50  14280.93  15.13
2164.6  94155.53  14311.94  15.20
2167.1  93826.12  14335.18  15.28
2169.6  93493.87  14350.35  15.35
2172.1  93016.60  14348.60  15.43
2174.6  92685.20  14363.34  15.50
2177.1  92239.20  14367.50  15.58
2179.5  91806.43  14372.51  15.66
2182.0  91321.45  14364.72  15.73
2184.5  90783.75  14353.37  15.81
2187.0  90173.23  14326.09  15.89
2189.5  89484.73  14297.70  15.98
2191.9  88682.50  14243.67  16.06
2194.4  88041.45  14200.85  16.13
2196.9  87283.20  14144.00  16.20
2199.3  86594.00  14090.78  16.27
2201.8  85672.80  14003.02  16.34
2204.3  85198.85  13975.66  16.40
2206.7  84562.25  13911.48  16.45
2209.2  84077.52  13866.32  16.49
2211.6  83437.20  13797.30  16.54
2214.1  83142.20  13770.80  16.56
2216.5  82555.93  13694.76  16.59
2219.0  82198.33  13651.71  16.61
2221.4  81822.42  13592.44  16.61
2223.9  81356.33  13489.97  16.58
2226.3  80830.75  13370.97  16.54
2228.7  80262.55  13230.49  16.48
2231.1  79685.10  13071.30  16.40
2233.6  79079.27  12896.78  16.31
2236.0  78520.17  12733.00  16.22
2238.4  78004.50  12551.19  16.09
2240.9  77539.60  12367.00  15.95
2243.3  76983.33  12158.40  15.79
2245.7  76396.10  11926.73  15.61
2248.1  75896.17  11714.15  15.43
2250.5  75374.17  11480.83  15.23
2252.9  74740.03  11229.11  15.02
2255.3  74157.35  10978.17  14.80
2257.7  73680.00  10756.67  14.60
2260.1  73183.13  10528.31  14.39
2262.5  72570.00  10293.33  14.18
2264.9  72039.73  10089.82  14.01
2267.3  71420.00  9866.67  13.81
2269.7  70915.60  9672.13  13.64
2272.1  70347.05  9492.46  13.49
2274.5  69773.52  9314.45  13.35
2276.8  69285.28  9151.89  13.21
2279.2  68691.75  8981.35  13.07
2281.6  68262.07  8848.60  12.96
2284.0  67801.30  8699.47  12.83
2286.3  67315.73  8535.65  12.68
2288.7  66894.32  8397.86  12.55
2291.1  66352.93  8244.66  12.43
2293.4  65891.47  8090.13  12.28
2295.8  65260.80  7924.13  12.14
2298.2  64687.50  7755.60  11.99
2300.5  64004.40  7569.30  11.83
2302.9  63229.67  7395.22  11.70
2305.2  62490.10  7230.60  11.57
2307.6  61807.15  7070.36  11.44
2309.9  61028.67  6923.33  11.34
2312.2  60429.33  6816.56  11.28
2314.6  59802.30  6734.40  11.26
2316.9  59108.85  6630.90  11.22
2319.2  58540.57  6531.00  11.16
2321.6  57918.23  6427.29  11.10
2323.9  57364.58  6326.39  11.03
2326.2  56819.93  6204.36  10.92
2328.6  56294.15  6102.80  10.84
2330.9  55776.00  5999.00  10.76
2333.2  55308.50  5887.86  10.65
2335.5  54858.90  5785.13  10.55
2337.8  54391.13  5668.44  10.42
2340.1  53808.83  5549.82  10.31
2342.4  53375.83  5449.16  10.21
2344.8  52945.83  5334.61  10.08
2347.1  52354.87  5223.79  9.98
2349.4  51800.37  5115.41  9.88
2351.6  51205.47  5019.93  9.80
2353.9  50720.23  4939.25  9.74
2356.2  50202.87  4846.87  9.65
2358.5  49593.60  4760.00  9.60
2360.8  49011.20  4662.93  9.51
2363.1  48568.17  4568.92  9.41
2365.4  48092.80  4486.10  9.33
2367.7  47617.80  4400.40  9.24
2369.9  47070.95  4309.02  9.15
2372.2  46451.47  4208.27  9.06
2374.5  45853.50  4119.50  8.98
2376.7  45223.68  4003.88  8.85
2379.0  44613.83  3904.92  8.75
2381.3  43995.00  3807.22  8.65
2383.5  43460.27  3719.47  8.56
2385.8  42842.43  3612.37  8.43
2388.0  42303.00  3536.07  8.36
2390.3  41770.67  3445.29  8.25
2392.5  41268.00  3364.00  8.15
2394.8  40801.20  3279.10  8.04
2397.0  40319.07  3182.98  7.89
2399.3  39863.87  3110.81  7.80
2401.5  39432.75  3033.92  7.69
2403.8  38871.40  2947.79  7.58
2406.0  38355.08  2868.25  7.48
2408.2  37961.00  2792.53  7.36
2410.4  37524.90  2729.69  7.27
2412.7  37121.93  2664.14  7.18
2414.9  36760.90  2589.03  7.04
2417.1  36360.10  2527.30  6.95
2419.3  35929.60  2457.60  6.84
2421.6  35520.83  2393.89  6.74
2423.8  35139.67  2321.03  6.61
2426.0  34769.37  2246.12  6.46
2428.2  34417.60  2190.84  6.37
2430.4  34115.53  2134.98  6.26
2432.6  33840.00  2093.33  6.19
2434.8  33523.60  2031.73  6.06
2437.0  33153.47  1970.22  5.94
2439.2  32791.43  1910.36  5.83
2441.4  32460.97  1872.31  5.77
2443.6  32234.28  1823.80  5.66
2445.7  31959.43  1777.07  5.56
2447.9  31702.17  1721.03  5.43
2450.1  31387.70  1676.63  5.34
2452.3  31014.32  1623.42  5.23
2454.5  30636.00  1574.35  5.14
2456.6  30245.33  1521.78  5.03
2458.8  29872.70  1468.13  4.91
2461.0  29583.00  1432.06  4.84
2463.1  29289.15  1411.35  4.82
2465.3  29003.27  1375.53  4.74
2467.5  28747.75  1332.42  4.63
2469.6  28505.75  1302.72  4.57
2471.8  28201.30  1276.42  4.53
2473.9  27904.17  1236.83  4.43
2476.1  27542.67  1193.11  4.33
2478.2  27176.27  1167.89  4.30
2480.4  26877.85  1141.02  4.25
2482.5  26538.43  1104.48  4.16
2484.6  26211.17  1085.64  4.14
2486.8  25936.40  1072.83  4.14
2488.9  25632.13  1052.22  4.11
2491.1  25275.60  1026.04  4.06
2493.2  24876.07  995.26  4.00
2495.3  24466.87  972.69  3.98
2497.4  24133.90  939.17  3.89
2499.5  23821.87  917.06  3.85
2501.7  23696.87  909.31  3.84
2503.8  23587.22  919.42  3.90
2505.9  23540.83  905.42  3.85
2508.0  23542.40  893.35  3.79
2510.1  23552.35  882.25  3.75
2512.2  23653.15  880.80  3.72
2514.3  23862.05  892.22  3.74
2516.4  24112.80  919.33  3.81
