/*** Spectra Vista SIG Data ***/
name= 34_20221021_LIST_57_avg.sig
comm= Averaged Ref/Tar of files: HR.102122.0018_moc.sig,HR.102122.0019_moc.sig,HR.102122.0020_moc.sig
data=
337.3  3126.38  209.84  6.71
338.8  3270.80  206.14  6.30
340.3  3373.20  211.50  6.27
341.8  3566.55  216.87  6.08
343.2  3729.60  219.04  5.87
344.7  3966.45  210.41  5.30
346.2  4125.85  203.08  4.92
347.7  4286.43  202.99  4.74
349.2  4460.40  197.28  4.42
350.6  4737.53  208.46  4.40
352.1  5001.50  217.75  4.35
353.6  5239.70  213.49  4.07
355.1  5556.38  218.08  3.92
356.6  5833.95  218.50  3.75
358.0  6124.80  219.96  3.59
359.5  6396.30  230.13  3.60
361.0  6703.20  229.71  3.43
362.5  7055.28  235.87  3.34
364.0  7398.15  249.61  3.37
365.4  7755.60  257.98  3.33
366.9  8121.75  267.83  3.30
368.4  8455.25  270.67  3.20
369.9  8810.15  283.12  3.21
371.3  9238.20  288.36  3.12
372.8  9637.65  302.92  3.14
374.3  10051.25  312.77  3.11
375.8  10456.60  320.32  3.06
377.2  10867.60  331.00  3.05
378.7  11298.00  332.02  2.94
380.2  11674.60  337.15  2.89
381.7  12161.25  345.92  2.84
383.1  12612.60  355.23  2.82
384.6  13109.85  366.86  2.80
386.1  13539.53  372.69  2.75
387.6  14014.00  388.08  2.77
389.0  14472.00  394.60  2.73
390.5  14947.65  395.98  2.65
392.0  15473.25  411.61  2.66
393.4  16027.75  428.41  2.67
394.9  16573.50  443.95  2.68
396.4  17077.50  456.88  2.68
397.9  17630.00  457.35  2.59
399.3  18158.03  470.80  2.59
400.8  18693.75  481.88  2.58
402.2  19345.40  496.61  2.57
403.7  19910.03  515.89  2.59
405.2  20526.23  531.67  2.59
406.6  21112.00  543.54  2.57
408.1  21673.40  560.05  2.58
409.6  22257.30  566.52  2.55
411.0  22908.55  591.70  2.58
412.5  23573.90  607.30  2.58
414.0  24225.88  628.33  2.59
415.4  24903.38  648.87  2.61
416.9  25558.65  667.83  2.61
418.4  26238.38  683.68  2.61
419.8  26954.20  704.43  2.61
421.3  27664.40  726.58  2.63
422.7  28414.20  755.32  2.66
424.2  29176.88  778.82  2.67
425.7  29943.10  797.92  2.66
427.1  30684.68  815.97  2.66
428.6  31480.50  839.66  2.67
430.0  32216.53  859.63  2.67
431.5  33058.88  887.82  2.69
432.9  33914.75  919.18  2.71
434.4  34809.75  948.72  2.73
435.9  35644.00  966.93  2.71
437.3  36478.75  985.55  2.70
438.8  37317.68  1008.43  2.70
440.2  38174.68  1038.73  2.72
441.7  39128.00  1069.19  2.73
443.1  40028.25  1097.35  2.74
444.6  40976.80  1127.60  2.75
446.0  41922.23  1152.43  2.75
447.5  42859.30  1181.71  2.76
448.9  43782.60  1206.46  2.76
450.4  44768.15  1238.76  2.77
451.8  45643.00  1272.02  2.79
453.3  46560.08  1299.53  2.79
454.7  47561.75  1327.29  2.79
456.2  48416.73  1355.75  2.80
457.6  49369.73  1383.64  2.80
459.1  50341.85  1409.91  2.80
460.5  51266.38  1436.35  2.80
462.0  52328.23  1463.28  2.80
463.4  53361.50  1495.00  2.80
464.8  54334.50  1522.55  2.80
466.3  55300.58  1552.10  2.81
467.7  56271.85  1578.54  2.81
469.2  57327.48  1611.25  2.81
470.6  58307.50  1638.63  2.81
472.0  59354.28  1671.04  2.82
473.5  60356.13  1696.08  2.81
474.9  61389.00  1730.90  2.82
476.4  62524.80  1761.19  2.82
477.8  63568.00  1793.03  2.82
479.2  64568.50  1823.41  2.82
480.7  65658.60  1857.21  2.83
482.1  66787.90  1893.09  2.83
483.6  67972.80  1926.12  2.83
485.0  69031.28  1957.85  2.84
486.4  70203.75  1998.48  2.85
487.9  71253.00  2036.64  2.86
489.3  72402.83  2075.24  2.87
490.7  73463.03  2119.00  2.88
492.2  74676.00  2163.28  2.90
493.6  75769.80  2209.22  2.92
495.0  76869.00  2255.87  2.93
496.5  78041.65  2308.59  2.96
497.9  79142.28  2367.29  2.99
499.3  80286.93  2428.78  3.03
500.7  81527.25  2505.57  3.07
502.2  82679.80  2582.67  3.12
503.6  83920.80  2672.49  3.18
505.0  84999.30  2766.76  3.26
506.5  86286.00  2882.39  3.34
507.9  87452.68  3012.72  3.44
509.3  88770.40  3167.48  3.57
510.7  90016.88  3334.22  3.70
512.2  91409.63  3531.63  3.86
513.6  92887.55  3758.06  4.05
515.0  94311.75  4013.89  4.26
516.4  95667.08  4297.05  4.49
517.8  97293.00  4620.35  4.75
519.3  98609.45  4966.73  5.04
520.7  100176.50  5349.44  5.34
522.1  101458.50  5736.94  5.65
523.5  102818.30  6145.92  5.98
524.9  104262.30  6563.14  6.29
526.3  105673.40  6974.37  6.60
527.8  107157.60  7397.56  6.90
529.2  108203.80  7786.60  7.20
530.6  109733.30  8197.69  7.47
532.0  111454.00  8600.00  7.72
533.4  112753.95  8946.83  7.93
534.8  113589.53  9232.06  8.13
536.3  115197.00  9560.01  8.30
537.7  117180.00  9905.52  8.45
539.1  118652.78  10193.83  8.59
540.5  119849.30  10445.63  8.72
541.9  121600.43  10740.82  8.83
543.3  122857.05  10988.53  8.94
544.7  124180.20  11242.35  9.05
546.1  125953.03  11534.43  9.16
547.5  127187.20  11770.24  9.25
549.0  128821.00  12037.56  9.34
550.4  130315.63  12274.81  9.42
551.8  131909.83  12496.08  9.47
553.2  133420.08  12681.73  9.51
554.6  134763.20  12813.00  9.51
556.0  136278.45  12919.95  9.48
557.4  137890.38  12990.62  9.42
558.8  139538.70  13026.02  9.34
560.2  140996.25  13012.62  9.23
561.6  142655.70  12984.19  9.10
563.0  144251.23  12917.77  8.96
564.4  145843.20  12821.77  8.79
565.8  147368.75  12689.89  8.61
567.2  149124.00  12548.01  8.41
568.6  150618.75  12357.73  8.20
570.0  152036.68  12140.23  7.99
571.4  153760.75  11931.47  7.76
572.8  155527.50  11724.48  7.54
574.2  157147.20  11518.72  7.33
575.6  158715.00  11322.86  7.13
577.0  160234.00  11148.90  6.96
578.4  161945.88  11005.58  6.80
579.8  163472.85  10871.31  6.65
581.2  165186.83  10767.40  6.52
582.5  166619.70  10654.58  6.39
583.9  168126.40  10565.61  6.28
585.3  169931.25  10504.00  6.18
586.7  171404.35  10439.30  6.09
588.1  172890.38  10384.54  6.01
589.5  174550.25  10356.03  5.93
590.9  176166.80  10340.89  5.87
592.3  177971.55  10352.68  5.82
593.7  179439.98  10354.87  5.77
595.0  181050.53  10377.75  5.73
596.4  182504.35  10392.81  5.69
597.8  183978.33  10409.19  5.66
599.2  185512.80  10426.99  5.62
600.6  187282.88  10450.10  5.58
602.0  188580.98  10433.66  5.53
603.3  190363.95  10428.59  5.48
604.7  192024.35  10391.18  5.41
606.1  193517.40  10331.34  5.34
607.5  195144.95  10262.06  5.26
608.9  196840.50  10178.35  5.17
610.2  198237.38  10068.30  5.08
611.6  199833.75  9964.74  4.99
613.0  201404.10  9856.55  4.89
614.4  202783.35  9741.02  4.80
615.8  204238.13  9642.75  4.72
617.1  205770.60  9553.32  4.64
618.5  207392.40  9485.81  4.57
619.9  208920.15  9430.33  4.51
621.3  210522.38  9402.78  4.47
622.6  212127.50  9387.03  4.43
624.0  213580.80  9384.18  4.39
625.4  215045.33  9396.94  4.37
626.8  216611.85  9430.94  4.35
628.1  217885.53  9463.35  4.34
629.5  219666.83  9521.23  4.33
630.9  221178.38  9564.31  4.32
632.2  222474.35  9580.37  4.31
633.6  224029.25  9586.74  4.28
635.0  225492.00  9563.85  4.24
636.3  226993.30  9508.08  4.19
637.7  228342.25  9416.59  4.12
639.1  229985.00  9302.33  4.04
640.4  231471.80  9162.72  3.96
641.8  232669.73  9004.17  3.87
643.2  234216.85  8848.73  3.78
644.5  235589.25  8693.60  3.69
645.9  237193.20  8554.83  3.61
647.2  238323.05  8431.88  3.54
648.6  239922.00  8349.94  3.48
650.0  241293.60  8286.17  3.43
651.3  242104.78  8229.17  3.40
652.7  244214.75  8204.92  3.36
654.0  246289.50  8189.91  3.33
655.4  247678.13  8146.08  3.29
656.8  247725.10  8063.91  3.26
658.1  249041.70  8006.40  3.21
659.5  251485.50  7960.16  3.17
660.8  253035.00  7887.43  3.12
662.2  254038.40  7793.92  3.07
663.5  255633.15  7730.98  3.02
664.9  256669.40  7663.86  2.99
666.2  257475.60  7610.16  2.96
667.6  259193.25  7598.58  2.93
668.9  260186.28  7595.00  2.92
670.3  261877.00  7616.02  2.91
671.6  263022.00  7643.03  2.91
673.0  264194.63  7683.91  2.91
674.3  265465.20  7748.05  2.92
675.7  266776.38  7828.43  2.93
677.0  267868.05  7918.09  2.96
678.4  269167.53  8026.75  2.98
679.7  270268.78  8138.34  3.01
681.1  271544.58  8285.06  3.05
682.4  272691.90  8464.09  3.10
683.8  273885.30  8687.19  3.17
685.1  274881.00  8953.67  3.26
686.4  276190.20  9306.24  3.37
687.8  277435.25  9767.54  3.52
689.1  278503.25  10391.38  3.73
690.5  279889.05  11263.97  4.02
691.8  280690.28  12434.03  4.43
693.1  282015.15  14027.47  4.97
694.5  283237.50  16036.80  5.66
695.8  284443.25  18501.17  6.50
697.1  285671.75  21402.77  7.49
698.5  286746.40  24725.70  8.62
699.8  287836.45  28422.36  9.87
701.1  288992.88  32436.48  11.22
702.5  289790.05  36623.78  12.64
703.8  290745.00  40978.71  14.09
705.1  291883.80  45448.43  15.57
706.5  292933.50  49922.25  17.04
707.8  293924.85  54393.94  18.51
709.1  294779.30  58798.52  19.95
710.5  295917.88  63242.68  21.37
711.8  296723.80  67583.44  22.78
713.1  297727.30  71914.74  24.15
714.4  298641.60  76169.58  25.51
715.8  299489.00  80346.26  26.83
717.1  300786.30  84583.04  28.12
718.4  301772.80  88634.45  29.37
719.7  302873.10  92648.37  30.59
721.0  303390.00  96381.43  31.77
722.4  304154.40  100075.18  32.90
723.7  305118.15  103701.19  33.99
725.0  306151.20  107214.82  35.02
726.3  307110.38  110557.78  36.00
727.6  307635.35  113605.02  36.93
729.0  308547.58  116621.88  37.80
730.3  309363.90  119443.61  38.61
731.6  310256.30  122138.96  39.37
732.9  311023.83  124633.86  40.07
734.2  311845.88  126987.69  40.72
735.5  312858.98  129296.98  41.33
736.8  313645.80  131371.13  41.89
738.1  314500.10  133335.14  42.40
739.5  315435.40  135209.62  42.86
740.8  316143.58  136861.87  43.29
742.1  316847.48  138410.14  43.68
743.4  317525.00  139849.52  44.04
744.7  318438.58  141308.47  44.38
746.0  319333.95  142655.32  44.67
747.3  319930.35  143778.19  44.94
748.6  320664.75  144889.61  45.18
749.9  321360.00  145898.63  45.40
751.2  321984.95  146813.57  45.60
752.5  322795.60  147756.97  45.77
753.8  323330.00  148523.70  45.94
755.1  324012.00  149292.49  46.08
756.4  324557.63  149975.20  46.21
757.7  325546.38  150801.91  46.32
759.0  327314.23  151957.64  46.43
760.3  328442.40  152783.59  46.52
761.6  330026.20  153762.69  46.59
762.9  330523.00  154238.97  46.67
764.2  330896.90  154616.08  46.73
765.5  331137.33  154921.20  46.78
766.8  331513.60  155275.73  46.84
768.1  332005.80  155660.71  46.88
769.3  332601.85  156074.51  46.93
770.6  333219.90  156505.09  46.97
771.9  333930.10  156941.19  47.00
773.2  334296.40  157213.74  47.03
774.5  334848.80  157582.73  47.06
775.8  335467.80  157969.41  47.09
777.1  336041.20  158308.37  47.11
778.4  336357.18  158536.85  47.13
779.6  337081.50  158959.11  47.16
780.9  337500.00  159238.86  47.18
782.2  337922.75  159512.57  47.20
783.5  338184.00  159718.33  47.23
784.8  338674.28  160015.81  47.25
786.0  339036.60  160246.28  47.27
787.3  339363.45  160459.55  47.28
788.6  339763.70  160697.46  47.30
789.9  340193.00  160952.16  47.31
791.2  340832.23  161297.13  47.32
792.4  341423.15  161657.27  47.35
793.7  341882.40  161918.11  47.36
795.0  342478.13  162250.47  47.38
796.2  343071.40  162568.75  47.39
797.5  343708.05  162929.04  47.40
798.8  344359.60  163267.54  47.41
800.0  344977.25  163610.31  47.43
801.3  345404.80  163837.62  47.43
802.6  345955.28  164152.41  47.45
803.8  346545.35  164485.57  47.46
805.1  346977.75  164740.17  47.48
806.4  347433.90  164985.34  47.49
807.7  347929.43  165262.22  47.50
808.9  348446.70  165535.27  47.51
810.2  348910.10  165801.89  47.52
811.4  349391.30  166068.23  47.53
812.7  349943.75  166399.23  47.55
814.0  350762.60  166815.05  47.56
815.2  351409.75  167163.02  47.57
816.5  351812.55  167397.73  47.58
817.7  352227.00  167638.99  47.59
819.0  352727.10  167904.04  47.60
820.2  352836.00  168014.63  47.62
821.5  353494.05  168394.29  47.64
822.7  353869.40  168590.30  47.64
824.0  354210.30  168772.99  47.65
825.2  354668.63  169031.76  47.66
826.5  354940.70  169212.08  47.67
827.7  355481.05  169492.57  47.68
829.0  355887.40  169716.13  47.69
830.2  356188.35  169897.01  47.70
831.5  356666.80  170164.20  47.71
832.7  356984.25  170341.70  47.72
834.0  357368.03  170538.80  47.72
835.2  357695.25  170754.27  47.74
836.4  358031.85  170921.21  47.74
837.7  358424.60  171165.66  47.75
838.9  358868.70  171419.63  47.77
840.1  359288.33  171631.79  47.77
841.4  359664.90  171886.77  47.79
842.6  360036.20  172112.99  47.80
843.8  360448.60  172335.35  47.81
845.1  360966.70  172628.24  47.82
846.3  361381.30  172872.78  47.84
847.5  361746.00  173090.56  47.85
848.8  362148.00  173342.53  47.87
850.0  362555.55  173554.82  47.87
851.2  363124.35  173848.17  47.88
852.5  363423.60  174075.41  47.90
853.7  364029.75  174365.40  47.90
854.9  364475.40  174612.28  47.91
856.1  364944.45  174872.12  47.92
857.4  365169.80  174992.38  47.92
858.6  365698.55  175264.10  47.93
859.8  366091.88  175489.68  47.94
861.0  366584.40  175751.38  47.94
862.2  367031.30  176008.78  47.95
863.5  367384.88  176220.24  47.97
864.7  367936.80  176471.93  47.96
865.9  368321.20  176677.30  47.97
867.1  368599.65  176876.71  47.99
868.3  369085.35  177116.48  47.99
869.5  369625.90  177387.00  47.99
870.8  370183.50  177644.66  47.99
872.0  370618.73  177910.83  48.00
873.2  371056.20  178109.06  48.00
874.4  371577.38  178345.11  48.00
875.6  371911.05  178560.76  48.01
876.8  372441.70  178843.30  48.02
878.0  372895.55  179084.11  48.03
879.2  373412.70  179333.18  48.03
880.4  373887.38  179559.60  48.03
881.6  374328.95  179782.29  48.03
882.8  374756.80  179983.37  48.03
884.0  375389.20  180278.83  48.02
885.2  375882.20  180546.74  48.03
886.5  376546.30  180820.75  48.02
887.7  376934.68  181056.56  48.03
888.8  377513.40  181346.91  48.04
890.0  378120.50  181614.06  48.03
891.2  378735.40  181874.38  48.02
892.4  379339.80  182149.35  48.02
893.6  379908.05  182428.17  48.02
894.8  380736.25  182848.36  48.02
896.0  381417.75  183204.16  48.03
897.2  382245.50  183574.18  48.03
898.4  383011.20  183939.30  48.02
899.6  383610.38  184163.45  48.01
900.8  383957.85  184353.18  48.01
902.0  384164.40  184406.25  48.00
903.2  384395.55  184533.84  48.01
904.3  384689.40  184703.76  48.01
905.5  385288.43  184948.24  48.00
906.7  385900.00  185195.25  47.99
907.9  386443.40  185424.40  47.98
909.1  386758.80  185565.48  47.98
910.2  386894.48  185627.24  47.98
911.4  386997.98  185710.15  47.99
912.6  387136.75  185742.29  47.98
913.8  387172.95  185802.18  47.99
915.0  387594.90  185963.68  47.98
916.2  387728.25  186042.44  47.98
917.3  387737.55  185995.09  47.97
918.5  387828.10  186008.31  47.96
919.7  388072.50  186076.85  47.95
920.8  388166.95  186029.76  47.93
922.0  388214.75  186024.30  47.92
923.2  388206.00  186071.60  47.93
924.4  388557.00  186126.24  47.90
925.5  388771.30  186203.49  47.90
926.7  389253.25  186416.33  47.89
927.9  389986.20  186702.01  47.87
929.0  391419.00  187278.51  47.85
930.2  393562.20  188228.26  47.83
931.4  395933.40  189318.97  47.82
932.5  398732.85  190516.88  47.78
933.7  400065.08  191086.82  47.76
934.9  400802.50  191240.67  47.71
936.0  400136.75  190885.19  47.70
937.2  397907.25  189719.15  47.68
938.3  395978.35  188739.41  47.66
939.5  394405.20  187899.02  47.64
940.7  394682.40  187835.95  47.59
941.8  396109.65  188369.70  47.55
943.0  397576.50  188885.12  47.51
944.2  398177.00  189047.97  47.48
945.3  397917.00  188690.36  47.42
946.5  396879.75  188071.76  47.39
947.6  397037.40  187953.92  47.34
948.8  396781.13  187649.89  47.29
949.9  396774.00  187447.28  47.24
951.1  396237.40  187011.52  47.20
952.2  395964.00  186584.23  47.12
953.4  395640.25  186106.55  47.04
954.5  395296.20  185757.22  46.99
955.7  395413.20  185407.44  46.89
956.8  395052.70  185003.33  46.83
958.0  394713.00  184579.11  46.76
959.1  394341.58  184217.40  46.72
960.3  393947.18  183796.02  46.65
961.4  393809.45  183547.66  46.61
962.6  393669.50  183392.77  46.59
963.7  393501.30  183096.56  46.53
964.9  393356.18  182880.08  46.49
966.0  393220.58  182697.12  46.46
967.2  393055.20  182630.80  46.46
968.3  392643.45  182424.73  46.46
969.5  392523.30  182261.60  46.43
970.6  392377.28  182171.73  46.43
971.8  392546.18  182215.80  46.42
972.9  392466.83  182196.67  46.42
974.0  392383.60  182299.15  46.46
975.2  392293.75  182251.72  46.46
976.3  392584.88  182144.36  46.40
977.5  392923.83  182049.84  46.33
978.6  392498.10  182056.93  46.38
979.7  392021.18  182130.17  46.46
980.9  392304.75  182070.63  46.41
982.0  392119.15  182079.32  46.43
983.2  391879.48  181850.37  46.40
984.3  392079.80  181670.63  46.34
985.4  391695.28  181452.14  46.32
986.6  391197.63  181640.63  46.43
987.7  391987.23  182026.68  46.44
988.9  390889.80  181922.81  46.54
990.0  391502.60  182022.03  46.49
993.1  383543.18  176808.93  46.10
996.9  382674.00  176996.63  46.25
1000.7  382827.14  177644.34  46.40
1004.5  383101.92  178245.10  46.53
1008.4  382777.04  178625.33  46.67
1012.2  382798.92  179080.63  46.78
1016.0  382549.20  179448.60  46.91
1019.8  382137.53  179689.13  47.02
1023.7  381275.81  179642.95  47.12
1027.5  379896.85  179375.66  47.22
1031.3  379153.95  179299.09  47.29
1035.1  378286.01  179144.08  47.36
1038.9  377916.73  179197.75  47.42
1042.7  377686.58  179287.32  47.47
1046.5  377540.17  179393.50  47.52
1050.3  377564.36  179543.49  47.55
1054.2  377245.17  179519.83  47.59
1058.0  376856.67  179402.01  47.60
1061.8  376785.31  179487.27  47.64
1065.6  376257.60  179256.10  47.64
1069.4  375693.53  179022.63  47.65
1073.2  374644.07  178513.51  47.65
1077.0  374021.43  178164.06  47.63
1080.8  374009.38  178056.55  47.61
1084.6  373840.60  177885.52  47.58
1088.4  373944.75  177838.34  47.56
1092.2  373405.50  177468.11  47.53
1096.0  372789.18  177019.24  47.49
1099.8  372133.88  176540.28  47.44
1103.6  371276.87  175936.66  47.39
1107.4  370240.65  175206.64  47.32
1111.2  369988.90  174866.14  47.26
1114.9  369494.42  174362.17  47.19
1118.7  369252.68  173870.52  47.09
1122.5  368879.33  173220.91  46.96
1126.3  367938.32  172193.79  46.80
1130.1  367503.96  171157.50  46.57
1133.9  365863.40  169241.70  46.26
1137.7  364323.20  167086.72  45.86
1141.4  362318.88  164463.88  45.39
1145.2  361441.40  162206.17  44.88
1149.0  360198.13  159920.42  44.40
1152.8  358380.90  157621.52  43.98
1156.6  356533.10  155711.97  43.67
1160.3  354731.33  154158.62  43.46
1164.1  352328.43  152666.54  43.33
1167.9  350630.21  151666.52  43.26
1171.7  349342.88  150953.63  43.21
1175.4  347961.57  150237.79  43.18
1179.2  346643.15  149531.82  43.14
1183.0  346314.33  149221.71  43.09
1186.7  346217.90  149012.03  43.04
1190.5  345719.40  148674.00  43.00
1194.3  344739.90  148203.05  42.99
1198.0  343333.65  147606.01  42.99
1201.8  341659.20  146959.54  43.01
1205.6  340538.67  146611.95  43.05
1209.3  339893.30  146552.37  43.12
1213.1  339300.45  146529.19  43.19
1216.8  338616.58  146521.84  43.27
1220.6  337526.93  146329.33  43.35
1224.3  336295.42  146060.35  43.43
1228.1  334805.20  145718.94  43.52
1231.9  333260.93  145277.62  43.59
1235.6  331545.90  144734.67  43.65
1239.4  330016.38  144287.88  43.72
1243.1  328659.08  143854.36  43.77
1246.9  327377.23  143423.10  43.81
1250.6  326350.80  143061.89  43.84
1254.3  325172.83  142632.74  43.86
1258.1  323988.12  142158.95  43.88
1261.8  322556.93  141559.85  43.89
1265.6  321328.33  140981.88  43.87
1269.3  320424.10  140494.42  43.85
1273.1  320740.13  140504.13  43.81
1276.8  320620.00  140294.97  43.76
1280.6  319722.83  139701.19  43.69
1284.3  317832.00  138629.20  43.62
1288.0  316533.84  137729.33  43.51
1291.8  315900.42  137014.70  43.37
1295.5  315035.60  136153.81  43.22
1299.2  313855.51  135093.57  43.04
1302.9  312260.32  133756.73  42.84
1306.7  310535.05  132255.20  42.59
1310.4  308890.86  130625.25  42.29
1314.1  307331.02  128959.08  41.96
1317.9  305961.25  127213.37  41.58
1321.6  304441.00  125290.01  41.15
1325.3  302779.58  123165.90  40.68
1329.0  301494.32  121109.50  40.17
1332.8  299545.40  118683.40  39.62
1336.5  297867.93  116355.99  39.06
1340.2  297767.17  114668.67  38.51
1343.9  297840.00  113063.10  37.96
1347.6  298293.15  111624.04  37.42
1351.4  300204.00  110780.71  36.90
1355.1  302751.53  110204.50  36.40
1358.8  304832.00  109366.86  35.88
1362.5  305238.43  107774.03  35.31
1366.2  303087.05  104958.85  34.63
1369.9  299656.50  101334.66  33.82
1373.6  296801.46  97363.53  32.80
1377.3  295437.90  93137.66  31.53
1381.0  294993.17  88288.48  29.93
1384.8  292857.50  81976.60  27.99
1388.4  289442.18  74786.02  25.84
1392.2  287184.00  67625.82  23.55
1395.9  285661.65  60732.46  21.26
1399.6  283729.78  54276.82  19.13
1403.3  282137.20  48686.50  17.26
1407.0  280276.40  43960.00  15.68
1410.7  278340.98  40152.63  14.43
1414.3  276303.42  37172.86  13.45
1418.1  274546.58  34950.20  12.73
1421.7  273066.33  33306.76  12.20
1425.4  271696.43  32110.23  11.82
1429.1  270446.25  31272.75  11.56
1432.8  268767.56  30642.77  11.40
1436.5  267932.65  30289.09  11.30
1440.2  267217.40  30110.38  11.27
1443.9  266007.41  29967.52  11.27
1447.6  264356.40  29865.00  11.30
1451.2  263065.73  29852.93  11.35
1454.9  261595.05  29884.46  11.42
1458.6  260361.43  30038.89  11.54
1462.3  259204.73  30326.53  11.70
1466.0  257854.53  30745.24  11.92
1469.7  256152.33  31286.23  12.21
1473.3  255074.00  32040.00  12.56
1477.0  253026.83  32784.11  12.96
1480.7  251345.42  33642.59  13.39
1484.4  249311.07  34487.08  13.83
1488.0  247676.00  35424.19  14.30
1491.7  246044.68  36362.43  14.78
1495.4  244347.07  37300.53  15.27
1499.0  242759.00  38242.71  15.75
1502.7  241464.75  39229.81  16.25
1506.4  240013.90  40166.41  16.74
1510.0  238572.87  41078.40  17.22
1513.7  237055.88  41946.04  17.69
1517.4  235683.00  42815.71  18.17
1521.0  234429.87  43678.42  18.63
1524.7  233163.67  44485.23  19.08
1528.3  231876.00  45254.48  19.52
1532.0  230623.98  45992.10  19.94
1535.7  229218.09  46644.17  20.35
1539.3  227935.01  47292.88  20.75
1543.0  226949.01  47968.54  21.14
1546.6  226262.83  48674.01  21.51
1550.3  225249.60  49263.31  21.87
1553.9  224182.50  49810.32  22.22
1557.6  222919.40  50273.46  22.55
1561.2  221651.55  50688.32  22.87
1564.9  220305.93  51067.96  23.18
1568.5  218954.05  51411.97  23.48
1572.2  217803.10  51762.21  23.77
1575.8  216678.00  52114.00  24.05
1579.5  215672.20  52453.91  24.32
1583.1  214633.40  52768.21  24.59
1586.8  213332.00  52992.00  24.84
1590.4  212141.90  53216.41  25.09
1594.0  210788.83  53378.91  25.32
1597.7  209890.12  53638.63  25.56
1601.3  208882.80  53850.83  25.78
1604.9  207823.90  54023.42  25.99
1608.6  206477.90  54089.53  26.20
1612.2  205199.78  54142.51  26.39
1615.8  203825.38  54145.14  26.56
1619.5  202612.75  54159.69  26.73
1623.1  201273.63  54114.85  26.89
1626.7  200052.13  54067.28  27.03
1630.3  198841.33  54000.64  27.16
1634.0  197722.00  53930.00  27.28
1637.6  196722.33  53849.21  27.37
1641.2  195688.40  53695.08  27.44
1644.8  194469.27  53420.20  27.47
1648.5  193379.94  53139.68  27.48
1652.1  192394.50  52842.77  27.47
1655.7  191472.80  52544.06  27.44
1659.3  190613.64  52313.02  27.44
1662.9  189210.00  51959.28  27.46
1666.6  187775.93  51638.74  27.50
1670.2  186343.21  51306.89  27.53
1673.8  184857.90  50919.67  27.55
1677.4  183675.65  50567.96  27.53
1681.0  182848.33  50247.75  27.48
1684.6  182435.50  49989.80  27.40
1688.2  181742.60  49581.60  27.28
1691.8  181055.76  49198.86  27.17
1695.4  180624.00  48829.74  27.03
1699.0  180265.17  48464.50  26.89
1702.6  179912.00  48092.43  26.73
1706.2  179268.48  47650.42  26.58
1709.8  178325.70  47147.92  26.44
1713.4  177578.90  46696.58  26.30
1717.0  176690.25  46209.64  26.15
1720.6  175852.05  45724.40  26.00
1724.2  175115.03  45239.81  25.83
1727.8  174384.35  44750.10  25.66
1731.4  173907.25  44311.93  25.48
1735.0  173728.68  43947.91  25.30
1738.6  173488.05  43527.06  25.09
1742.2  172948.93  43006.82  24.87
1745.8  172303.51  42449.43  24.64
1749.4  171343.43  41798.51  24.39
1753.0  169841.47  41021.32  24.15
1756.6  168186.67  40224.79  23.92
1760.1  166838.65  39526.31  23.69
1763.7  165094.00  38758.28  23.48
1767.3  163647.20  38100.09  23.28
1770.9  162384.37  37511.83  23.10
1774.5  160890.55  36914.87  22.94
1778.0  159755.57  36429.62  22.80
1781.6  158665.95  36007.22  22.69
1785.2  157522.10  35611.40  22.61
1788.8  156345.40  35260.66  22.55
1792.3  155105.80  34923.51  22.52
1795.9  154622.33  34785.43  22.50
1799.5  154395.00  34719.57  22.49
1803.1  155197.70  34899.20  22.49
1806.6  157217.61  35343.93  22.48
1810.2  159043.27  35746.00  22.48
1813.8  160066.15  35977.18  22.48
1817.3  159781.60  35900.52  22.47
1820.9  158764.13  35641.73  22.45
1824.5  157488.38  35304.37  22.42
1828.0  156522.67  35006.45  22.37
1831.6  156236.88  34818.51  22.29
1835.2  156116.67  34605.12  22.17
1838.7  155971.73  34279.98  21.98
1842.3  155715.00  33846.43  21.74
1845.8  154415.25  33058.40  21.41
1849.4  153775.08  32256.53  20.98
1852.9  152834.97  31207.91  20.42
1856.5  151722.30  29905.62  19.71
1860.0  150629.03  28362.17  18.83
1863.6  150706.93  26788.33  17.78
1867.1  151571.70  25078.20  16.55
1870.7  152571.80  23046.52  15.11
1874.2  151419.15  20426.79  13.49
1877.8  148527.40  17572.35  11.83
1881.3  145405.38  14796.23  10.18
1884.9  143534.51  12431.17  8.66
1888.4  142027.99  10384.52  7.31
1891.9  140536.67  8761.28  6.23
1895.5  139298.35  7566.51  5.43
1899.0  138802.50  6780.21  4.88
1901.3  179143.33  5599.78  3.13
1904.1  179181.00  5117.00  2.86
1906.8  178195.80  4747.00  2.66
1909.6  175938.00  4431.58  2.52
1912.4  173810.00  4211.55  2.42
1915.1  172283.10  4063.22  2.36
1917.9  170743.00  3948.72  2.31
1920.6  169385.80  3873.46  2.29
1923.3  167936.30  3788.25  2.26
1926.1  166096.33  3736.00  2.25
1928.8  164325.33  3686.22  2.24
1931.6  162967.58  3666.02  2.25
1934.3  161772.33  3656.97  2.26
1937.0  160611.43  3661.84  2.28
1939.8  159351.92  3660.33  2.30
1942.5  157740.00  3670.33  2.33
1945.2  155705.00  3678.40  2.36
1947.9  154021.70  3698.95  2.40
1950.7  152701.83  3724.36  2.44
1953.4  150784.95  3756.33  2.49
1956.1  149291.83  3804.33  2.55
1958.8  147967.30  3866.42  2.61
1961.5  146399.60  3913.07  2.67
1964.2  144799.20  3973.67  2.74
1966.9  143116.70  4042.33  2.82
1969.6  141795.00  4128.00  2.91
1972.3  140353.00  4209.70  3.00
1975.0  139272.45  4298.15  3.09
1977.7  138121.90  4399.52  3.19
1980.4  136935.33  4506.07  3.29
1983.1  135788.23  4616.93  3.40
1985.8  134832.60  4738.60  3.51
1988.4  133770.00  4867.78  3.64
1991.1  132806.57  5001.58  3.77
1993.8  131903.93  5135.53  3.89
1996.5  131231.83  5284.89  4.03
1999.1  130533.88  5431.37  4.16
2001.8  129819.43  5588.64  4.30
2004.5  129127.20  5737.83  4.44
2007.1  128357.35  5884.88  4.58
2009.8  127574.77  6028.94  4.73
2012.4  126975.20  6186.77  4.87
2015.1  126400.63  6345.50  5.02
2017.8  125597.73  6483.63  5.16
2020.4  125062.30  6631.96  5.30
2023.1  124708.50  6785.80  5.44
2025.7  124470.67  6947.78  5.58
2028.3  124132.67  7098.00  5.72
2031.0  123711.45  7230.32  5.84
2033.6  123409.50  7368.90  5.97
2036.2  123131.10  7502.30  6.09
2038.9  122522.10  7603.80  6.21
2041.5  122164.08  7722.97  6.32
2044.1  121591.20  7818.40  6.43
2046.8  121199.70  7925.70  6.54
2049.4  120555.90  8004.00  6.64
2052.0  120249.27  8104.53  6.74
2054.6  119848.75  8195.83  6.84
2057.2  119271.13  8282.11  6.94
2059.8  118913.07  8381.09  7.05
2062.4  118006.23  8443.55  7.16
2065.0  117463.33  8529.56  7.26
2067.6  116559.27  8583.01  7.36
2070.2  115931.67  8652.75  7.46
2072.8  115277.92  8719.57  7.56
2075.4  114826.25  8802.50  7.67
2078.0  114174.55  8868.24  7.77
2080.6  113590.40  8940.80  7.87
2083.2  112879.60  8997.52  7.97
2085.8  112382.75  9055.62  8.06
2088.4  111697.50  9110.11  8.16
2090.9  110878.40  9145.82  8.25
2093.5  109969.07  9169.93  8.34
2096.1  109176.83  9202.01  8.43
2098.7  108377.55  9228.36  8.52
2101.2  107393.80  9248.60  8.61
2103.8  106703.87  9280.62  8.70
2106.4  106005.20  9301.00  8.77
2108.9  105332.73  9333.02  8.86
2111.5  104450.67  9347.58  8.95
2114.0  103804.40  9379.60  9.04
2116.6  103276.25  9409.17  9.11
2119.1  102701.50  9427.09  9.18
2121.7  102191.25  9452.92  9.25
2124.2  101781.00  9482.61  9.32
2126.8  100964.42  9480.14  9.39
2129.3  100548.80  9506.93  9.46
2131.9  99941.60  9515.73  9.52
2134.4  99500.55  9543.25  9.59
2136.9  99102.47  9579.20  9.67
2139.4  98561.87  9590.78  9.73
2142.0  98083.07  9617.38  9.81
2144.5  97802.10  9659.47  9.88
2147.0  97560.93  9713.51  9.96
2149.5  97042.80  9740.31  10.04
2152.1  96858.30  9794.83  10.11
2154.6  96786.67  9852.44  10.18
2157.1  96237.92  9861.47  10.25
2159.6  95811.00  9879.64  10.31
2162.1  95641.00  9922.03  10.37
2164.6  95388.53  9949.25  10.43
2167.1  95065.87  9966.98  10.48
2169.6  94719.68  9984.72  10.54
2172.1  94235.40  9987.39  10.60
2174.6  93908.40  10008.00  10.66
2177.1  93455.32  10013.62  10.71
2179.5  93026.92  10027.84  10.78
2182.0  92536.95  10032.55  10.84
2184.5  91975.43  10018.27  10.89
2187.0  91342.97  10008.77  10.96
2189.5  90651.18  9989.11  11.02
2191.9  89851.00  9956.00  11.08
2194.4  89206.55  9941.55  11.14
2196.9  88444.80  9910.40  11.21
2199.3  87754.00  9882.56  11.26
2201.8  86831.07  9830.67  11.32
2204.3  86347.40  9819.94  11.37
2206.7  85685.15  9787.62  11.42
2209.2  85204.22  9761.44  11.46
2211.6  84565.80  9725.10  11.50
2214.1  84266.55  9724.47  11.54
2216.5  83678.40  9678.38  11.57
2219.0  83330.73  9651.89  11.58
2221.4  82952.92  9619.17  11.60
2223.9  82457.08  9566.28  11.60
2226.3  81921.58  9503.47  11.60
2228.7  81349.72  9422.11  11.58
2231.1  80754.30  9329.10  11.55
2233.6  80142.13  9224.76  11.51
2236.0  79591.17  9123.33  11.46
2238.4  79085.42  9010.95  11.39
2240.9  78612.40  8893.64  11.31
2243.3  78046.20  8754.58  11.22
2245.7  77470.70  8616.70  11.12
2248.1  76962.60  8474.99  11.01
2250.5  76452.37  8322.77  10.89
2252.9  75816.43  8159.38  10.76
2255.3  75231.95  8003.12  10.64
2257.7  74750.00  7853.33  10.51
2260.1  74236.63  7702.26  10.38
2262.5  73610.00  7530.00  10.23
2264.9  73068.02  7384.34  10.11
2267.3  72440.00  7236.67  9.99
2269.7  71939.00  7106.94  9.88
2272.1  71378.77  6971.60  9.77
2274.5  70791.82  6841.91  9.66
2276.8  70296.97  6731.20  9.58
2279.2  69696.75  6606.20  9.48
2281.6  69258.67  6496.35  9.38
2284.0  68791.10  6389.93  9.29
2286.3  68318.93  6289.42  9.21
2288.7  67882.10  6188.07  9.12
2291.1  67335.33  6075.19  9.02
2293.4  66866.80  5978.62  8.94
2295.8  66249.60  5846.97  8.83
2298.2  65650.05  5730.45  8.73
2300.5  64956.60  5592.45  8.61
2302.9  64190.67  5462.89  8.51
2305.2  63427.40  5338.83  8.42
2307.6  62735.65  5237.43  8.35
2309.9  61948.33  5118.45  8.26
2312.2  61338.67  5011.67  8.17
2314.6  60733.80  4916.25  8.09
2316.9  60009.30  4816.20  8.03
2319.2  59432.10  4723.74  7.95
2321.6  58790.43  4627.51  7.87
2323.9  58229.17  4534.72  7.79
2326.2  57685.90  4441.12  7.70
2328.6  57161.50  4357.65  7.62
2330.9  56637.00  4273.50  7.55
2333.2  56165.75  4194.53  7.47
2335.5  55714.90  4115.93  7.39
2337.8  55232.23  4032.97  7.30
2340.1  54649.93  3950.30  7.23
2342.4  54199.17  3871.11  7.14
2344.8  53764.58  3791.72  7.05
2347.1  53177.37  3710.39  6.98
2349.4  52604.58  3635.50  6.91
2351.6  52009.68  3554.71  6.83
2353.9  51492.57  3475.50  6.75
2356.2  50947.68  3401.70  6.68
2358.5  50366.40  3330.13  6.61
2360.8  49784.00  3255.47  6.54
2363.1  49319.68  3189.27  6.47
2365.4  48849.90  3111.27  6.37
2367.7  48381.60  3043.80  6.29
2369.9  47815.20  2977.00  6.23
2372.2  47185.33  2908.71  6.16
2374.5  46569.60  2829.75  6.08
2376.7  45932.30  2741.53  5.97
2379.0  45311.83  2675.67  5.91
2381.3  44683.33  2609.44  5.84
2383.5  44152.53  2542.22  5.76
2385.8  43536.67  2471.00  5.68
2388.0  42987.40  2391.47  5.56
2390.3  42458.93  2329.82  5.49
2392.5  41952.00  2276.00  5.43
2394.8  41478.80  2214.30  5.34
2397.0  40998.53  2151.64  5.25
2399.3  40521.77  2087.41  5.15
2401.5  40057.50  2025.33  5.06
2403.8  39511.87  1974.77  5.00
2406.0  38988.33  1912.17  4.90
2408.2  38584.33  1861.69  4.82
2410.4  38161.55  1818.41  4.77
2412.7  37737.70  1767.71  4.68
2414.9  37355.45  1716.18  4.59
2417.1  36957.00  1667.93  4.51
2419.3  36531.20  1634.13  4.47
2421.6  36140.83  1597.36  4.42
2423.8  35723.17  1534.39  4.30
2426.0  35353.62  1480.10  4.19
2428.2  34992.53  1450.40  4.14
2430.4  34684.57  1420.38  4.10
2432.6  34386.67  1386.67  4.03
2434.8  34111.73  1350.03  3.96
2437.0  33731.10  1311.99  3.89
2439.2  33332.10  1266.06  3.80
2441.4  33019.93  1236.09  3.74
2443.6  32786.95  1197.44  3.65
2445.7  32528.65  1166.20  3.59
2447.9  32244.92  1136.53  3.52
2450.1  31935.65  1119.32  3.50
2452.3  31564.87  1086.98  3.44
2454.5  31174.97  1059.02  3.40
2456.6  30773.20  1027.20  3.34
2458.8  30401.80  1001.00  3.29
2461.0  30087.58  980.33  3.26
2463.1  29783.85  945.75  3.18
2465.3  29515.43  936.53  3.17
2467.5  29264.00  919.42  3.14
2469.6  29027.83  895.00  3.08
2471.8  28711.87  875.97  3.05
2473.9  28417.00  859.75  3.03
2476.1  28028.00  834.17  2.98
2478.2  27633.27  812.45  2.94
2480.4  27338.35  793.08  2.90
2482.5  27018.42  779.33  2.88
2484.6  26694.25  763.58  2.86
2486.8  26407.40  737.90  2.79
2488.9  26089.85  726.03  2.78
2491.1  25719.87  714.00  2.78
2493.2  25355.07  707.85  2.79
2495.3  24947.87  694.78  2.78
2497.4  24584.70  692.30  2.82
2499.5  24258.82  663.52  2.74
2501.7  24107.70  651.85  2.70
2503.8  24021.85  657.52  2.74
2505.9  24002.08  649.17  2.70
2508.0  23997.83  659.79  2.75
2510.1  23999.43  643.80  2.68
2512.2  24130.25  642.25  2.66
2514.3  24317.65  651.76  2.68
2516.4  24506.80  689.50  2.81
