/*** Spectra Vista SIG Data ***/
name= 26_20221020_TITO_37_avg.sig
comm= Averaged Ref/Tar of files: HR.102022.0074_moc.sig,HR.102022.0075_moc.sig,HR.102022.0076_moc.sig
data=
337.3  3027.13  223.08  7.37
338.8  3126.50  222.63  7.12
340.3  3279.50  215.06  6.56
341.8  3475.10  230.80  6.64
343.2  3685.20  225.81  6.13
344.7  3838.50  226.65  5.90
346.2  4003.30  217.09  5.42
347.7  4168.45  194.75  4.67
349.2  4347.00  208.08  4.79
350.6  4553.90  205.66  4.52
352.1  4858.60  209.59  4.31
353.6  5135.60  216.13  4.21
355.1  5421.68  209.75  3.87
356.6  5702.85  212.88  3.73
358.0  5933.40  216.31  3.65
359.5  6210.90  228.95  3.69
361.0  6463.80  231.42  3.58
362.5  6850.35  240.89  3.52
364.0  7197.43  247.42  3.44
365.4  7558.90  255.31  3.38
366.9  7900.75  256.25  3.24
368.4  8237.05  265.48  3.22
369.9  8566.93  281.57  3.29
371.3  8944.50  297.51  3.33
372.8  9372.15  311.52  3.32
374.3  9809.38  315.33  3.21
375.8  10187.10  316.21  3.10
377.2  10598.60  322.80  3.05
378.7  11002.10  329.97  3.00
380.2  11378.70  335.10  2.94
381.7  11836.95  347.98  2.94
383.1  12289.20  356.77  2.90
384.6  12786.15  361.72  2.83
386.1  13242.25  358.79  2.71
387.6  13690.60  367.55  2.68
389.0  14123.60  377.75  2.67
390.5  14575.95  388.89  2.67
392.0  15102.95  410.10  2.72
393.4  15633.63  416.90  2.67
394.9  16182.00  423.57  2.62
396.4  16689.38  431.74  2.59
397.9  17194.38  442.70  2.57
399.3  17702.18  458.26  2.59
400.8  18270.03  474.76  2.60
402.2  18878.95  487.73  2.58
403.7  19452.60  494.80  2.54
405.2  20052.73  509.13  2.54
406.6  20578.40  518.80  2.52
408.1  21153.60  532.07  2.52
409.6  21752.45  541.85  2.49
411.0  22374.80  557.13  2.49
412.5  23011.63  577.55  2.51
414.0  23655.38  596.50  2.52
415.4  24327.00  607.23  2.50
416.9  24961.13  623.04  2.50
418.4  25640.78  632.46  2.47
419.8  26317.20  647.92  2.46
421.3  27022.70  667.84  2.47
422.7  27753.00  686.72  2.47
424.2  28501.88  704.25  2.47
425.7  29242.20  720.30  2.46
427.1  29988.38  734.58  2.45
428.6  30752.00  747.84  2.43
430.0  31472.95  765.98  2.43
431.5  32297.70  786.62  2.44
432.9  33152.95  803.38  2.42
434.4  34021.88  825.94  2.43
435.9  34832.00  842.93  2.42
437.3  35653.75  864.81  2.43
438.8  36476.03  882.25  2.42
440.2  37312.28  902.70  2.42
441.7  38243.60  923.20  2.41
443.1  39127.25  945.92  2.42
444.6  40072.90  966.16  2.41
446.0  40988.03  991.78  2.42
447.5  41915.78  1018.49  2.43
448.9  42828.00  1041.83  2.43
450.4  43809.85  1068.81  2.44
451.8  44668.00  1092.99  2.45
453.3  45566.38  1119.47  2.46
454.7  46547.28  1142.34  2.45
456.2  47385.18  1168.33  2.47
457.6  48334.28  1193.99  2.47
459.1  49275.85  1216.00  2.47
460.5  50196.38  1239.42  2.47
462.0  51246.23  1265.68  2.47
463.4  52265.50  1292.50  2.47
464.8  53224.50  1317.20  2.47
466.3  54178.58  1341.06  2.48
467.7  55117.70  1363.80  2.47
469.2  56159.25  1393.29  2.48
470.6  57127.30  1419.45  2.48
472.0  58157.90  1445.03  2.48
473.5  59155.50  1466.85  2.48
474.9  60177.75  1496.11  2.49
476.4  61315.20  1525.58  2.49
477.8  62335.50  1558.54  2.50
479.2  63307.00  1587.54  2.51
480.7  64370.33  1613.76  2.51
482.1  65487.40  1645.10  2.51
483.6  66643.40  1679.23  2.52
485.0  67699.58  1712.46  2.53
486.4  68865.15  1749.05  2.54
487.9  69907.50  1783.97  2.55
489.3  71033.40  1823.38  2.57
490.7  72064.15  1859.56  2.58
492.2  73250.10  1905.68  2.60
493.6  74334.10  1949.15  2.62
495.0  75421.13  1998.75  2.65
496.5  76574.15  2054.78  2.68
497.9  77674.78  2115.16  2.72
499.3  78804.75  2188.95  2.78
500.7  80018.30  2271.45  2.84
502.2  81161.40  2359.64  2.91
503.6  82402.40  2463.92  2.99
505.0  83446.40  2582.31  3.09
506.5  84734.63  2728.45  3.22
507.9  85881.23  2895.82  3.37
509.3  87172.00  3096.44  3.55
510.7  88364.25  3317.79  3.75
512.2  89730.53  3577.12  3.99
513.6  91194.25  3873.95  4.25
515.0  92590.53  4216.02  4.55
516.4  93951.90  4598.10  4.89
517.8  95541.50  5026.08  5.26
519.3  96836.00  5480.40  5.66
520.7  98378.10  5982.09  6.08
522.1  99655.73  6489.46  6.51
523.5  100969.60  7021.22  6.95
524.9  102420.90  7571.00  7.39
526.3  103807.90  8105.43  7.81
527.8  105227.10  8643.27  8.21
529.2  106251.90  9148.32  8.61
530.6  107782.55  9685.35  8.99
532.0  109424.00  10208.80  9.33
533.4  110731.28  10662.71  9.63
534.8  111605.78  11036.96  9.89
536.3  113120.10  11455.20  10.13
537.7  115000.20  11887.44  10.34
539.1  116384.98  12252.93  10.53
540.5  117547.75  12583.87  10.71
541.9  119245.43  12960.13  10.87
543.3  120518.90  13284.57  11.02
544.7  121820.40  13606.82  11.17
546.1  123574.00  13981.00  11.31
547.5  124790.40  14282.88  11.45
549.0  126390.00  14622.04  11.57
550.4  127850.63  14920.33  11.67
551.8  129383.83  15200.10  11.75
553.2  130843.23  15433.37  11.80
554.6  132142.40  15602.18  11.81
556.0  133608.15  15739.89  11.78
557.4  135174.90  15833.04  11.71
558.8  136795.95  15888.73  11.61
560.2  138215.75  15869.20  11.48
561.6  139840.95  15826.94  11.32
563.0  141391.55  15722.68  11.12
564.4  142973.60  15576.82  10.89
565.8  144446.88  15381.96  10.65
567.2  146167.75  15168.35  10.38
568.6  147606.38  14897.51  10.09
570.0  148985.63  14591.94  9.79
571.4  150655.70  14297.23  9.49
572.8  152379.13  14010.08  9.19
574.2  153966.40  13724.37  8.91
575.6  155486.25  13447.71  8.65
577.0  156968.30  13202.27  8.41
578.4  158635.75  12992.85  8.19
579.8  160133.63  12796.92  7.99
581.2  161806.93  12633.51  7.81
582.5  163191.60  12470.64  7.64
583.9  164680.80  12329.54  7.49
585.3  166425.30  12227.78  7.35
586.7  167881.03  12122.12  7.22
588.1  169325.63  12033.77  7.11
589.5  170936.50  11972.33  7.00
590.9  172521.20  11923.37  6.91
592.3  174281.85  11904.33  6.83
593.7  175713.53  11879.25  6.76
595.0  177292.80  11876.19  6.70
596.4  178710.00  11866.39  6.64
597.8  180160.43  11865.38  6.59
599.2  181645.20  11857.87  6.53
600.6  183365.33  11854.68  6.47
602.0  184620.60  11804.03  6.39
603.3  186380.25  11766.30  6.31
604.7  188003.90  11697.20  6.22
606.1  189460.20  11593.58  6.12
607.5  191064.93  11481.63  6.01
608.9  192723.85  11351.60  5.89
610.2  194069.93  11193.66  5.77
611.6  195636.53  11041.98  5.64
613.0  197170.25  10888.97  5.52
614.4  198520.20  10722.93  5.40
615.8  199938.38  10572.34  5.29
617.1  201448.80  10435.60  5.18
618.5  203026.40  10323.07  5.08
619.9  204532.20  10232.01  5.00
621.3  206105.40  10165.14  4.93
622.6  207674.50  10126.58  4.88
624.0  209115.75  10109.89  4.83
625.4  210562.28  10112.61  4.80
626.8  212073.23  10140.74  4.78
628.1  213310.08  10168.90  4.77
629.5  215056.35  10230.08  4.76
630.9  216498.15  10273.01  4.75
632.2  217738.33  10284.59  4.72
633.6  219217.13  10272.39  4.69
635.0  220624.40  10215.49  4.63
636.3  222080.10  10107.15  4.55
637.7  223425.13  9939.82  4.45
639.1  225015.00  9739.00  4.33
640.4  226487.45  9498.71  4.19
641.8  227660.90  9226.56  4.05
643.2  229187.88  8964.09  3.91
644.5  230534.00  8696.39  3.77
645.9  232045.65  8451.15  3.64
647.2  232982.05  8210.97  3.52
648.6  234373.50  8035.97  3.43
650.0  235656.00  7905.19  3.35
651.3  236740.90  7792.67  3.29
652.7  238982.40  7749.63  3.24
654.0  241091.20  7713.59  3.20
655.4  242439.88  7658.91  3.16
656.8  242640.30  7565.37  3.12
658.1  244025.00  7491.86  3.07
659.5  246180.38  7417.50  3.01
660.8  247432.50  7316.57  2.96
662.2  248438.40  7201.28  2.90
663.5  249940.60  7116.69  2.85
664.9  250923.40  7034.11  2.80
666.2  251703.60  6964.88  2.77
667.6  253388.75  6948.82  2.74
668.9  254262.20  6944.99  2.73
670.3  256126.63  6966.51  2.72
671.6  257114.63  7002.88  2.72
673.0  258287.25  7071.99  2.74
674.3  259564.50  7144.82  2.75
675.7  260860.28  7240.60  2.78
677.0  261899.28  7351.74  2.81
678.4  263176.73  7479.27  2.84
679.7  264211.90  7629.88  2.89
681.1  265429.80  7817.07  2.95
682.4  266503.90  8028.40  3.01
683.8  267675.20  8286.87  3.10
685.1  268686.00  8616.53  3.21
686.4  269974.20  9072.82  3.36
687.8  271160.75  9694.22  3.58
689.1  272273.25  10571.08  3.88
690.5  273541.65  11816.13  4.32
691.8  274329.85  13510.26  4.92
693.1  275673.15  15789.85  5.73
694.5  276844.75  18635.07  6.73
695.8  278073.25  22044.97  7.93
697.1  279233.50  25964.90  9.30
698.5  280254.20  30339.31  10.83
699.8  281283.38  35096.58  12.48
701.1  282439.80  40149.43  14.22
702.5  283228.00  45329.37  16.00
703.8  284130.00  50610.43  17.81
705.1  285268.43  55933.08  19.61
706.5  286288.13  61203.08  21.38
707.8  287219.85  66389.72  23.11
709.1  288059.48  71435.32  24.80
710.5  289131.08  76454.41  26.44
711.8  289944.60  81296.88  28.04
713.1  290925.80  86072.90  29.59
714.4  291817.80  90715.98  31.09
715.8  292642.90  95226.95  32.54
717.1  293924.85  99765.29  33.94
718.4  294873.60  104058.03  35.29
719.7  295905.85  108261.43  36.59
721.0  296392.50  112120.71  37.83
722.4  297163.90  115913.87  39.01
723.7  298096.65  119616.16  40.13
725.0  299083.73  123182.92  41.19
726.3  300011.80  126539.19  42.18
727.6  300513.95  129574.26  43.12
729.0  301417.90  132573.75  43.98
730.3  302180.10  135371.65  44.80
731.6  303056.65  138032.65  45.55
732.9  303808.58  140479.48  46.24
734.2  304599.63  142796.32  46.88
735.5  305589.75  145059.63  47.47
736.8  306369.90  147083.55  48.01
738.1  307234.50  149006.26  48.50
739.5  308134.55  150853.38  48.96
740.8  308825.55  152446.62  49.36
742.1  309464.53  153939.58  49.74
743.4  310100.00  155318.57  50.09
744.7  310961.60  156728.52  50.40
746.0  311830.35  158052.18  50.69
747.3  312400.48  159146.19  50.94
748.6  313120.00  160229.25  51.17
749.9  313768.00  161200.00  51.38
751.2  314323.00  162082.68  51.57
752.5  315055.20  162980.75  51.73
753.8  315507.50  163703.82  51.89
755.1  316134.00  164456.69  52.02
756.4  316713.18  165130.25  52.14
757.7  317671.73  165971.10  52.25
759.0  319420.50  167172.64  52.34
760.3  320548.80  168023.18  52.42
761.6  322019.60  169041.23  52.49
762.9  322498.00  169503.29  52.56
764.2  322826.90  169861.97  52.62
765.5  323083.88  170145.28  52.66
766.8  323435.20  170490.64  52.71
768.1  323895.40  170869.01  52.75
769.3  324445.10  171267.26  52.79
770.6  325058.50  171702.97  52.82
771.9  325731.18  172141.20  52.85
773.2  326032.00  172403.15  52.88
774.5  326583.40  172783.77  52.91
775.8  327187.85  173178.58  52.93
777.1  327704.30  173524.68  52.95
778.4  327971.05  173731.93  52.97
779.6  328639.60  174168.12  53.00
780.9  329040.00  174438.86  53.01
782.2  329452.75  174726.30  53.04
783.5  329674.50  174915.47  53.06
784.8  330166.58  175225.15  53.07
786.0  330501.50  175446.89  53.09
787.3  330802.25  175674.86  53.11
788.6  331139.13  175900.72  53.12
789.9  331499.00  176164.05  53.14
791.2  332102.13  176511.21  53.15
792.4  332717.75  176881.04  53.16
793.7  333131.60  177147.24  53.18
795.0  333649.80  177489.76  53.20
796.2  334241.35  177842.23  53.21
797.5  334818.45  178192.16  53.22
798.8  335447.68  178552.51  53.23
800.0  336022.83  178911.14  53.24
801.3  336379.80  179150.20  53.26
802.6  336896.55  179472.78  53.27
803.8  337474.65  179823.62  53.29
805.1  337872.50  180061.78  53.29
806.4  338251.80  180313.15  53.31
807.7  338733.90  180605.31  53.32
808.9  339215.55  180900.86  53.33
810.2  339655.40  181191.73  53.35
811.4  340088.10  181463.58  53.36
812.7  340681.25  181788.75  53.36
814.0  341421.55  182227.09  53.37
815.2  342016.00  182586.67  53.39
816.5  342385.23  182825.28  53.40
817.7  342800.00  183091.11  53.41
819.0  343255.00  183380.52  53.42
820.2  343376.00  183480.84  53.43
821.5  344028.25  183878.06  53.45
822.7  344316.38  184096.77  53.47
824.0  344663.10  184285.44  53.47
825.2  345074.18  184562.09  53.48
826.5  345343.88  184751.60  53.50
827.7  345876.05  185081.95  53.51
829.0  346288.58  185315.56  53.51
830.2  346595.05  185518.50  53.53
831.5  347038.00  185786.17  53.53
832.7  347359.43  185981.98  53.54
834.0  347643.73  186208.03  53.56
835.2  347978.13  186438.74  53.58
836.4  348268.80  186639.64  53.59
837.7  348722.80  186911.54  53.60
838.9  349120.43  187183.66  53.62
840.1  349483.95  187413.76  53.63
841.4  349878.10  187680.04  53.64
842.6  350210.20  187911.65  53.66
843.8  350545.20  188161.81  53.68
845.1  351114.60  188485.43  53.68
846.3  351524.90  188734.61  53.69
847.5  351941.10  188986.04  53.70
848.8  352260.00  189237.49  53.72
850.0  352656.85  189494.17  53.73
851.2  353099.25  189803.73  53.75
852.5  353521.40  190023.03  53.75
853.7  354046.50  190331.14  53.76
854.9  354560.40  190618.55  53.76
856.1  354901.95  190882.74  53.78
857.4  355131.70  191044.29  53.80
858.6  355607.00  191349.13  53.81
859.8  356032.50  191576.75  53.81
861.0  356405.40  191838.55  53.83
862.2  356867.58  192094.74  53.83
863.5  357257.55  192314.52  53.83
864.7  357772.80  192611.26  53.84
865.9  358118.60  192842.07  53.85
867.1  358441.10  193066.83  53.86
868.3  358905.75  193301.19  53.86
869.5  359413.15  193563.13  53.86
870.8  359856.00  193843.71  53.87
872.0  360334.50  194131.41  53.88
873.2  360740.40  194370.21  53.88
874.4  361152.68  194606.43  53.88
875.6  361540.30  194822.71  53.89
876.8  362037.85  195094.65  53.89
878.0  362526.00  195339.46  53.88
879.2  362998.80  195623.89  53.89
880.4  363517.88  195891.16  53.89
881.6  363926.23  196130.23  53.89
882.8  364313.60  196332.16  53.89
884.0  364827.05  196629.14  53.90
885.2  365270.50  196883.99  53.90
886.5  365795.45  197181.00  53.90
887.7  366221.70  197411.96  53.91
888.8  366834.23  197746.85  53.91
890.0  367396.30  198019.10  53.90
891.2  367959.90  198303.11  53.89
892.4  368411.93  198585.96  53.90
893.6  368924.15  198881.08  53.91
894.8  369690.50  199305.73  53.91
896.0  370599.50  199698.56  53.89
897.2  371364.50  200116.37  53.89
898.4  372065.10  200498.26  53.89
899.6  372495.75  200761.69  53.90
900.8  372782.80  200911.94  53.90
902.0  372934.65  200988.59  53.89
903.2  373217.48  201097.86  53.88
904.3  373459.20  201254.41  53.89
905.5  373999.15  201512.23  53.88
906.7  374436.50  201800.84  53.89
907.9  374928.40  202032.32  53.89
909.1  375198.08  202160.88  53.88
910.2  375170.40  202154.86  53.88
911.4  375485.18  202241.52  53.86
912.6  375589.50  202286.98  53.86
913.8  375713.03  202363.62  53.86
915.0  375849.60  202521.34  53.88
916.2  376067.25  202546.50  53.86
917.3  375917.85  202505.97  53.87
918.5  375989.00  202514.90  53.86
919.7  376233.00  202589.51  53.85
920.8  376194.70  202588.21  53.85
922.0  376087.25  202587.00  53.87
923.2  376194.00  202586.80  53.85
924.4  376241.63  202578.36  53.84
925.5  376424.90  202630.61  53.83
926.7  377009.00  202864.04  53.81
927.9  377839.80  203260.78  53.80
929.0  379205.55  203916.27  53.77
930.2  381103.90  204939.39  53.78
931.4  383368.95  206115.35  53.76
932.5  385895.75  207451.11  53.76
933.7  387159.75  208014.72  53.73
934.9  387690.63  208254.50  53.72
936.0  387335.00  207866.66  53.67
937.2  385002.15  206626.57  53.67
938.3  383274.95  205559.48  53.63
939.5  381715.20  204628.87  53.61
940.7  381789.90  204574.10  53.58
941.8  383128.20  205190.45  53.56
943.0  384491.25  205792.66  53.52
944.2  385026.20  206043.12  53.51
945.3  384579.00  205641.61  53.47
946.5  383744.25  205031.75  53.43
947.6  383688.40  204993.42  53.43
948.8  383587.43  204609.53  53.34
949.9  383350.80  204525.20  53.35
951.1  382802.23  204061.88  53.31
952.2  382500.00  203611.43  53.23
953.4  382169.00  203211.59  53.17
954.5  382028.40  202982.30  53.13
955.7  381918.60  202645.44  53.06
956.8  381542.90  202314.96  53.03
958.0  381201.50  201881.43  52.96
959.1  380798.08  201514.38  52.92
960.3  380148.68  201116.42  52.90
961.4  379971.00  200886.49  52.87
962.6  380243.50  200805.47  52.81
963.7  379763.10  200535.66  52.81
964.9  379549.80  200380.11  52.79
966.0  379333.13  200180.12  52.77
967.2  379055.25  200145.20  52.80
968.3  379075.95  199915.17  52.74
969.5  378544.55  199685.78  52.75
970.6  378518.48  199671.21  52.75
971.8  378772.63  199707.92  52.73
972.9  378416.70  199687.22  52.77
974.0  378369.90  199810.84  52.81
975.2  378648.75  199717.32  52.74
976.3  378602.40  199572.09  52.71
977.5  378553.18  199525.13  52.71
978.6  378494.60  199455.57  52.70
979.7  378854.70  199604.57  52.69
980.9  378326.08  199532.17  52.74
982.0  378680.55  199357.52  52.65
983.2  378084.50  199143.97  52.67
984.3  377397.20  198927.22  52.71
985.4  377809.48  198765.31  52.61
986.6  377686.88  198777.64  52.63
987.7  378290.50  199046.65  52.62
988.9  377791.20  198954.27  52.66
990.0  376948.60  199126.44  52.83
993.1  386769.54  203601.57  52.64
996.9  385308.35  203322.52  52.77
1000.7  385223.36  203692.43  52.88
1004.5  385290.08  204113.72  52.98
1008.4  384959.29  204323.26  53.08
1012.2  384839.63  204619.24  53.17
1016.0  384388.80  204760.13  53.27
1019.8  383754.53  204712.20  53.34
1023.7  382452.00  204320.09  53.42
1027.5  380686.28  203625.96  53.49
1031.3  379497.20  203211.63  53.55
1035.1  378353.33  202765.28  53.59
1038.9  377818.28  202639.27  53.63
1042.7  377524.50  202647.39  53.68
1046.5  377443.67  202707.19  53.71
1050.3  377438.33  202815.64  53.73
1054.2  377090.58  202724.02  53.76
1058.0  376735.10  202584.10  53.77
1061.8  376695.33  202637.03  53.79
1065.6  376077.40  202317.88  53.80
1069.4  375250.53  201870.18  53.80
1073.2  373902.61  201136.22  53.79
1077.0  373180.73  200693.77  53.78
1080.8  373465.63  200771.30  53.76
1084.6  373689.52  200813.25  53.74
1088.4  374094.21  200945.07  53.72
1092.2  373668.75  200609.50  53.69
1096.0  372962.53  200110.10  53.65
1099.8  372275.80  199604.22  53.62
1103.6  371360.92  198961.92  53.58
1107.4  370212.89  198188.33  53.53
1111.2  369905.80  197858.02  53.49
1114.9  369412.17  197393.91  53.43
1118.7  369198.23  197036.40  53.37
1122.5  368906.20  196532.65  53.27
1126.3  368044.95  195612.93  53.15
1130.1  367662.31  194758.77  52.97
1133.9  365967.00  192920.47  52.72
1137.7  364400.30  190911.02  52.39
1141.4  362369.37  188443.06  52.00
1145.2  361416.34  186472.98  51.60
1149.0  360123.75  184450.00  51.22
1152.8  358282.70  182384.68  50.91
1156.6  356411.18  180588.39  50.67
1160.3  354585.33  179098.74  50.51
1164.1  352279.97  177560.33  50.40
1167.9  350678.13  176519.67  50.34
1171.7  349390.13  175738.50  50.30
1175.4  347891.27  174885.57  50.27
1179.2  346479.18  174037.34  50.23
1183.0  346196.00  173734.37  50.18
1186.7  346288.60  173654.91  50.15
1190.5  346021.87  173424.56  50.12
1194.3  345085.40  172903.55  50.10
1198.0  343561.90  172136.01  50.10
1201.8  341861.93  171340.16  50.12
1205.6  340829.00  170969.11  50.16
1209.3  340333.63  170908.04  50.22
1213.1  339929.03  170938.68  50.29
1216.8  339330.29  170928.15  50.37
1220.6  338184.00  170622.87  50.45
1224.3  336897.92  170226.33  50.53
1228.1  335367.80  169741.38  50.61
1231.9  333736.55  169140.71  50.68
1235.6  331978.88  168441.92  50.74
1239.4  330388.88  167831.94  50.80
1243.1  328990.13  167274.25  50.84
1246.9  327704.68  166732.69  50.88
1250.6  326655.67  166289.82  50.91
1254.3  325491.28  165759.12  50.93
1258.1  324217.13  165169.95  50.94
1261.8  322766.53  164450.60  50.95
1265.6  321672.00  163860.27  50.94
1269.3  321016.48  163461.65  50.92
1273.1  321387.86  163569.94  50.89
1276.8  321079.20  163278.40  50.85
1280.6  319853.77  162477.36  50.80
1284.3  317832.00  161215.65  50.72
1288.0  316647.53  160330.51  50.63
1291.8  316257.73  159796.35  50.53
1295.5  315584.13  159078.25  50.41
1299.2  314444.12  158047.52  50.26
1302.9  312791.00  156676.45  50.09
1306.7  311000.55  155152.87  49.89
1310.4  309245.25  153542.33  49.65
1314.1  307665.78  151916.44  49.38
1317.9  306250.21  150238.05  49.06
1321.6  304729.64  148402.33  48.70
1325.3  303038.40  146390.07  48.31
1329.0  301754.13  144509.01  47.89
1332.8  299838.00  142241.24  47.44
1336.5  298203.80  140086.93  46.98
1340.2  298131.17  138667.15  46.51
1343.9  298189.79  137331.25  46.05
1347.6  298648.50  136162.57  45.59
1351.4  300545.00  135683.56  45.15
1355.1  303177.23  135523.26  44.70
1358.8  305328.00  135050.67  44.23
1362.5  305804.55  133670.20  43.71
1366.2  303636.15  130815.00  43.08
1369.9  300132.75  127014.11  42.32
1373.6  297149.24  122879.93  41.35
1377.3  295771.80  118614.00  40.10
1381.0  295397.33  113798.96  38.52
1384.8  293328.75  107311.39  36.58
1388.4  289905.70  99700.48  34.39
1392.2  287602.17  92096.74  32.02
1395.9  286110.35  84736.64  29.62
1399.6  284223.98  77717.40  27.34
1403.3  282625.71  71546.34  25.31
1407.0  280747.40  66233.07  23.59
1410.7  278779.88  61877.93  22.20
1414.3  276686.96  58397.20  21.11
1418.1  274883.00  55787.40  20.29
1421.7  273388.50  53845.84  19.70
1425.4  271940.83  52417.01  19.28
1429.1  270646.13  51400.33  18.99
1432.8  268952.46  50621.51  18.82
1436.5  268151.17  50238.02  18.73
1440.2  267528.73  50069.32  18.72
1443.9  266425.68  49948.57  18.75
1447.6  264849.20  49824.13  18.81
1451.2  263583.10  49829.51  18.90
1454.9  262110.15  49880.53  19.03
1458.6  260859.46  50114.40  19.21
1462.3  259655.73  50528.71  19.46
1466.0  258301.78  51122.33  19.79
1469.7  256582.73  51837.00  20.20
1473.3  255519.00  52856.11  20.69
1477.0  253440.30  53773.64  21.22
1480.7  251772.93  54845.55  21.78
1484.4  249723.83  55864.37  22.37
1488.0  248101.33  57010.96  22.98
1491.7  246526.21  58155.90  23.59
1495.4  244871.17  59291.24  24.21
1499.0  243339.00  60419.89  24.83
1502.7  242055.83  61591.20  25.45
1506.4  240645.67  62701.25  26.06
1510.0  239176.27  63752.88  26.66
1513.7  237656.13  64744.43  27.24
1517.4  236285.00  65732.67  27.82
1521.0  235029.07  66710.93  28.38
1524.7  233797.42  67621.91  28.92
1528.3  232483.38  68474.86  29.45
1532.0  231259.23  69290.87  29.96
1535.7  229852.97  69993.01  30.45
1539.3  228572.13  70687.84  30.93
1543.0  227607.40  71423.82  31.38
1546.6  226896.58  72203.68  31.82
1550.3  225881.85  72828.95  32.24
1553.9  224828.03  73394.34  32.64
1557.6  223588.20  73852.86  33.03
1561.2  222307.20  74235.70  33.39
1564.9  220984.98  74570.15  33.74
1568.5  219634.33  74862.02  34.08
1572.2  218463.45  75161.26  34.40
1575.8  217350.00  75460.00  34.72
1579.5  216323.15  75756.42  35.02
1583.1  215259.28  76004.41  35.31
1586.8  213934.00  76122.67  35.58
1590.4  212703.23  76241.54  35.84
1594.0  211370.68  76303.86  36.10
1597.7  210579.32  76552.25  36.35
1601.3  209676.60  76727.70  36.59
1604.9  208725.77  76846.56  36.82
1608.6  207344.87  76771.61  37.03
1612.2  205957.13  76666.88  37.22
1615.8  204510.15  76508.47  37.41
1619.5  203239.00  76390.13  37.59
1623.1  201888.17  76214.55  37.75
1626.7  200667.03  76061.27  37.90
1630.3  199467.58  75892.22  38.05
1634.0  198366.00  75740.00  38.18
1637.6  197341.27  75600.52  38.31
1641.2  196306.60  75404.79  38.41
1644.8  195075.93  75103.36  38.50
1648.5  193985.88  74817.35  38.57
1652.1  193029.00  74542.00  38.62
1655.7  192097.60  74231.29  38.64
1659.3  191250.77  73931.67  38.66
1662.9  189819.17  73361.30  38.65
1666.6  188380.80  72749.67  38.62
1670.2  186947.72  72109.88  38.57
1673.8  185473.53  71404.14  38.50
1677.4  184293.85  70771.41  38.40
1681.0  183453.55  70221.74  38.28
1684.6  183055.17  69775.09  38.12
1688.2  182351.05  69152.62  37.92
1691.8  181663.85  68533.66  37.73
1695.4  181220.40  67995.91  37.52
1699.0  180834.50  67481.82  37.32
1702.6  180485.33  66943.04  37.09
1706.2  179859.23  66268.73  36.84
1709.8  178903.37  65481.73  36.60
1713.4  178148.63  64825.29  36.39
1717.0  177250.75  64185.44  36.21
1720.6  176428.28  63614.58  36.06
1724.2  175682.18  63089.63  35.91
1727.8  174956.25  62587.93  35.77
1731.4  174482.00  62180.56  35.64
1735.0  174322.13  61864.20  35.49
1738.6  174106.05  61473.83  35.31
1742.2  173584.78  60906.39  35.09
1745.8  172973.95  60263.53  34.84
1749.4  172017.45  59470.95  34.57
1753.0  170524.93  58498.53  34.30
1756.6  168882.29  57494.70  34.04
1760.1  167521.02  56632.99  33.81
1763.7  165768.67  55663.41  33.58
1767.3  164314.90  54832.33  33.37
1770.9  163034.03  54091.19  33.18
1774.5  161557.52  53313.54  33.00
1778.0  160393.62  52704.96  32.86
1781.6  159302.25  52176.60  32.75
1785.2  158138.13  51696.02  32.69
1788.8  156949.40  51266.18  32.66
1792.3  155715.13  50835.33  32.65
1795.9  155164.53  50654.31  32.65
1799.5  155037.33  50620.74  32.65
1803.1  156314.90  51063.62  32.67
1806.6  158701.78  51867.84  32.68
1810.2  160566.23  52489.37  32.69
1813.8  161394.05  52760.69  32.69
1817.3  160853.60  52563.73  32.68
1820.9  159577.37  52105.23  32.65
1824.5  158181.35  51559.08  32.59
1828.0  157080.92  51075.45  32.52
1831.6  156729.18  50785.91  32.40
1835.2  156598.33  50493.15  32.24
1838.7  156451.33  50081.86  32.01
1842.3  156240.00  49536.67  31.71
1845.8  154950.46  48484.78  31.29
1849.4  154316.70  47456.66  30.75
1852.9  153404.07  46121.69  30.07
1856.5  152286.38  44449.77  29.19
1860.0  151176.71  42468.73  28.09
1863.6  151256.11  40465.14  26.75
1867.1  152154.80  38278.80  25.16
1870.7  153200.93  35658.41  23.28
1874.2  152064.90  32119.40  21.12
1877.8  149081.40  28098.06  18.85
1881.3  145833.75  24046.94  16.49
1884.9  143843.98  20480.68  14.24
1888.4  142228.91  17269.90  12.14
1891.9  140600.07  14586.70  10.37
1895.5  139207.62  12501.04  8.98
1899.0  138628.38  11022.39  7.95
1901.3  177545.17  9873.95  5.56
1904.1  177568.50  8890.25  5.01
1906.8  176447.40  8074.60  4.58
1909.6  174198.50  7446.72  4.27
1912.4  172071.90  6959.83  4.04
1915.1  170553.35  6613.75  3.88
1917.9  168991.50  6359.39  3.76
1920.6  167693.00  6183.42  3.69
1923.3  166279.63  6046.83  3.64
1926.1  164461.83  5930.90  3.61
1928.8  162785.33  5852.00  3.59
1931.6  161503.02  5821.42  3.60
1934.3  160370.13  5825.19  3.63
1937.0  159253.53  5876.08  3.69
1939.8  158031.42  5926.80  3.75
1942.5  156453.00  5991.33  3.83
1945.2  154440.55  6054.03  3.92
1947.9  152777.57  6140.40  4.02
1950.7  151461.47  6263.69  4.14
1953.4  149562.55  6379.40  4.27
1956.1  148058.25  6522.61  4.41
1958.8  146737.50  6698.68  4.57
1961.5  145176.00  6860.13  4.73
1964.2  143588.90  7034.30  4.90
1966.9  141931.15  7218.88  5.09
1969.6  140634.00  7428.00  5.28
1972.3  139187.10  7636.20  5.49
1975.0  138095.40  7876.50  5.70
1977.7  136949.28  8123.09  5.93
1980.4  135778.13  8366.32  6.16
1983.1  134655.07  8617.88  6.40
1985.8  133710.30  8894.30  6.65
1988.4  132634.67  9157.78  6.90
1991.1  131684.23  9430.48  7.16
1993.8  130801.00  9705.24  7.42
1996.5  130154.75  10009.69  7.69
1999.1  129456.80  10311.28  7.97
2001.8  128748.90  10607.49  8.24
2004.5  128045.95  10899.00  8.51
2007.1  127284.75  11181.57  8.78
2009.8  126521.50  11456.43  9.05
2012.4  125923.97  11753.13  9.33
2015.1  125364.63  12046.38  9.61
2017.8  124553.10  12299.62  9.88
2020.4  124028.30  12583.21  10.15
2023.1  123655.23  12875.18  10.41
2025.7  123413.33  13167.56  10.67
2028.3  123066.67  13439.11  10.92
2031.0  122652.08  13690.72  11.16
2033.6  122365.50  13951.90  11.40
2036.2  122095.80  14198.40  11.63
2038.9  121486.80  14398.50  11.85
2041.5  121126.80  14626.57  12.08
2044.1  120555.90  14810.30  12.29
2046.8  120164.40  15010.40  12.49
2049.4  119520.60  15164.10  12.69
2052.0  119227.47  15364.85  12.89
2054.6  118816.25  15554.58  13.09
2057.2  118240.60  15717.09  13.29
2059.8  117891.27  15912.13  13.50
2062.4  116995.10  16035.76  13.71
2065.0  116450.27  16206.15  13.92
2067.6  115548.13  16320.50  14.12
2070.2  114929.25  16465.78  14.33
2072.8  114284.22  16605.25  14.53
2075.4  113837.50  16773.75  14.73
2078.0  113199.60  16910.84  14.94
2080.6  112604.80  17045.60  15.14
2083.2  111897.73  17168.05  15.34
2085.8  111399.02  17317.81  15.55
2088.4  110708.17  17439.94  15.75
2090.9  109899.75  17524.60  15.95
2093.5  108995.97  17583.01  16.13
2096.1  108201.88  17666.21  16.33
2098.7  107428.95  17745.26  16.52
2101.2  106441.87  17786.89  16.71
2103.8  105743.20  17871.31  16.90
2106.4  105062.00  17952.82  17.09
2108.9  104415.73  18045.98  17.28
2111.5  103551.13  18089.64  17.47
2114.0  102904.87  18168.25  17.66
2116.6  102366.25  18252.50  17.83
2119.1  101789.77  18331.10  18.01
2121.7  101290.00  18415.83  18.18
2124.2  100869.27  18509.36  18.35
2126.8  100050.95  18524.05  18.51
2129.3  99633.60  18603.20  18.67
2131.9  99052.80  18635.47  18.81
2134.4  98606.70  18682.35  18.95
2136.9  98196.37  18737.91  19.08
2139.4  97657.47  18744.13  19.19
2142.0  97205.27  18764.82  19.30
2144.5  96921.00  18805.70  19.40
2147.0  96667.60  18861.24  19.51
2149.5  96158.40  18858.27  19.61
2152.1  95995.90  18903.93  19.69
2154.6  95916.27  18964.44  19.77
2157.1  95375.00  18929.67  19.85
2159.6  94939.00  18905.45  19.91
2162.1  94758.30  18921.93  19.97
2164.6  94502.60  18930.35  20.03
2167.1  94165.90  18923.79  20.10
2169.6  93825.67  18897.24  20.14
2172.1  93349.00  18857.55  20.20
2174.6  93028.07  18842.22  20.25
2177.1  92573.40  18804.94  20.31
2179.5  92151.15  18766.87  20.37
2182.0  91648.70  18728.05  20.43
2184.5  91112.17  18682.22  20.50
2187.0  90503.40  18608.82  20.56
2189.5  89816.65  18524.11  20.62
2191.9  89015.00  18411.00  20.68
2194.4  88366.15  18326.45  20.74
2196.9  87600.00  18211.20  20.79
2199.3  86922.67  18108.89  20.83
2201.8  86013.47  17951.51  20.87
2204.3  85532.62  17882.69  20.91
2206.7  84867.60  17772.68  20.94
2209.2  84383.90  17697.75  20.97
2211.6  83734.20  17579.10  20.99
2214.1  83440.70  17528.58  21.01
2216.5  82853.93  17409.82  21.01
2219.0  82516.20  17336.98  21.01
2221.4  82129.83  17241.78  20.99
2223.9  81643.92  17112.86  20.96
2226.3  81128.25  16967.42  20.91
2228.7  80578.82  16798.37  20.85
2231.1  79972.20  16605.60  20.76
2233.6  79367.33  16409.87  20.68
2236.0  78807.75  16207.14  20.57
2238.4  78292.08  15988.97  20.42
2240.9  77837.60  15777.45  20.27
2243.3  77291.27  15542.36  20.11
2245.7  76714.50  15293.15  19.94
2248.1  76215.10  15043.02  19.74
2250.5  75683.65  14791.97  19.54
2252.9  75049.00  14501.50  19.32
2255.3  74455.85  14221.87  19.10
2257.7  73980.00  13973.33  18.89
2260.1  73474.10  13722.25  18.68
2262.5  72860.00  13443.33  18.45
2264.9  72329.25  13187.98  18.23
2267.3  71700.00  12933.33  18.04
2269.7  71186.50  12705.54  17.85
2272.1  70617.50  12477.43  17.67
2274.5  70043.07  12256.21  17.50
2276.8  69565.75  12043.37  17.31
2279.2  68983.20  11828.85  17.15
2281.6  68543.93  11643.78  16.99
2284.0  68063.90  11463.50  16.84
2286.3  67589.33  11271.64  16.68
2288.7  67169.27  11096.44  16.52
2291.1  66608.77  10888.27  16.35
2293.4  66158.40  10708.13  16.19
2295.8  65549.20  10488.83  16.00
2298.2  64935.90  10274.10  15.82
2300.5  64252.80  10056.75  15.65
2302.9  63498.33  9830.44  15.48
2305.2  62747.60  9620.20  15.33
2307.6  62065.07  9439.75  15.21
2309.9  61287.00  9248.34  15.09
2312.2  60677.33  9096.78  14.99
2314.6  60061.05  8938.95  14.88
2316.9  59367.60  8776.80  14.78
2319.2  58799.73  8635.43  14.69
2321.6  58157.05  8479.72  14.58
2323.9  57593.75  8326.39  14.46
2326.2  57049.47  8176.26  14.33
2328.6  56534.50  8036.05  14.21
2330.9  56017.50  7889.00  14.08
2333.2  55541.33  7754.05  13.96
2335.5  55094.30  7618.40  13.83
2337.8  54617.58  7476.44  13.69
2340.1  54013.72  7325.48  13.56
2342.4  53570.83  7200.56  13.44
2344.8  53142.33  7063.08  13.29
2347.1  52596.13  6919.97  13.16
2349.4  52042.73  6782.59  13.03
2351.6  51447.83  6643.05  12.91
2353.9  50940.90  6505.99  12.77
2356.2  50414.08  6377.26  12.65
2358.5  49828.80  6249.60  12.54
2360.8  49235.20  6118.93  12.43
2363.1  48792.50  6000.92  12.30
2365.4  48307.50  5883.53  12.18
2367.7  47834.40  5776.00  12.07
2369.9  47288.50  5656.30  11.96
2372.2  46646.40  5523.11  11.84
2374.5  46061.40  5390.00  11.70
2376.7  45432.78  5258.48  11.57
2379.0  44788.33  5122.54  11.44
2381.3  44158.33  4997.22  11.32
2383.5  43648.00  4884.98  11.19
2385.8  43030.70  4753.73  11.05
2388.0  42491.80  4625.60  10.89
2390.3  41984.27  4517.24  10.76
2392.5  41484.00  4400.00  10.61
2394.8  40994.80  4287.43  10.46
2397.0  40513.20  4177.91  10.31
2399.3  40034.43  4077.36  10.18
2401.5  39592.00  3973.08  10.04
2403.8  39056.15  3859.22  9.88
2406.0  38541.33  3745.69  9.72
2408.2  38135.53  3661.05  9.60
2410.4  37712.15  3566.07  9.46
2412.7  37297.87  3476.78  9.32
2414.9  36925.35  3390.20  9.18
2417.1  36499.80  3302.00  9.05
2419.3  36083.20  3208.53  8.89
2421.6  35675.83  3117.22  8.74
2423.8  35295.27  3034.20  8.60
2426.0  34925.17  2942.89  8.43
2428.2  34561.33  2865.95  8.29
2430.4  34247.87  2796.64  8.17
2432.6  33986.67  2733.33  8.04
2434.8  33684.00  2664.42  7.91
2437.0  33314.67  2592.63  7.78
2439.2  32953.63  2527.62  7.67
2441.4  32610.93  2449.46  7.51
2443.6  32358.63  2385.68  7.37
2445.7  32112.15  2323.15  7.23
2447.9  31841.33  2263.78  7.11
2450.1  31542.25  2191.80  6.95
2452.3  31141.37  2122.20  6.81
2454.5  30792.02  2066.04  6.71
2456.6  30402.27  2002.09  6.59
2458.8  30030.00  1949.57  6.49
2461.0  29712.75  1888.59  6.36
2463.1  29405.55  1838.15  6.25
2465.3  29134.97  1775.51  6.09
2467.5  28895.25  1745.42  6.04
2469.6  28654.92  1720.39  6.00
2471.8  28351.47  1666.85  5.88
2473.9  28024.83  1629.00  5.81
2476.1  27648.83  1577.33  5.70
2478.2  27298.13  1533.49  5.62
2480.4  27016.00  1488.95  5.51
2482.5  26677.78  1450.27  5.44
2484.6  26320.25  1433.67  5.45
2486.8  26062.00  1402.53  5.38
2488.9  25758.40  1357.37  5.27
2491.1  25402.53  1332.80  5.25
2493.2  25019.77  1287.98  5.15
2495.3  24611.17  1239.91  5.04
2497.4  24262.70  1218.23  5.02
2499.5  23935.15  1192.17  4.98
2501.7  23828.33  1188.68  4.99
2503.8  23737.67  1175.74  4.95
2505.9  23677.50  1155.97  4.88
2508.0  23682.53  1144.42  4.83
2510.1  23677.53  1126.65  4.76
2512.2  23799.95  1131.58  4.75
2514.3  23975.95  1145.33  4.78
2516.4  24231.00  1182.00  4.88
