/*** Spectra Vista SIG Data ***/
name= 4_20220824_TITO_37_avg.sig
comm= Averaged Ref/Tar of files: HR.082422.0010_moc.sig,HR.082422.0011_moc.sig,HR.082422.0012_moc.sig
data=
337.3  3341.42  297.75  8.91
338.8  3527.33  295.01  8.36
340.3  3685.53  299.84  8.14
341.8  3871.38  292.64  7.56
343.2  4025.60  301.92  7.50
344.7  4208.13  272.96  6.49
346.2  4384.57  266.89  6.09
347.7  4587.92  267.41  5.83
349.2  4788.00  267.12  5.58
350.6  5043.57  284.01  5.63
352.1  5334.93  281.04  5.27
353.6  5621.40  282.23  5.02
355.1  5881.90  287.36  4.89
356.6  6183.55  288.42  4.66
358.0  6465.07  297.73  4.61
359.5  6756.80  300.76  4.45
361.0  7082.25  311.22  4.39
362.5  7455.37  312.27  4.19
364.0  7818.72  321.16  4.11
365.4  8186.47  325.96  3.98
366.9  8563.75  342.55  4.00
368.4  8909.83  345.48  3.88
369.9  9296.60  356.73  3.84
371.3  9736.60  377.36  3.88
372.8  10159.80  389.40  3.83
374.3  10606.67  397.75  3.75
375.8  11049.50  413.23  3.74
377.2  11459.40  412.47  3.60
378.7  11889.80  419.64  3.53
380.2  12320.20  423.23  3.44
381.7  12863.90  428.80  3.33
383.1  13385.17  445.57  3.33
384.6  13919.10  460.37  3.31
386.1  14431.35  475.64  3.30
387.6  14912.33  481.51  3.23
389.0  15418.93  493.12  3.20
390.5  15947.70  502.68  3.15
392.0  16522.43  514.89  3.12
393.4  17131.30  532.51  3.11
394.9  17695.80  542.88  3.07
396.4  18267.75  552.00  3.02
397.9  18842.92  560.33  2.97
399.3  19415.83  577.41  2.97
400.8  19989.85  584.91  2.93
402.2  20654.73  602.29  2.92
403.7  21282.30  616.32  2.90
405.2  21923.05  628.18  2.87
406.6  22519.47  640.32  2.84
408.1  23127.33  653.89  2.83
409.6  23749.90  673.13  2.83
411.0  24438.63  694.59  2.84
412.5  25142.72  710.83  2.83
414.0  25794.75  730.78  2.83
415.4  26513.25  744.65  2.81
416.9  27216.30  760.72  2.80
418.4  27925.35  776.88  2.78
419.8  28658.93  798.37  2.79
421.3  29411.25  822.33  2.80
422.7  30218.00  846.80  2.80
424.2  31027.50  870.75  2.81
425.7  31806.73  891.07  2.80
427.1  32578.40  915.74  2.81
428.6  33397.33  942.40  2.82
430.0  34153.87  965.13  2.83
431.5  35063.80  991.02  2.83
432.9  35970.63  1019.64  2.83
434.4  36891.65  1050.50  2.85
435.9  37744.00  1073.33  2.84
437.3  38600.83  1103.67  2.86
438.8  39467.05  1129.44  2.86
440.2  40362.12  1153.46  2.86
441.7  41352.40  1188.13  2.87
443.1  42294.00  1222.53  2.89
444.6  43291.13  1254.11  2.90
446.0  44253.40  1288.85  2.91
447.5  45228.88  1318.35  2.91
448.9  46190.60  1348.48  2.92
450.4  47224.33  1384.79  2.93
451.8  48126.00  1417.87  2.95
453.3  49074.83  1452.20  2.96
454.7  50117.70  1486.14  2.97
456.2  51013.23  1514.70  2.97
457.6  52020.30  1546.98  2.97
459.1  53015.73  1581.23  2.98
460.5  53972.58  1608.57  2.98
462.0  55064.78  1646.44  2.99
463.4  56124.33  1680.53  2.99
464.8  57155.75  1711.25  2.99
466.3  58175.70  1742.84  3.00
467.7  59190.07  1775.33  3.00
469.2  60278.53  1810.98  3.00
470.6  61286.10  1839.61  3.00
472.0  62352.25  1872.91  3.00
473.5  63383.58  1909.70  3.01
474.9  64448.00  1947.50  3.02
476.4  65635.20  1987.20  3.03
477.8  66738.67  2024.20  3.03
479.2  67782.67  2057.07  3.03
480.7  68929.95  2094.05  3.04
482.1  70092.13  2132.82  3.04
483.6  71315.57  2175.21  3.05
485.0  72423.25  2209.85  3.05
486.4  73652.10  2254.28  3.06
487.9  74763.00  2299.05  3.08
489.3  75971.18  2342.26  3.08
490.7  77060.83  2387.41  3.10
492.2  78331.40  2440.20  3.12
493.6  79471.37  2488.55  3.13
495.0  80622.75  2544.75  3.16
496.5  81827.80  2602.37  3.18
497.9  82962.67  2666.94  3.21
499.3  84156.23  2733.46  3.25
500.7  85438.80  2814.75  3.29
502.2  86616.93  2900.53  3.35
503.6  87901.73  2995.92  3.41
505.0  88993.87  3097.99  3.48
506.5  90334.35  3224.89  3.57
507.9  91559.20  3362.31  3.67
509.3  92963.73  3528.32  3.80
510.7  94253.25  3708.90  3.94
512.2  95689.40  3923.69  4.10
513.6  97206.90  4171.07  4.29
515.0  98655.12  4447.68  4.51
516.4  100056.60  4760.91  4.76
517.8  101709.42  5117.02  5.03
519.3  103057.15  5494.88  5.33
520.7  104653.77  5917.86  5.65
522.1  105977.08  6350.24  5.99
523.5  107363.60  6803.59  6.34
524.9  108847.20  7272.60  6.68
526.3  110274.97  7739.43  7.02
527.8  111780.90  8199.18  7.34
529.2  112922.13  8636.04  7.65
530.6  114559.60  9091.94  7.94
532.0  116330.67  9533.07  8.19
533.4  117640.95  9907.94  8.42
534.8  118522.45  10214.99  8.62
536.3  120262.40  10559.08  8.78
537.7  122413.20  10916.64  8.92
539.1  123940.20  11204.25  9.04
540.5  125143.27  11452.32  9.15
541.9  126918.80  11746.74  9.26
543.3  128220.13  11988.61  9.35
544.7  129542.00  12231.44  9.44
546.1  131338.72  12518.26  9.53
547.5  132652.80  12748.59  9.61
549.0  134478.67  13022.53  9.68
550.4  136007.08  13258.58  9.75
551.8  137568.77  13464.98  9.79
553.2  139128.95  13632.86  9.80
554.6  140497.07  13739.09  9.78
556.0  142064.10  13816.56  9.73
557.4  143689.58  13857.53  9.64
558.8  145355.40  13856.58  9.53
560.2  146813.17  13801.52  9.40
561.6  148493.70  13723.47  9.24
563.0  150099.77  13602.14  9.06
564.4  151709.00  13449.14  8.87
565.8  153240.83  13261.42  8.65
567.2  155007.83  13059.10  8.42
568.6  156527.50  12820.90  8.19
570.0  157981.47  12549.55  7.94
571.4  159738.80  12296.44  7.70
572.8  161512.75  12052.08  7.46
574.2  163154.13  11809.28  7.24
575.6  164700.00  11586.00  7.03
577.0  166253.13  11384.37  6.85
578.4  168008.75  11223.33  6.68
579.8  169539.30  11063.43  6.53
581.2  171271.42  10945.32  6.39
582.5  172699.80  10823.28  6.27
583.9  174238.80  10725.41  6.16
585.3  176060.70  10660.95  6.06
586.7  177545.12  10594.83  5.97
588.1  179053.92  10539.05  5.89
589.5  180728.33  10510.50  5.82
590.9  182370.93  10500.32  5.76
592.3  184200.53  10511.88  5.71
593.7  185654.95  10521.94  5.67
595.0  187313.40  10543.86  5.63
596.4  188767.83  10562.02  5.60
597.8  190258.68  10578.55  5.56
599.2  191831.20  10593.44  5.52
600.6  193594.48  10612.03  5.48
602.0  194904.15  10589.64  5.43
603.3  196709.87  10572.61  5.37
604.7  198387.78  10529.75  5.31
606.1  199888.40  10458.56  5.23
607.5  201550.45  10378.77  5.15
608.9  203266.03  10288.35  5.06
610.2  204668.10  10173.87  4.97
611.6  206270.45  10065.70  4.88
613.0  207848.80  9958.94  4.79
614.4  209238.70  9847.44  4.71
615.8  210697.50  9750.00  4.63
617.1  212238.60  9672.60  4.56
618.5  213869.87  9610.13  4.49
619.9  215387.65  9563.94  4.44
621.3  217019.70  9535.44  4.39
622.6  218624.00  9522.10  4.36
624.0  220080.10  9519.26  4.33
625.4  221560.90  9538.76  4.31
626.8  223130.48  9576.23  4.29
628.1  224456.65  9613.85  4.28
629.5  226326.40  9672.63  4.27
630.9  227949.88  9722.79  4.27
632.2  229320.93  9750.44  4.25
633.6  230947.75  9774.95  4.23
635.0  232475.20  9781.07  4.21
636.3  234011.33  9757.20  4.17
637.7  235384.92  9697.57  4.12
639.1  237055.00  9632.00  4.06
640.4  238541.80  9539.79  4.00
641.8  239758.13  9428.24  3.93
643.2  241354.75  9334.55  3.87
644.5  242737.17  9219.90  3.80
645.9  244401.00  9121.68  3.73
647.2  246131.08  9041.55  3.67
648.6  247914.00  8982.90  3.62
650.0  249292.80  8922.24  3.58
651.3  249812.02  8856.10  3.55
652.7  251183.53  8826.61  3.51
654.0  253350.33  8818.03  3.48
655.4  254821.88  8788.11  3.45
656.8  254875.60  8704.69  3.42
658.1  256131.67  8647.19  3.38
659.5  258709.50  8629.67  3.34
660.8  260655.00  8589.00  3.30
662.2  261587.20  8514.99  3.26
663.5  263186.30  8476.07  3.22
664.9  264419.13  8448.09  3.19
666.2  265112.40  8418.24  3.18
667.6  266798.63  8435.87  3.16
668.9  267957.40  8457.39  3.16
670.3  269275.67  8496.53  3.16
671.6  270751.00  8560.90  3.16
673.0  271931.00  8643.50  3.18
674.3  273200.20  8745.71  3.20
675.7  274524.70  8847.66  3.22
677.0  275650.22  8965.64  3.25
678.4  277001.08  9109.54  3.29
679.7  278117.02  9265.18  3.33
681.1  279469.50  9448.10  3.38
682.4  280640.53  9647.39  3.44
683.8  281907.60  9880.17  3.50
685.1  282905.00  10133.25  3.58
686.4  284219.20  10460.64  3.68
687.8  285512.00  10860.97  3.80
689.1  286594.83  11380.13  3.97
690.5  287972.30  12089.86  4.20
691.8  288728.83  13044.49  4.52
693.1  290131.40  14354.06  4.95
694.5  291321.33  16049.37  5.51
695.8  292549.83  18166.63  6.21
697.1  293793.50  20738.90  7.06
698.5  294857.87  23768.41  8.06
699.8  295954.10  27240.23  9.20
701.1  297102.97  31113.12  10.47
702.5  297900.53  35310.29  11.85
703.8  298860.00  39780.00  13.31
705.1  300061.45  44500.17  14.83
706.5  301107.83  49392.07  16.40
707.8  302097.50  54402.88  18.01
709.1  302994.90  59491.66  19.63
710.5  304155.80  64718.69  21.28
711.8  305034.27  69947.67  22.93
713.1  306045.20  75261.01  24.59
714.4  306952.07  80583.28  26.25
715.8  307799.47  85890.68  27.90
717.1  309130.30  91348.92  29.55
718.4  310075.73  96660.48  31.17
719.7  311218.82  101988.55  32.77
721.0  311775.00  107058.00  34.34
722.4  312558.03  112103.57  35.87
723.7  313536.40  117103.52  37.35
725.0  314604.90  122012.04  38.78
726.3  315563.23  126715.27  40.16
727.6  316126.25  131097.67  41.47
729.0  317068.03  135450.07  42.72
730.3  317837.10  139534.57  43.90
731.6  318760.07  143477.53  45.01
732.9  319581.27  147169.38  46.05
734.2  320408.92  150675.25  47.03
735.5  321461.28  154091.89  47.93
736.8  322241.00  157184.72  48.78
738.1  323112.07  160107.69  49.55
739.5  324090.05  162916.94  50.27
740.8  324799.57  165421.63  50.93
742.1  325593.05  167796.12  51.54
743.4  326316.67  170006.67  52.10
744.7  327308.57  172210.43  52.61
746.0  328198.00  174201.82  53.08
747.3  328796.03  175891.07  53.50
748.6  329548.50  177534.23  53.87
749.9  330304.00  179077.60  54.22
751.2  331024.13  180501.25  54.53
752.5  331948.10  181923.81  54.80
753.8  332543.17  183098.65  55.06
755.1  333285.33  184232.53  55.28
756.4  333882.65  185219.07  55.47
757.7  334889.92  186349.33  55.64
759.0  336711.52  187889.89  55.80
760.3  337902.40  189016.96  55.94
761.6  339504.67  190317.68  56.06
762.9  340063.83  190984.30  56.16
764.2  340464.33  191528.00  56.25
765.5  340731.20  191974.79  56.34
766.8  341214.93  192481.71  56.41
768.1  341732.80  193001.95  56.48
769.3  342343.87  193538.94  56.53
770.6  343002.40  194095.98  56.59
771.9  343753.78  194677.98  56.63
773.2  344170.13  195047.41  56.67
774.5  344801.60  195524.85  56.71
775.8  345488.37  196049.21  56.75
777.1  346049.37  196490.43  56.78
778.4  346410.72  196802.25  56.81
779.6  347207.82  197338.33  56.84
780.9  347680.00  197696.00  56.86
782.2  348137.17  198048.77  56.89
783.5  348472.67  198323.20  56.91
784.8  349000.65  198710.28  56.94
786.0  349399.17  199015.27  56.96
787.3  349792.17  199308.09  56.98
788.6  350223.52  199627.62  57.00
789.9  350700.93  199966.29  57.02
791.2  351332.23  200401.40  57.04
792.4  352019.12  200848.53  57.06
793.7  352503.60  201183.79  57.07
795.0  353155.55  201615.04  57.09
796.2  353818.05  202046.15  57.10
797.5  354542.25  202516.20  57.12
798.8  355208.90  202957.06  57.14
800.0  355893.80  203395.07  57.15
801.3  356379.20  203729.15  57.17
802.6  356970.00  204128.16  57.18
803.8  357623.50  204556.68  57.20
805.1  358114.75  204895.72  57.22
806.4  358571.80  205206.60  57.23
807.7  359100.00  205569.36  57.25
808.9  359690.27  205941.63  57.26
810.2  360221.40  206298.07  57.27
811.4  360766.33  206637.97  57.28
812.7  361427.08  207068.33  57.29
814.0  362257.17  207604.49  57.31
815.2  362891.00  208026.33  57.32
816.5  363311.35  208314.29  57.34
817.7  363825.07  208639.51  57.35
819.0  364342.73  208982.91  57.36
820.2  364525.33  209140.80  57.37
821.5  365237.00  209616.87  57.39
822.7  365610.72  209882.83  57.41
824.0  365945.40  210130.20  57.42
825.2  366452.10  210463.11  57.43
826.5  366790.97  210695.22  57.44
827.7  367359.23  211060.27  57.45
829.0  367841.27  211362.55  57.46
830.2  368138.77  211586.66  57.47
831.5  368635.93  211933.90  57.49
832.7  368968.60  212167.13  57.50
834.0  369282.02  212403.54  57.52
835.2  369705.97  212677.23  57.53
836.4  370035.60  212916.29  57.54
837.7  370438.93  213230.03  57.56
838.9  370875.05  213544.13  57.58
840.1  371259.00  213836.22  57.60
841.4  371708.73  214164.01  57.62
842.6  372116.40  214430.29  57.62
843.8  372500.67  214710.40  57.64
845.1  373074.10  215060.66  57.65
846.3  373501.47  215358.33  57.66
847.5  373844.80  215642.84  57.68
848.8  374302.00  215937.44  57.69
850.0  374605.23  216234.39  57.72
851.2  375243.30  216609.84  57.73
852.5  375640.60  216905.33  57.74
853.7  376144.50  217239.00  57.75
854.9  376593.73  217530.69  57.76
856.1  377107.03  217855.30  57.77
857.4  377333.08  218025.72  57.78
858.6  377803.83  218371.07  57.80
859.8  378232.50  218670.00  57.81
861.0  378799.20  218977.20  57.81
862.2  379208.82  219299.54  57.83
863.5  379619.07  219545.08  57.83
864.7  380182.00  219881.20  57.84
865.9  380603.47  220160.85  57.85
867.1  380933.27  220403.46  57.86
868.3  381435.60  220697.72  57.86
869.5  381931.63  221029.13  57.87
870.8  382449.00  221380.80  57.89
872.0  383016.50  221706.24  57.88
873.2  383456.00  221977.26  57.89
874.4  383976.45  222298.83  57.89
875.6  384355.95  222540.34  57.90
876.8  384915.57  222852.08  57.90
878.0  385388.00  223165.78  57.91
879.2  385975.50  223463.56  57.90
880.4  386514.75  223780.50  57.90
881.6  386958.82  224101.20  57.91
882.8  387482.67  224386.13  57.91
884.0  388086.87  224748.70  57.91
885.2  388627.93  225049.89  57.91
886.5  389281.47  225418.37  57.91
887.7  389808.25  225722.68  57.91
888.8  390474.45  226118.60  57.91
890.0  391063.50  226477.85  57.91
891.2  391666.00  226828.96  57.91
892.4  392389.90  227198.44  57.90
893.6  392979.53  227527.31  57.90
894.8  393867.33  228070.30  57.91
896.0  394816.50  228605.83  57.90
897.2  395678.83  229118.93  57.91
898.4  396446.60  229574.84  57.91
899.6  397079.50  229910.00  57.90
900.8  397522.53  230135.75  57.89
902.0  397711.40  230256.22  57.90
903.2  398214.40  230463.69  57.87
904.3  398488.60  230710.88  57.90
905.5  399185.78  231076.18  57.89
906.7  399822.67  231464.33  57.89
907.9  400414.93  231773.92  57.88
909.1  400771.80  231930.72  57.87
910.2  400987.05  232049.84  57.87
911.4  401269.05  232238.76  57.88
912.6  401601.20  232338.77  57.85
913.8  401795.65  232500.93  57.87
915.0  402255.70  232756.86  57.86
916.2  402473.50  232882.00  57.86
917.3  402555.00  232899.48  57.86
918.5  402789.60  233000.43  57.85
919.7  403156.90  233176.76  57.84
920.8  403243.12  233219.43  57.84
922.0  403441.50  233261.23  57.82
923.2  403676.00  233378.60  57.81
924.4  404055.00  233503.20  57.79
925.5  404251.07  233683.68  57.81
926.7  404914.50  233950.60  57.78
927.9  405844.00  234425.52  57.76
929.0  407311.20  235243.80  57.76
930.2  409572.87  236437.52  57.73
931.4  411970.95  237825.63  57.73
932.5  414961.87  239333.64  57.68
933.7  416263.12  240092.15  57.68
934.9  416990.00  240395.17  57.65
936.0  416658.67  240082.05  57.62
937.2  414617.70  238843.62  57.61
938.3  412971.93  237776.45  57.58
939.5  411494.40  236812.32  57.55
940.7  411643.20  236832.36  57.53
941.8  413301.30  237642.40  57.50
943.0  414784.50  238402.50  57.48
944.2  415589.63  238760.08  57.45
945.3  415330.50  238355.00  57.39
946.5  414581.40  237815.10  57.36
947.6  414708.93  237739.33  57.33
948.8  414696.10  237590.08  57.29
949.9  414934.80  237485.36  57.23
951.1  414685.70  236993.81  57.15
952.2  414528.00  236640.00  57.09
953.4  414223.67  236237.37  57.03
954.5  414320.40  236012.40  56.96
955.7  414405.60  235734.24  56.88
956.8  414010.00  235390.11  56.86
958.0  413762.00  234996.73  56.80
959.1  413678.68  234663.71  56.73
960.3  413341.73  234298.53  56.68
961.4  413277.10  234143.45  56.66
962.6  413329.00  234123.87  56.64
963.7  413127.30  233974.63  56.63
964.9  413187.15  233854.89  56.60
966.0  413023.05  233652.06  56.57
967.2  413306.70  233649.48  56.53
968.3  412994.70  233541.90  56.55
969.5  412839.08  233389.21  56.53
970.6  412876.75  233405.29  56.53
971.8  413206.50  233431.73  56.49
972.9  412969.60  233336.15  56.50
974.0  413241.20  233431.31  56.49
975.2  412988.67  233465.95  56.53
976.3  413020.80  233519.28  56.54
977.5  413219.22  233359.19  56.47
978.6  413169.93  233338.32  56.48
979.7  413115.85  233428.86  56.50
980.9  413047.30  233338.66  56.49
982.0  413076.97  233319.69  56.48
983.2  412486.78  233254.29  56.55
984.3  412200.40  233108.93  56.55
985.4  412331.12  233358.58  56.59
986.6  412282.58  233367.50  56.60
987.7  413510.65  233757.44  56.53
988.9  413640.00  233568.72  56.47
990.0  413818.73  233931.29  56.53
993.1  366624.48  206644.32  56.36
996.9  367006.55  207482.02  56.53
1000.7  367882.32  208526.90  56.68
1004.5  368418.17  209257.83  56.80
1008.4  368176.75  209588.37  56.93
1012.2  368086.83  210018.94  57.06
1016.0  368095.20  210493.07  57.18
1019.8  368190.90  210964.60  57.30
1023.7  368034.17  211267.63  57.40
1027.5  367660.63  211360.81  57.49
1031.3  367792.38  211686.09  57.56
1035.1  367616.32  211793.19  57.61
1038.9  367513.85  211944.62  57.67
1042.7  367345.67  212012.20  57.71
1046.5  367214.67  212071.26  57.75
1050.3  367229.63  212226.13  57.79
1054.2  366949.92  212191.39  57.83
1058.0  366462.72  211992.01  57.85
1061.8  366288.23  212001.09  57.88
1065.6  365986.20  211848.46  57.88
1069.4  365947.53  211878.70  57.90
1073.2  365479.64  211595.73  57.90
1077.0  364953.88  211269.24  57.89
1080.8  364493.75  210961.57  57.88
1084.6  363506.50  210328.14  57.86
1088.4  362914.73  209912.57  57.84
1092.2  362085.75  209352.00  57.82
1096.0  361492.53  208880.33  57.78
1099.8  361007.62  208434.58  57.74
1103.6  360350.37  207877.44  57.69
1107.4  359414.90  207157.35  57.64
1111.2  359130.50  206808.20  57.59
1114.9  358445.50  206197.70  57.53
1118.7  357845.40  205566.90  57.45
1122.5  357138.60  204789.67  57.34
1126.3  356048.70  203669.67  57.20
1130.1  355548.53  202652.81  57.00
1133.9  353975.30  200736.51  56.71
1137.7  352578.30  198626.73  56.34
1141.4  350833.93  196066.05  55.89
1145.2  350089.98  193934.80  55.40
1149.0  348967.50  191661.62  54.92
1152.8  347357.95  189351.42  54.51
1156.6  345731.28  187366.95  54.19
1160.3  344024.67  185657.92  53.97
1164.1  341665.77  183850.22  53.81
1167.9  339896.88  182567.82  53.71
1171.7  338640.75  181686.75  53.65
1175.4  337463.43  180900.13  53.61
1179.2  336406.43  180164.28  53.56
1183.0  336114.00  179808.82  53.50
1186.7  335589.33  179358.04  53.45
1190.5  334621.20  178688.00  53.40
1194.3  333476.60  177965.77  53.37
1198.0  332263.53  177279.24  53.36
1201.8  330757.10  176530.93  53.37
1205.6  329528.33  176031.33  53.42
1209.3  328620.77  175790.85  53.49
1213.1  327726.00  175606.03  53.58
1216.8  326798.27  175471.68  53.69
1220.6  325720.27  175267.97  53.81
1224.3  324506.50  174970.47  53.92
1228.1  323281.60  174694.84  54.04
1231.9  322036.18  174353.56  54.14
1235.6  320570.93  173859.33  54.23
1239.4  319213.88  173386.33  54.32
1243.1  317991.92  172930.71  54.38
1246.9  316789.68  172452.96  54.44
1250.6  315823.93  172056.39  54.48
1254.3  314770.13  171593.44  54.51
1258.1  313788.07  171124.38  54.54
1261.8  312496.13  170486.31  54.56
1265.6  311052.70  169717.87  54.56
1269.3  309659.80  168919.02  54.55
1273.1  309629.16  168832.93  54.53
1276.8  309845.20  168821.60  54.49
1280.6  309591.87  168529.39  54.44
1284.3  308188.80  167549.69  54.37
1288.0  306756.36  166487.91  54.27
1291.8  305538.23  165473.71  54.16
1295.5  304242.40  164366.40  54.02
1299.2  303037.84  163212.43  53.86
1302.9  301584.22  161854.95  53.67
1306.7  300014.75  160331.99  53.44
1310.4  298551.87  158729.80  53.17
1314.1  297181.50  157076.58  52.86
1317.9  295954.17  155368.33  52.50
1321.6  294536.03  153439.21  52.10
1325.3  292913.78  151268.83  51.64
1329.0  291606.00  149165.33  51.15
1332.8  289535.40  146584.04  50.63
1336.5  287761.40  144103.76  50.08
1340.2  287362.83  142310.52  49.52
1343.9  286874.79  140467.55  48.96
1347.6  286134.00  138545.30  48.42
1351.4  286192.00  137026.89  47.88
1355.1  286354.20  135586.33  47.35
1358.8  286352.00  133994.67  46.79
1362.5  285779.90  131998.78  46.19
1366.2  284143.10  129239.48  45.48
1369.9  282400.38  126075.72  44.64
1373.6  280392.41  122272.19  43.61
1377.3  278536.20  117794.27  42.29
1381.0  277306.83  112634.96  40.62
1384.8  275388.75  106119.72  38.53
1388.4  273139.18  98858.69  36.19
1392.2  271325.83  91296.15  33.65
1395.9  269796.90  83711.04  31.03
1399.6  268202.60  76491.66  28.52
1403.3  267103.75  70114.08  26.25
1407.0  266036.50  64645.62  24.30
1410.7  264938.85  60150.20  22.70
1414.3  263815.30  56600.52  21.45
1418.1  262710.83  53921.81  20.53
1421.7  261851.57  51957.11  19.84
1425.4  260942.83  50526.31  19.36
1429.1  260052.75  49534.83  19.05
1432.8  258613.47  48775.94  18.86
1436.5  257834.06  48392.77  18.77
1440.2  257052.37  48218.61  18.76
1443.9  255813.89  48096.46  18.80
1447.6  254269.40  48017.20  18.88
1451.2  253220.55  48074.52  18.99
1454.9  251974.80  48177.00  19.12
1458.6  250914.05  48414.06  19.30
1462.3  249778.83  48801.54  19.54
1466.0  248447.38  49349.89  19.86
1469.7  246802.08  50026.31  20.27
1473.3  245773.50  51010.19  20.75
1477.0  243915.80  51939.29  21.29
1480.7  242367.74  53020.86  21.88
1484.4  240495.55  54062.60  22.48
1488.0  239008.00  55215.11  23.10
1491.7  237435.60  56340.05  23.73
1495.4  235728.53  57437.48  24.37
1499.0  234175.00  58534.89  25.00
1502.7  232930.08  59697.81  25.63
1506.4  231571.20  60799.57  26.26
1510.0  230168.37  61856.48  26.87
1513.7  228738.13  62864.28  27.48
1517.4  227427.00  63859.78  28.08
1521.0  226226.53  64840.42  28.66
1524.7  225023.50  65753.52  29.22
1528.3  223754.13  66607.22  29.77
1532.0  222563.37  67427.47  30.30
1535.7  221190.45  68133.85  30.80
1539.3  219949.71  68837.82  31.30
1543.0  218992.28  69574.72  31.77
1546.6  218291.67  70360.33  32.23
1550.3  217339.45  71008.70  32.67
1553.9  216281.73  71582.47  33.10
1557.6  215061.00  72029.14  33.49
1561.2  213825.60  72431.50  33.87
1564.9  212559.12  72780.89  34.24
1568.5  211248.80  73084.95  34.60
1572.2  210131.80  73412.81  34.94
1575.8  209076.00  73752.00  35.28
1579.5  208096.25  74072.88  35.60
1583.1  207095.08  74372.50  35.91
1586.8  205884.00  74560.89  36.21
1590.4  204844.57  74778.96  36.51
1594.0  203536.88  74891.00  36.79
1597.7  202438.14  75062.18  37.08
1601.3  201199.95  75146.40  37.35
1604.9  199988.93  75202.53  37.60
1608.6  198731.13  75186.83  37.83
1612.2  197710.43  75242.57  38.06
1615.8  196544.40  75222.76  38.27
1619.5  195445.67  75184.02  38.47
1623.1  194150.63  75047.55  38.65
1626.7  192938.85  74918.42  38.83
1630.3  191743.83  74769.61  38.99
1634.0  190540.00  74598.22  39.15
1637.6  189407.67  74425.17  39.29
1641.2  188270.00  74199.61  39.41
1644.8  186949.53  73874.37  39.52
1648.5  185854.99  73586.68  39.59
1652.1  184865.10  73282.40  39.64
1655.7  183961.00  72953.29  39.66
1659.3  183123.88  72613.37  39.65
1662.9  181744.17  72023.33  39.63
1666.6  180376.87  71405.52  39.59
1670.2  179046.93  70744.66  39.51
1673.8  177694.17  70017.41  39.40
1677.4  176636.60  69341.43  39.26
1681.0  175853.05  68707.89  39.07
1684.6  175436.08  68144.56  38.84
1688.2  174752.50  67391.73  38.56
1691.8  174112.20  66657.53  38.28
1695.4  173680.20  65998.45  38.00
1699.0  173347.77  65391.09  37.72
1702.6  173089.33  64777.11  37.42
1706.2  172539.79  64011.42  37.10
1709.8  171668.09  63138.97  36.78
1713.4  170990.54  62416.54  36.50
1717.0  170141.25  61727.11  36.28
1720.6  169351.05  61138.95  36.10
1724.2  168637.58  60608.77  35.94
1727.8  167927.90  60116.39  35.80
1731.4  167448.88  59730.30  35.67
1735.0  167231.17  59443.07  35.55
1738.6  166999.05  59087.67  35.38
1742.2  166450.94  58545.68  35.17
1745.8  165832.97  57917.84  34.93
1749.4  164901.00  57151.05  34.66
1753.0  163441.73  56189.25  34.38
1756.6  161817.83  55206.86  34.12
1760.1  160495.74  54375.66  33.88
1763.7  158822.67  53469.04  33.67
1767.3  157425.45  52684.23  33.47
1770.9  156220.17  51992.81  33.28
1774.5  154781.74  51255.38  33.11
1778.0  153648.52  50669.27  32.98
1781.6  152575.65  50170.07  32.88
1785.2  151452.00  49716.05  32.83
1788.8  150290.30  49323.31  32.82
1792.3  149073.40  48929.47  32.82
1795.9  148580.58  48791.86  32.84
1799.5  148050.00  48667.63  32.87
1803.1  147501.43  48515.44  32.89
1806.6  148072.69  48706.26  32.89
1810.2  149222.27  49070.21  32.88
1813.8  150079.80  49346.09  32.88
1817.3  149986.20  49314.98  32.88
1820.9  149123.38  49009.70  32.87
1824.5  147852.10  48560.55  32.84
1828.0  146926.08  48177.86  32.79
1831.6  146062.68  47768.29  32.70
1835.2  145307.50  47322.96  32.57
1838.7  144897.33  46887.77  32.36
1842.3  144555.00  46363.33  32.07
1845.8  143818.13  45569.17  31.69
1849.4  143329.45  44671.17  31.17
1852.9  142701.83  43525.61  30.50
1856.5  141875.02  42050.18  29.64
1860.0  141125.11  40310.21  28.56
1863.6  140838.43  38412.66  27.27
1867.1  140595.70  36178.88  25.73
1870.7  140492.60  33517.38  23.86
1874.2  139832.55  30290.80  21.66
1877.8  138721.60  26846.43  19.35
1881.3  137340.75  23335.05  16.99
1884.9  136300.73  20080.95  14.73
1888.4  135257.10  17060.06  12.61
1891.9  134175.53  14492.77  10.80
1895.5  132969.70  12440.55  9.36
1899.0  132210.63  10972.64  8.30
1901.3  164834.17  9093.44  5.52
1904.1  164636.25  8191.50  4.98
1906.8  163870.20  7501.20  4.58
1909.6  162146.25  6941.43  4.28
1912.4  160506.85  6529.02  4.07
1915.1  159279.45  6240.67  3.92
1917.9  157917.50  6032.94  3.82
1920.6  156813.23  5883.65  3.75
1923.3  155710.10  5781.76  3.71
1926.1  154343.50  5692.21  3.69
1928.8  153076.00  5641.78  3.69
1931.6  152052.42  5641.80  3.71
1934.3  151074.07  5669.39  3.75
1937.0  150115.23  5708.89  3.80
1939.8  149089.08  5772.36  3.87
1942.5  147785.00  5837.33  3.95
1945.2  146122.35  5911.22  4.05
1947.9  144801.07  6003.28  4.15
1950.7  143755.57  6126.96  4.26
1953.4  142094.45  6236.15  4.39
1956.1  140807.42  6378.22  4.53
1958.8  139638.20  6530.99  4.68
1961.5  138239.20  6685.33  4.84
1964.2  136800.30  6849.27  5.01
1966.9  135288.45  7028.83  5.20
1969.6  134100.00  7218.00  5.38
1972.3  132770.20  7410.73  5.58
1975.0  131767.65  7625.75  5.79
1977.7  130680.63  7843.90  6.00
1980.4  129580.10  8071.18  6.23
1983.1  128527.25  8304.08  6.46
1985.8  127637.70  8552.10  6.70
1988.4  126637.33  8793.78  6.94
1991.1  125735.87  9039.10  7.19
1993.8  124898.58  9294.51  7.44
1996.5  124278.18  9573.12  7.70
1999.1  123623.32  9845.98  7.96
2001.8  122955.93  10109.63  8.22
2004.5  122311.00  10374.23  8.48
2007.1  121601.70  10636.62  8.75
2009.8  120875.30  10886.63  9.01
2012.4  120297.28  11141.35  9.26
2015.1  119761.60  11401.76  9.52
2017.8  119001.87  11620.47  9.76
2020.4  118513.63  11870.89  10.02
2023.1  118181.70  12121.20  10.26
2025.7  117962.00  12376.00  10.49
2028.3  117641.33  12592.67  10.70
2031.0  117233.68  12805.02  10.92
2033.6  116954.10  13023.90  11.14
2036.2  116719.20  13226.90  11.33
2038.9  116153.70  13374.80  11.51
2041.5  115818.35  13545.70  11.70
2044.1  115275.00  13679.30  11.87
2046.8  114918.30  13830.10  12.03
2049.4  114326.70  13940.30  12.19
2052.0  114039.87  14089.78  12.36
2054.6  113662.50  14227.50  12.52
2057.2  113114.13  14348.87  12.69
2059.8  112791.00  14503.16  12.86
2062.4  111939.43  14588.79  13.03
2065.0  111428.60  14718.58  13.21
2067.6  110570.92  14803.81  13.39
2070.2  109995.62  14920.03  13.56
2072.8  109376.73  15021.72  13.73
2075.4  108946.25  15166.67  13.92
2078.0  108333.63  15274.22  14.10
2080.6  107800.00  15391.20  14.28
2083.2  107119.90  15479.01  14.45
2085.8  106638.45  15581.63  14.61
2088.4  106000.00  15667.39  14.78
2090.9  105209.28  15723.06  14.94
2093.5  104349.63  15771.23  15.11
2096.1  103608.20  15833.42  15.28
2098.7  102861.62  15906.62  15.46
2101.2  101944.20  15926.69  15.62
2103.8  101280.47  15984.91  15.78
2106.4  100634.20  16046.04  15.94
2108.9  99996.67  16104.27  16.10
2111.5  99167.00  16127.56  16.26
2114.0  98546.93  16194.51  16.43
2116.6  98052.50  16260.42  16.58
2119.1  97520.40  16323.53  16.74
2121.7  97046.25  16388.75  16.89
2124.2  96652.50  16460.88  17.03
2126.8  95878.87  16465.82  17.17
2129.3  95497.60  16523.47  17.30
2131.9  94925.60  16541.07  17.43
2134.4  94509.15  16579.00  17.54
2136.9  94136.68  16608.87  17.64
2139.4  93623.13  16613.18  17.74
2142.0  93188.67  16622.04  17.84
2144.5  92942.70  16663.77  17.93
2147.0  92719.07  16702.36  18.01
2149.5  92227.73  16687.47  18.09
2152.1  92070.18  16720.98  18.16
2154.6  92017.60  16776.35  18.23
2157.1  91496.42  16737.56  18.29
2159.6  91078.58  16716.36  18.35
2162.1  90927.20  16731.87  18.40
2164.6  90694.00  16732.27  18.45
2167.1  90382.37  16732.03  18.51
2169.6  90074.48  16722.10  18.56
2172.1  89618.73  16690.79  18.62
2174.6  89312.13  16689.27  18.69
2177.1  88878.63  16666.68  18.75
2179.5  88452.43  16661.31  18.84
2182.0  87992.85  16636.77  18.91
2184.5  87490.20  16602.24  18.98
2187.0  86909.30  16558.64  19.05
2189.5  86250.92  16504.16  19.14
2191.9  85490.50  16428.67  19.22
2194.4  84880.40  16368.70  19.28
2196.9  84153.60  16291.20  19.36
2199.3  83510.33  16223.89  19.43
2201.8  82655.47  16105.42  19.49
2204.3  82214.58  16066.61  19.54
2206.7  81597.40  15979.98  19.58
2209.2  81142.17  15918.76  19.62
2211.6  80536.50  15826.80  19.65
2214.1  80246.75  15787.33  19.67
2216.5  79685.20  15694.67  19.70
2219.0  79357.40  15641.69  19.71
2221.4  78986.25  15569.17  19.71
2223.9  78530.08  15470.00  19.70
2226.3  78034.25  15341.09  19.66
2228.7  77485.33  15184.10  19.60
2231.1  76903.20  15001.80  19.51
2233.6  76337.67  14813.91  19.41
2236.0  75793.08  14613.86  19.28
2238.4  75307.17  14412.22  19.14
2240.9  74867.53  14201.36  18.97
2243.3  74351.00  13956.33  18.77
2245.7  73809.10  13697.83  18.56
2248.1  73344.70  13455.00  18.34
2250.5  72858.37  13197.97  18.11
2252.9  72258.33  12906.83  17.86
2255.3  71719.60  12623.23  17.60
2257.7  71270.00  12366.67  17.35
2260.1  70795.20  12106.89  17.10
2262.5  70200.00  11830.00  16.85
2264.9  69693.65  11574.01  16.61
2267.3  69100.00  11303.33  16.36
2269.7  68617.97  11073.46  16.14
2272.1  68053.23  10861.40  15.96
2274.5  67517.28  10648.89  15.77
2276.8  67061.58  10460.74  15.60
2279.2  66500.85  10244.30  15.40
2281.6  66077.60  10063.31  15.23
2284.0  65619.70  9877.80  15.05
2286.3  65157.33  9707.73  14.90
2288.7  64766.00  9535.00  14.72
2291.1  64234.63  9353.27  14.56
2293.4  63797.07  9185.24  14.40
2295.8  63211.10  8998.77  14.24
2298.2  62638.20  8807.85  14.06
2300.5  61996.50  8614.65  13.90
2302.9  61266.33  8418.22  13.74
2305.2  60564.00  8233.13  13.59
2307.6  59919.20  8071.07  13.47
2309.9  59148.00  7908.45  13.37
2312.2  58559.00  7784.45  13.29
2314.6  57970.35  7676.25  13.24
2316.9  57287.25  7548.60  13.18
2319.2  56726.40  7425.99  13.09
2321.6  56101.15  7292.56  13.00
2323.9  55562.50  7166.67  12.90
2326.2  55046.27  7045.98  12.80
2328.6  54528.10  6928.35  12.71
2330.9  54022.50  6811.00  12.61
2333.2  53572.83  6692.19  12.49
2335.5  53125.50  6576.93  12.38
2337.8  52687.37  6462.81  12.27
2340.1  52137.42  6329.82  12.14
2342.4  51696.67  6214.72  12.02
2344.8  51275.58  6109.70  11.92
2347.1  50731.80  5991.46  11.81
2349.4  50224.98  5879.23  11.71
2351.6  49652.12  5758.05  11.60
2353.9  49164.53  5652.75  11.50
2356.2  48646.53  5558.33  11.43
2358.5  48070.40  5454.40  11.35
2360.8  47499.20  5342.40  11.25
2363.1  47053.92  5249.40  11.16
2365.4  46612.50  5145.27  11.04
2367.7  46147.20  5054.00  10.95
2369.9  45628.25  4950.22  10.85
2372.2  45018.13  4831.29  10.73
2374.5  44455.95  4727.80  10.63
2376.7  43841.30  4619.56  10.54
2379.0  43241.10  4513.73  10.44
2381.3  42630.00  4406.11  10.34
2383.5  42134.40  4306.13  10.22
2385.8  41548.10  4192.85  10.09
2388.0  41016.80  4082.80  9.95
2390.3  40524.67  3975.33  9.81
2392.5  40044.00  3888.00  9.71
2394.8  39591.20  3791.33  9.58
2397.0  39130.00  3700.67  9.46
2399.3  38682.08  3610.33  9.33
2401.5  38244.50  3519.83  9.20
2403.8  37725.95  3415.82  9.05
2406.0  37225.17  3327.67  8.94
2408.2  36826.53  3249.65  8.82
2410.4  36413.88  3170.77  8.71
2412.7  36003.50  3078.83  8.55
2414.9  35647.70  3006.48  8.43
2417.1  35242.50  2916.77  8.28
2419.3  34854.40  2845.87  8.17
2421.6  34461.67  2777.09  8.06
2423.8  34115.30  2710.03  7.94
2426.0  33756.67  2635.61  7.81
2428.2  33398.40  2561.07  7.67
2430.4  33083.33  2501.10  7.56
2432.6  32800.00  2440.00  7.44
2434.8  32507.73  2365.90  7.28
2437.0  32145.97  2315.01  7.20
2439.2  31818.23  2261.79  7.11
2441.4  31506.63  2194.97  6.97
2443.6  31267.12  2136.98  6.83
2445.7  30959.83  2073.24  6.70
2447.9  30700.17  2004.00  6.53
2450.1  30432.30  1957.63  6.43
2452.3  30068.50  1905.75  6.34
2454.5  29728.27  1848.56  6.22
2456.6  29346.53  1797.60  6.13
2458.8  28986.10  1744.60  6.02
2461.0  28703.58  1705.97  5.94
2463.1  28416.15  1658.70  5.84
2465.3  28125.27  1619.42  5.76
2467.5  27877.50  1593.00  5.71
2469.6  27640.58  1546.36  5.59
2471.8  27330.33  1511.68  5.53
2473.9  27044.42  1473.14  5.45
2476.1  26678.17  1430.72  5.36
2478.2  26353.67  1396.39  5.30
2480.4  26048.95  1361.03  5.22
2482.5  25702.33  1331.57  5.18
2484.6  25354.08  1298.61  5.12
2486.8  25088.60  1261.23  5.03
2488.9  24764.05  1241.62  5.01
2491.1  24418.80  1211.15  4.96
2493.2  24061.77  1176.21  4.89
2495.3  23665.20  1154.40  4.88
2497.4  23361.10  1121.63  4.80
2499.5  23028.88  1100.47  4.78
2501.7  22891.63  1101.03  4.81
2503.8  22784.82  1092.16  4.79
2505.9  22720.83  1076.25  4.74
2508.0  22719.12  1074.36  4.73
2510.1  22711.83  1067.04  4.70
2512.2  22772.35  1064.30  4.67
2514.3  22931.87  1063.07  4.64
2516.4  23088.40  1096.63  4.75
