/*** Spectra Vista SIG Data ***/
name= 9_20220720_QUPA_34_avg.sig
comm= Averaged Ref/Tar of files: 8_20220720_QUPA_34_1_avg.sig,9_20220720_QUPA_34_2_avg.sig
data=
337.3  3209.08  230.17  7.17
338.8  3334.93  225.39  6.76
340.3  3498.13  223.32  6.38
341.8  3688.48  217.09  5.89
343.2  3862.80  210.16  5.44
344.7  4009.10  201.88  5.04
346.2  4166.70  196.66  4.72
347.7  4391.29  196.25  4.47
349.2  4573.80  192.24  4.20
350.6  4798.73  192.02  4.00
352.1  5084.86  183.39  3.61
353.6  5355.37  185.40  3.46
355.1  5612.50  187.94  3.35
356.6  5899.50  187.60  3.18
358.0  6156.70  193.22  3.14
359.5  6437.50  191.14  2.97
361.0  6733.13  193.80  2.88
362.5  7065.03  197.12  2.79
364.0  7407.71  193.49  2.61
365.4  7755.60  202.19  2.61
366.9  8094.13  210.22  2.60
368.4  8409.79  214.95  2.56
369.9  8756.10  221.22  2.53
371.3  9149.20  231.40  2.53
372.8  9531.45  240.34  2.52
374.3  9925.83  244.95  2.47
375.8  10312.87  243.07  2.36
377.2  10688.27  246.46  2.31
378.7  11073.84  249.02  2.25
380.2  11432.50  247.23  2.16
381.7  11909.02  252.75  2.12
383.1  12334.12  258.46  2.10
384.6  12813.13  261.27  2.04
386.1  13233.24  266.13  2.01
387.6  13645.68  272.71  2.00
389.0  14078.94  282.29  2.01
390.5  14505.15  283.96  1.96
392.0  15014.78  289.19  1.93
393.4  15546.05  294.03  1.89
394.9  16051.50  302.88  1.89
396.4  16551.38  308.16  1.86
397.9  17049.17  311.77  1.83
399.3  17550.23  324.64  1.85
400.8  18062.32  332.22  1.84
402.2  18658.00  337.86  1.81
403.7  19219.88  344.05  1.79
405.2  19784.41  351.97  1.78
406.6  20315.47  363.03  1.79
408.1  20867.34  373.12  1.79
409.6  21423.20  381.72  1.78
411.0  22054.55  393.15  1.78
412.5  22657.60  403.12  1.78
414.0  23281.84  415.26  1.78
415.4  23942.75  428.26  1.79
416.9  24562.78  439.38  1.79
418.4  25198.80  452.56  1.80
419.8  25868.27  469.82  1.82
421.3  26535.49  484.33  1.83
422.7  27271.60  496.48  1.82
424.2  28012.50  514.69  1.84
425.7  28715.17  529.21  1.84
427.1  29413.40  542.88  1.85
428.6  30157.84  559.92  1.86
430.0  30845.72  575.86  1.87
431.5  31660.90  596.22  1.88
432.9  32479.05  611.47  1.88
434.4  33315.18  630.44  1.89
435.9  34090.00  645.20  1.89
437.3  34870.00  662.42  1.90
438.8  35643.43  679.40  1.91
440.2  36445.39  698.33  1.92
441.7  37345.80  720.16  1.93
443.1  38190.92  740.68  1.94
444.6  39094.77  762.67  1.95
446.0  39958.68  784.19  1.96
447.5  40843.00  805.78  1.97
448.9  41718.60  828.37  1.99
450.4  42644.35  853.28  2.00
451.8  43446.00  874.66  2.01
453.3  44302.46  901.00  2.03
454.7  45247.34  921.37  2.04
456.2  46053.86  942.44  2.05
457.6  46962.53  963.58  2.05
459.1  47867.84  986.18  2.06
460.5  48725.13  1005.48  2.06
462.0  49699.87  1028.42  2.07
463.4  50653.47  1053.34  2.08
464.8  51568.75  1074.78  2.08
466.3  52490.90  1098.76  2.09
467.7  53414.63  1120.91  2.10
469.2  54404.57  1141.15  2.10
470.6  55305.49  1162.47  2.10
472.0  56262.47  1182.70  2.10
473.5  57187.42  1208.16  2.11
474.9  58130.50  1232.76  2.12
476.4  59198.40  1260.07  2.13
477.8  60204.00  1287.81  2.14
479.2  61156.17  1309.56  2.14
480.7  62170.13  1335.77  2.15
482.1  63223.57  1362.77  2.16
483.6  64321.77  1391.19  2.16
485.0  65320.85  1425.10  2.18
486.4  66425.60  1459.92  2.20
487.9  67431.00  1499.00  2.22
489.3  68515.43  1535.61  2.24
490.7  69511.82  1577.96  2.27
492.2  70653.10  1623.65  2.30
493.6  71667.80  1671.08  2.33
495.0  72696.00  1726.45  2.37
496.5  73781.01  1788.40  2.42
497.9  74788.69  1855.48  2.48
499.3  75864.86  1930.74  2.54
500.7  77024.82  2022.26  2.63
502.2  78075.93  2120.83  2.72
503.6  79229.34  2236.37  2.82
505.0  80194.10  2363.25  2.95
506.5  81405.33  2520.61  3.10
507.9  82506.07  2703.80  3.28
509.3  83792.67  2917.57  3.48
510.7  84961.50  3158.65  3.72
512.2  86237.23  3433.54  3.98
513.6  87592.40  3750.75  4.28
515.0  88892.03  4108.79  4.62
516.4  90153.00  4506.37  5.00
517.8  91647.71  4959.29  5.41
519.3  92848.08  5431.41  5.85
520.7  94280.19  5950.51  6.31
522.1  95458.57  6472.16  6.78
523.5  96711.57  7010.83  7.25
524.9  97989.45  7549.48  7.70
526.3  99268.52  8070.92  8.13
527.8  100727.55  8598.37  8.54
529.2  101831.57  9089.22  8.93
530.6  103081.49  9565.90  9.28
532.0  104668.67  10035.20  9.59
533.4  105939.30  10440.41  9.86
534.8  106756.61  10765.28  10.08
536.3  108295.50  11130.12  10.28
537.7  110128.20  11499.30  10.44
539.1  111500.17  11810.40  10.59
540.5  112663.49  12085.29  10.73
541.9  114350.95  12410.69  10.85
543.3  115560.94  12681.13  10.97
544.7  116880.40  12961.58  11.09
546.1  118515.29  13276.69  11.20
547.5  119634.67  13517.60  11.30
549.0  121220.00  13793.84  11.38
550.4  122548.75  14021.76  11.44
551.8  123924.86  14217.63  11.47
553.2  125357.82  14378.53  11.47
554.6  126602.67  14469.52  11.43
556.0  127991.55  14524.80  11.35
557.4  129447.97  14544.78  11.24
558.8  130930.95  14525.83  11.09
560.2  132250.13  14448.37  10.93
561.6  133763.18  14356.37  10.73
563.0  135214.80  14215.23  10.51
564.4  136647.12  14041.75  10.28
565.8  138022.29  13826.62  10.02
567.2  139624.59  13599.88  9.74
568.6  140990.75  13318.15  9.45
570.0  142283.56  13001.82  9.14
571.4  143845.22  12696.61  8.83
572.8  145437.13  12396.22  8.52
574.2  146932.80  12102.24  8.24
575.6  148357.50  11825.46  7.97
577.0  149725.00  11569.05  7.73
578.4  151298.88  11355.78  7.51
579.8  152671.05  11156.38  7.31
581.2  154240.73  10994.54  7.13
582.5  155524.20  10838.33  6.97
583.9  156896.74  10709.46  6.83
585.3  158534.93  10617.00  6.70
586.7  159864.36  10523.60  6.58
588.1  161226.13  10452.79  6.48
589.5  162712.67  10408.01  6.40
590.9  164192.53  10383.82  6.32
592.3  165844.07  10390.45  6.27
593.7  167145.23  10389.15  6.22
595.0  168627.38  10408.53  6.17
596.4  169938.54  10414.52  6.13
597.8  171282.50  10413.62  6.08
599.2  172691.20  10402.36  6.02
600.6  174282.12  10383.86  5.96
602.0  175446.85  10310.66  5.88
603.3  177075.92  10236.58  5.78
604.7  178586.39  10121.98  5.67
606.1  179929.00  9973.39  5.54
607.5  181414.90  9808.84  5.41
608.9  182949.73  9634.62  5.27
610.2  184199.40  9438.73  5.12
611.6  185647.23  9249.93  4.98
613.0  187040.80  9063.25  4.85
614.4  188296.40  8882.99  4.72
615.8  189608.25  8721.24  4.60
617.1  191002.00  8586.76  4.50
618.5  192474.00  8476.10  4.40
619.9  193840.93  8387.22  4.33
621.3  195296.63  8326.79  4.26
622.6  196730.09  8288.67  4.21
624.0  198038.10  8265.53  4.17
625.4  199349.43  8259.46  4.14
626.8  200761.17  8281.54  4.13
628.1  201968.80  8305.89  4.11
629.5  203659.61  8363.38  4.11
630.9  205107.93  8414.02  4.10
632.2  206382.05  8451.45  4.10
633.6  207863.25  8487.80  4.08
635.0  209260.94  8504.67  4.06
636.3  210644.80  8492.16  4.03
637.7  211864.96  8437.39  3.98
639.1  213342.50  8359.34  3.92
640.4  214686.44  8245.47  3.84
641.8  215759.74  8090.35  3.75
643.2  217177.22  7928.77  3.65
644.5  218403.83  7750.34  3.55
645.9  219924.00  7576.98  3.45
647.2  221371.74  7417.55  3.35
648.6  223074.00  7282.96  3.26
650.0  224402.40  7145.18  3.18
651.3  224757.78  6986.52  3.11
652.7  225782.44  6845.19  3.03
654.0  227503.87  6722.02  2.95
655.4  229048.18  6589.03  2.88
656.8  229292.70  6422.27  2.80
658.1  230299.07  6269.31  2.72
659.5  232394.58  6135.14  2.64
660.8  233977.50  6001.72  2.57
662.2  234826.67  5864.96  2.50
663.5  236421.72  5764.28  2.44
664.9  237678.14  5683.60  2.39
666.2  238472.40  5620.09  2.36
667.6  240172.35  5598.37  2.33
668.9  241205.21  5596.07  2.32
670.3  242269.05  5606.11  2.31
671.6  243647.88  5647.57  2.32
673.0  244702.50  5710.57  2.33
674.3  245803.57  5784.31  2.35
675.7  247011.89  5879.42  2.38
677.0  248045.55  5986.50  2.41
678.4  249286.29  6117.50  2.45
679.7  250292.10  6273.45  2.51
681.1  251478.40  6455.26  2.57
682.4  252536.70  6667.46  2.64
683.8  253685.90  6925.30  2.73
685.1  254562.88  7245.73  2.85
686.4  255773.60  7660.90  3.00
687.8  256972.67  8199.45  3.19
689.1  257892.34  8913.46  3.46
690.5  259081.20  9869.76  3.81
691.8  259863.44  11138.08  4.29
693.1  261056.35  12817.21  4.91
694.5  262095.17  14927.58  5.70
695.8  263194.75  17496.92  6.65
697.1  264301.92  20524.40  7.77
698.5  265249.50  23992.17  9.05
699.8  266227.18  27864.12  10.47
701.1  267300.46  32085.45  12.00
702.5  267999.23  36527.03  13.63
703.8  268912.50  41160.00  15.31
705.1  269952.15  45901.62  17.00
706.5  270901.58  50669.47  18.70
707.8  271805.80  55403.10  20.38
709.1  272610.58  60059.25  22.03
710.5  273667.29  64669.68  23.63
711.8  274453.54  69111.95  25.18
713.1  275360.40  73466.08  26.68
714.4  276185.50  77660.28  28.12
715.8  276928.84  81688.83  29.50
717.1  278138.30  85698.84  30.81
718.4  279014.40  89446.83  32.06
719.7  280031.01  93087.17  33.24
721.0  280515.00  96395.57  34.36
722.4  281213.54  99603.14  35.42
723.7  282090.65  102704.38  36.41
725.0  283062.60  105682.51  37.34
726.3  283958.22  108460.70  38.20
727.6  284445.15  110938.09  39.00
729.0  285255.78  113383.67  39.75
730.3  285985.85  115650.08  40.44
731.6  286813.07  117819.50  41.08
732.9  287554.87  119823.47  41.67
734.2  288299.46  121704.06  42.21
735.5  289247.72  123557.56  42.72
736.8  289993.20  125206.54  43.18
738.1  290719.60  126756.61  43.60
739.5  291598.85  128258.74  43.98
740.8  292239.66  129570.54  44.34
742.1  292923.09  130831.82  44.66
743.4  293633.34  132024.88  44.96
744.7  294539.11  133240.61  45.24
746.0  295344.40  134336.41  45.48
747.3  295834.75  135215.77  45.71
748.6  296519.84  136120.26  45.91
749.9  297240.67  136973.32  46.08
751.2  297935.67  137772.90  46.24
752.5  298789.90  138601.85  46.39
753.8  299393.15  139269.43  46.52
755.1  300040.00  139911.33  46.63
756.4  300565.39  140466.00  46.73
757.7  301470.46  141152.79  46.82
759.0  303108.55  142156.48  46.90
760.3  304207.20  142878.18  46.97
761.6  305660.60  143748.43  47.03
762.9  306180.50  144144.16  47.08
764.2  306525.50  144453.13  47.13
765.5  306787.80  144707.81  47.17
766.8  307178.67  145004.24  47.21
768.1  307674.60  145327.39  47.23
769.3  308242.20  145676.27  47.26
770.6  308866.14  146040.21  47.28
771.9  309549.34  146429.24  47.30
773.2  309929.20  146674.78  47.33
774.5  310510.20  146996.24  47.34
775.8  311118.40  147339.56  47.36
777.1  311652.37  147641.00  47.37
778.4  311973.66  147838.21  47.39
779.6  312697.09  148219.33  47.40
780.9  313150.00  148474.29  47.41
782.2  313581.59  148709.29  47.42
783.5  313895.84  148881.40  47.43
784.8  314394.45  149153.66  47.44
786.0  314770.75  149360.40  47.45
787.3  315127.70  149563.66  47.46
788.6  315513.05  149786.03  47.47
789.9  315957.14  150013.36  47.48
791.2  316563.85  150328.82  47.49
792.4  317208.51  150649.27  47.49
793.7  317667.40  150883.39  47.50
795.0  318236.88  151176.17  47.50
796.2  318851.51  151488.82  47.51
797.5  319516.30  151830.44  47.52
798.8  320171.77  152156.07  47.52
800.0  320801.49  152467.65  47.53
801.3  321277.97  152692.86  47.53
802.6  321859.80  152973.70  47.53
803.8  322431.17  153270.76  47.54
805.1  322910.30  153502.66  47.54
806.4  323380.10  153749.83  47.54
807.7  323882.55  153986.30  47.54
808.9  324414.55  154247.19  47.55
810.2  324903.25  154489.27  47.55
811.4  325398.13  154732.35  47.55
812.7  326002.08  155038.35  47.56
814.0  326785.87  155413.76  47.56
815.2  327347.84  155709.41  47.57
816.5  327743.99  155904.77  47.57
817.7  328202.44  156116.84  47.57
819.0  328699.25  156368.90  47.57
820.2  328885.33  156453.32  47.57
821.5  329531.89  156778.49  47.58
822.7  329873.65  156955.71  47.58
824.0  330189.30  157117.67  47.58
825.2  330635.93  157338.78  47.59
826.5  330972.28  157481.36  47.58
827.7  331484.56  157728.51  47.58
829.0  331882.22  157914.02  47.58
830.2  332188.62  158073.05  47.59
831.5  332628.24  158285.34  47.59
832.7  332930.68  158426.47  47.59
834.0  333212.45  158568.16  47.59
835.2  333551.26  158739.31  47.59
836.4  333846.52  158888.75  47.59
837.7  334233.33  159085.78  47.60
838.9  334654.06  159296.05  47.60
840.1  335010.83  159465.83  47.60
841.4  335406.54  159675.76  47.61
842.6  335798.74  159860.77  47.61
843.8  336110.07  160034.09  47.61
845.1  336554.07  160264.50  47.62
846.3  336920.60  160470.15  47.63
847.5  337304.80  160664.93  47.63
848.8  337695.80  160855.99  47.63
850.0  338038.52  161008.42  47.63
851.2  338548.05  161259.99  47.63
852.5  338903.87  161455.16  47.64
853.7  339365.25  161685.77  47.64
854.9  339776.04  161891.18  47.65
856.1  340195.27  162091.69  47.65
857.4  340436.29  162209.95  47.65
858.6  340870.13  162418.39  47.65
859.8  341278.75  162598.15  47.64
861.0  341663.40  162806.17  47.65
862.2  342131.36  163025.75  47.65
863.5  342437.66  163182.64  47.65
864.7  342914.00  163414.30  47.65
865.9  343291.80  163597.42  47.66
867.1  343635.82  163747.56  47.65
868.3  344035.55  163939.32  47.65
869.5  344484.89  164159.78  47.65
870.8  344989.50  164403.97  47.65
872.0  345488.10  164624.93  47.65
873.2  345839.80  164807.93  47.65
874.4  346305.38  165013.00  47.65
875.6  346648.97  165172.62  47.65
876.8  347117.60  165383.58  47.64
878.0  347611.27  165604.87  47.64
879.2  348121.80  165824.63  47.63
880.4  348632.63  166041.02  47.63
881.6  349097.41  166257.94  47.63
882.8  349447.74  166456.54  47.63
884.0  350022.73  166704.70  47.63
885.2  350507.67  166917.32  47.62
886.5  351075.97  167181.86  47.62
887.7  351547.63  167385.63  47.61
888.8  352199.80  167673.48  47.61
890.0  352727.57  167902.41  47.60
891.2  353280.23  168160.27  47.60
892.4  353904.78  168413.72  47.59
893.6  354471.65  168681.78  47.59
894.8  355321.25  169067.47  47.58
896.0  356109.00  169420.70  47.58
897.2  356890.08  169780.06  47.57
898.4  357606.70  170093.24  47.56
899.6  358195.63  170348.08  47.56
900.8  358620.71  170525.94  47.55
902.0  358852.90  170616.83  47.55
903.2  359181.58  170744.97  47.54
904.3  359439.80  170891.46  47.54
905.5  360101.79  171167.45  47.53
906.7  360740.84  171427.70  47.52
907.9  361263.94  171676.59  47.52
909.1  361652.18  171798.27  47.50
910.2  361827.85  171897.84  47.51
911.4  362093.55  171992.44  47.50
912.6  362259.52  172089.34  47.50
913.8  362569.03  172194.62  47.49
915.0  363063.05  172357.22  47.47
916.2  363350.00  172442.17  47.46
917.3  363370.13  172429.97  47.45
918.5  363629.50  172536.76  47.45
919.7  363911.15  172671.28  47.45
920.8  364045.09  172694.33  47.44
922.0  364229.25  172727.05  47.42
923.2  364500.50  172802.50  47.41
924.4  364710.38  172870.57  47.40
925.5  365107.37  172968.52  47.37
926.7  365713.92  173199.87  47.36
927.9  366512.80  173531.71  47.35
929.0  367825.95  174127.50  47.34
930.2  369796.37  175020.89  47.33
931.4  372081.38  176020.51  47.31
932.5  374571.97  177113.96  47.28
933.7  376007.00  177713.38  47.26
934.9  376629.17  177914.50  47.24
936.0  376338.63  177715.33  47.22
937.2  374468.50  176762.85  47.20
938.3  373023.09  176004.97  47.18
939.5  371732.40  175316.98  47.16
940.7  371991.60  175356.83  47.14
941.8  373479.83  175931.23  47.11
943.0  374811.75  176473.34  47.08
944.2  375650.17  176750.41  47.05
945.3  375316.50  176511.50  47.03
946.5  374674.50  176085.40  47.00
947.6  374916.20  176083.30  46.97
948.8  374985.65  175914.16  46.91
949.9  375125.80  175823.24  46.87
951.1  374914.91  175537.68  46.82
952.2  374748.00  175301.09  46.78
953.4  374569.84  175044.34  46.73
954.5  374657.40  174879.23  46.68
955.7  374707.20  174689.28  46.62
956.8  374570.10  174420.65  46.57
958.0  374335.00  174128.54  46.52
959.1  374252.05  173912.51  46.47
960.3  374092.67  173637.70  46.42
961.4  374107.25  173510.04  46.38
962.6  374249.75  173507.08  46.36
963.7  374120.63  173366.51  46.34
964.9  373943.58  173275.39  46.34
966.0  373932.45  173189.00  46.32
967.2  374036.40  173193.09  46.30
968.3  373829.85  173054.11  46.29
969.5  373884.97  172997.02  46.27
970.6  373898.88  172993.02  46.27
971.8  374081.63  173101.87  46.27
972.9  373941.48  173041.04  46.27
974.0  374350.47  173104.12  46.24
975.2  374100.42  173023.48  46.25
976.3  374180.59  172984.90  46.23
977.5  374267.19  173061.89  46.24
978.6  374093.50  173048.97  46.26
979.7  374465.88  173144.21  46.24
980.9  374418.06  173122.99  46.24
982.0  374201.02  173104.26  46.26
983.2  374167.41  173064.90  46.25
984.3  374134.40  172998.32  46.24
985.4  374530.88  173043.52  46.20
986.6  374411.54  173069.20  46.22
987.7  375464.19  173498.06  46.21
988.9  375263.40  173485.87  46.23
990.0  375978.33  174010.40  46.28
993.1  319724.24  146849.89  45.93
996.9  319761.57  147290.87  46.06
1000.7  320430.93  147943.87  46.17
1004.5  320796.75  148429.27  46.27
1008.4  320582.92  148649.08  46.37
1012.2  320604.77  148941.20  46.46
1016.0  320659.80  149248.50  46.54
1019.8  320711.74  149555.18  46.63
1023.7  320512.23  149674.46  46.70
1027.5  319917.86  149636.07  46.77
1031.3  319891.84  149759.98  46.82
1035.1  319552.22  149736.31  46.86
1038.9  319388.21  149765.89  46.89
1042.7  319158.29  149751.11  46.92
1046.5  319012.92  149751.92  46.94
1050.3  319021.88  149808.62  46.96
1054.2  318735.38  149729.42  46.98
1058.0  318261.54  149527.00  46.98
1061.8  318166.60  149521.31  46.99
1065.6  317842.77  149364.35  46.99
1069.4  317690.07  149307.88  47.00
1073.2  317195.88  149060.67  46.99
1077.0  316688.69  148806.05  46.99
1080.8  316371.88  148584.01  46.96
1084.6  315718.84  148195.49  46.94
1088.4  315386.98  147980.84  46.92
1092.2  314759.25  147593.41  46.89
1096.0  314254.66  147262.89  46.86
1099.8  313791.94  146914.16  46.82
1103.6  313114.27  146457.13  46.77
1107.4  312239.62  145889.87  46.72
1111.2  311943.55  145609.01  46.68
1114.9  311261.42  145126.21  46.63
1118.7  310691.70  144609.48  46.54
1122.5  310081.63  144020.68  46.45
1126.3  309116.71  143214.29  46.33
1130.1  308690.13  142498.04  46.16
1133.9  307381.20  141171.65  45.93
1137.7  306202.65  139736.41  45.64
1141.4  304692.16  138010.62  45.30
1145.2  304045.29  136558.97  44.91
1149.0  303065.73  135040.21  44.56
1152.8  301719.50  133490.63  44.24
1156.6  300329.52  132176.83  44.01
1160.3  298874.17  131054.12  43.85
1164.1  296870.45  129871.63  43.75
1167.9  295406.25  129060.12  43.69
1171.7  294320.25  128489.63  43.66
1175.4  293244.74  127956.04  43.63
1179.2  292238.59  127432.01  43.61
1183.0  291857.34  127159.31  43.57
1186.7  291437.19  126861.05  43.53
1190.5  290682.10  126431.07  43.49
1194.3  289793.88  125985.76  43.47
1198.0  288759.08  125545.65  43.48
1201.8  287452.79  125004.10  43.49
1205.6  286402.67  124620.00  43.51
1209.3  285622.22  124413.04  43.56
1213.1  284917.88  124242.65  43.61
1216.8  284195.68  124123.73  43.68
1220.6  283288.13  123927.47  43.75
1224.3  282261.21  123668.86  43.81
1228.1  281154.50  123407.56  43.89
1231.9  280000.44  123078.16  43.96
1235.6  278647.66  122643.53  44.01
1239.4  277419.38  122266.48  44.07
1243.1  276307.21  121889.46  44.11
1246.9  275267.21  121508.64  44.14
1250.6  274442.77  121201.15  44.16
1254.3  273522.01  120844.19  44.18
1258.1  272679.58  120495.49  44.19
1261.8  271563.00  120014.72  44.19
1265.6  270379.75  119462.22  44.18
1269.3  269285.22  118921.10  44.16
1273.1  269312.43  118843.30  44.13
1276.8  269476.60  118813.32  44.09
1280.6  269149.83  118558.97  44.05
1284.3  267787.40  117826.98  44.00
1288.0  266525.75  117093.14  43.93
1291.8  265543.13  116400.55  43.83
1295.5  264506.00  115666.78  43.73
1299.2  263449.96  114878.63  43.61
1302.9  262173.18  113931.92  43.46
1306.7  260788.62  112872.67  43.28
1310.4  259460.93  111752.24  43.07
1314.1  258219.23  110614.30  42.84
1317.9  257134.90  109441.34  42.56
1321.6  255918.82  108133.20  42.25
1325.3  254508.72  106646.78  41.90
1329.0  253313.61  105194.10  41.53
1332.8  251528.20  103394.50  41.11
1336.5  249999.30  101679.27  40.67
1340.2  249613.00  100431.50  40.23
1343.9  249059.27  99101.85  39.79
1347.6  248111.55  97626.35  39.35
1351.4  247798.50  96435.47  38.92
1355.1  247505.14  95275.72  38.49
1358.8  247288.00  94104.00  38.05
1362.5  246757.72  92719.72  37.58
1366.2  245560.75  90897.97  37.02
1369.9  244260.69  88818.36  36.36
1373.6  242570.98  86253.66  35.56
1377.3  240781.65  83168.36  34.54
1381.0  239630.42  79650.86  33.24
1384.8  238078.75  75273.48  31.62
1388.4  236297.60  70403.16  29.79
1392.2  234744.30  65248.94  27.80
1395.9  233388.11  60011.34  25.71
1399.6  232110.67  55019.25  23.70
1403.3  231206.27  50562.87  21.87
1407.0  230373.95  46725.44  20.28
1410.7  229497.68  43570.90  18.99
1414.3  228629.19  41103.61  17.98
1418.1  227731.15  39253.71  17.24
1421.7  227010.65  37923.51  16.71
1425.4  226238.03  36996.05  16.35
1429.1  225466.69  36392.63  16.14
1432.8  224229.78  35976.26  16.04
1436.5  223573.77  35822.24  16.02
1440.2  222922.45  35814.46  16.07
1443.9  221871.66  35830.02  16.15
1447.6  220581.90  35865.50  16.26
1451.2  219705.84  35991.77  16.38
1454.9  218644.80  36115.44  16.52
1458.6  217682.20  36338.58  16.69
1462.3  216652.88  36655.57  16.92
1466.0  215447.78  37079.15  17.21
1469.7  213994.57  37608.79  17.57
1473.3  213073.42  38345.23  18.00
1477.0  211436.52  39034.63  18.46
1480.7  210046.64  39817.24  18.96
1484.4  208417.69  40549.06  19.46
1488.0  207108.00  41361.05  19.97
1491.7  205742.50  42133.44  20.48
1495.4  204289.82  42888.85  20.99
1499.0  202942.00  43619.11  21.49
1502.7  201847.75  44399.21  22.00
1506.4  200657.71  45111.84  22.48
1510.0  199438.07  45789.65  22.96
1513.7  198153.96  46414.24  23.42
1517.4  197004.50  47025.62  23.87
1521.0  195952.67  47631.30  24.31
1524.7  194906.29  48176.07  24.72
1528.3  193830.32  48685.85  25.12
1532.0  192819.55  49166.34  25.50
1535.7  191626.44  49552.50  25.86
1539.3  190528.70  49936.44  26.21
1543.0  189700.85  50364.96  26.55
1546.6  189082.83  50821.72  26.88
1550.3  188270.00  51182.15  27.19
1553.9  187345.00  51489.31  27.48
1557.6  186260.80  51720.54  27.77
1561.2  185186.25  51910.94  28.03
1564.9  184073.32  52082.59  28.29
1568.5  182926.80  52213.24  28.54
1572.2  181947.50  52369.37  28.78
1575.8  181048.00  52544.00  29.02
1579.5  180195.43  52708.16  29.25
1583.1  179334.05  52865.58  29.48
1586.8  178262.00  52944.00  29.70
1590.4  177325.20  53048.01  29.92
1594.0  176203.74  53083.93  30.13
1597.7  175308.07  53177.12  30.33
1601.3  174274.54  53219.03  30.54
1604.9  173242.95  53229.26  30.73
1608.6  172078.90  53183.61  30.91
1612.2  171112.02  53169.78  31.07
1615.8  170103.70  53124.97  31.23
1619.5  169094.46  53058.29  31.38
1623.1  167991.07  52945.64  31.52
1626.7  166945.35  52825.50  31.64
1630.3  165935.38  52693.47  31.76
1634.0  164969.00  52567.00  31.86
1637.6  164129.87  52439.53  31.95
1641.2  163289.10  52275.03  32.01
1644.8  162267.00  52006.34  32.05
1648.5  161342.54  51736.55  32.07
1652.1  160514.40  51451.91  32.05
1655.7  159728.70  51140.29  32.02
1659.3  159012.25  50836.51  31.97
1662.9  157809.59  50372.62  31.92
1666.6  156583.10  49912.56  31.88
1670.2  155372.70  49451.20  31.83
1673.8  154132.20  48968.84  31.77
1677.4  153152.03  48553.79  31.70
1681.0  152467.44  48188.78  31.61
1684.6  152135.21  47894.40  31.48
1688.2  151581.88  47474.26  31.32
1691.8  151018.86  47074.58  31.17
1695.4  150662.00  46719.02  31.01
1699.0  150353.82  46375.25  30.84
1702.6  150070.00  46021.26  30.67
1706.2  149551.30  45590.03  30.48
1709.8  148778.05  45080.70  30.30
1713.4  148150.42  44618.03  30.12
1717.0  147389.38  44129.89  29.94
1720.6  146700.98  43665.40  29.76
1724.2  146100.83  43228.14  29.59
1727.8  145503.40  42817.25  29.43
1731.4  145086.57  42483.97  29.28
1735.0  144900.71  42242.55  29.15
1738.6  144673.80  41957.79  29.00
1742.2  144165.47  41567.87  28.83
1745.8  143591.46  41136.39  28.65
1749.4  142744.39  40610.57  28.45
1753.0  141462.07  39951.74  28.24
1756.6  140052.50  39267.48  28.04
1760.1  138908.15  38678.89  27.84
1763.7  137432.67  38020.10  27.66
1767.3  136203.22  37464.91  27.51
1770.9  135151.60  36980.89  27.36
1774.5  133908.72  36463.37  27.23
1778.0  132919.49  36031.38  27.11
1781.6  131971.65  35634.97  27.00
1785.2  130987.96  35255.09  26.91
1788.8  129988.35  34905.81  26.85
1792.3  128904.47  34552.46  26.80
1795.9  128418.17  34381.54  26.77
1799.5  127918.34  34226.08  26.76
1803.1  127469.42  34086.79  26.74
1806.6  128096.30  34218.48  26.71
1810.2  129110.57  34459.92  26.69
1813.8  129714.15  34596.05  26.67
1817.3  129504.30  34517.44  26.65
1820.9  128549.89  34244.81  26.64
1824.5  127317.82  33880.13  26.61
1828.0  126324.00  33561.46  26.57
1831.6  125399.75  33232.21  26.50
1835.2  124645.42  32901.07  26.40
1838.7  124267.27  32598.27  26.23
1842.3  124012.50  32270.36  26.02
1845.8  123480.21  31771.71  25.73
1849.4  123072.68  31189.86  25.34
1852.9  122617.34  30453.63  24.84
1856.5  121946.76  29477.38  24.17
1860.0  121327.97  28318.45  23.34
1863.6  120935.00  27014.18  22.34
1867.1  120513.05  25481.23  21.14
1870.7  120324.65  23651.25  19.66
1874.2  119943.45  21459.99  17.89
1877.8  119220.80  19095.85  16.02
1881.3  118166.32  16634.79  14.08
1884.9  117307.21  14300.40  12.19
1888.4  116380.98  12093.75  10.39
1891.9  115335.17  10186.27  8.83
1895.5  114176.56  8650.46  7.58
1899.0  113367.82  7524.69  6.64
1901.3  145521.44  6239.36  4.29
1904.1  145330.60  5526.85  3.80
1906.8  144591.98  4977.30  3.44
1909.6  143070.77  4556.88  3.19
1912.4  141605.02  4253.34  3.00
1915.1  140491.32  4047.11  2.88
1917.9  139244.25  3893.80  2.80
1920.6  138267.38  3797.79  2.75
1923.3  137364.59  3744.07  2.73
1926.1  136241.42  3718.49  2.73
1928.8  135217.50  3725.33  2.76
1931.6  134406.81  3766.77  2.80
1934.3  133622.85  3830.09  2.87
1937.0  132849.42  3907.03  2.94
1939.8  131963.13  3986.12  3.02
1942.5  130873.88  4079.63  3.12
1945.2  129475.50  4181.31  3.23
1947.9  128331.35  4296.78  3.35
1950.7  127396.40  4423.09  3.47
1953.4  125934.66  4550.58  3.61
1956.1  124787.32  4697.74  3.76
1958.8  123780.07  4856.32  3.92
1961.5  122571.60  5015.15  4.09
1964.2  121317.79  5176.77  4.27
1966.9  120003.01  5342.90  4.45
1969.6  118962.00  5529.38  4.65
1972.3  117780.38  5711.58  4.85
1975.0  116889.70  5914.02  5.06
1977.7  115946.88  6118.77  5.28
1980.4  114980.32  6329.54  5.50
1983.1  114059.77  6538.59  5.73
1985.8  113274.00  6757.73  5.97
1988.4  112391.50  6982.09  6.21
1991.1  111586.92  7194.81  6.45
1993.8  110835.11  7416.80  6.69
1996.5  110295.49  7655.91  6.94
1999.1  109710.63  7885.33  7.19
2001.8  109110.23  8106.70  7.43
2004.5  108532.64  8324.55  7.67
2007.1  107913.08  8532.15  7.91
2009.8  107281.04  8727.22  8.13
2012.4  106789.58  8927.95  8.36
2015.1  106332.45  9113.57  8.57
2017.8  105668.77  9276.52  8.78
2020.4  105241.82  9449.26  8.98
2023.1  104933.85  9616.46  9.16
2025.7  104721.50  9781.42  9.34
2028.3  104442.00  9930.92  9.51
2031.0  104121.85  10062.90  9.66
2033.6  103881.27  10189.88  9.81
2036.2  103646.37  10306.24  9.94
2038.9  103150.47  10383.45  10.07
2041.5  102857.76  10471.99  10.18
2044.1  102387.04  10531.36  10.29
2046.8  102073.84  10603.13  10.39
2049.4  101529.01  10643.37  10.48
2052.0  101263.00  10713.62  10.58
2054.6  100924.69  10775.63  10.68
2057.2  100447.53  10827.15  10.78
2059.8  100182.25  10906.84  10.89
2062.4  99432.11  10931.79  10.99
2065.0  98990.15  10993.08  11.11
2067.6  98239.02  11017.87  11.22
2070.2  97729.09  11066.90  11.32
2072.8  97179.94  11110.49  11.43
2075.4  96796.88  11168.28  11.54
2078.0  96249.97  11204.24  11.64
2080.6  95766.00  11249.70  11.75
2083.2  95186.28  11276.13  11.85
2085.8  94771.07  11320.62  11.95
2088.4  94210.82  11344.21  12.04
2090.9  93527.21  11351.46  12.14
2093.5  92776.54  11347.36  12.23
2096.1  92109.72  11353.56  12.33
2098.7  91437.80  11356.85  12.42
2101.2  90622.53  11342.42  12.52
2103.8  90059.23  11353.34  12.61
2106.4  89486.10  11363.16  12.70
2108.9  88926.08  11377.35  12.79
2111.5  88195.75  11362.07  12.88
2114.0  87652.10  11368.62  12.97
2116.6  87209.07  11384.85  13.05
2119.1  86743.98  11394.48  13.14
2121.7  86326.41  11411.10  13.22
2124.2  85977.99  11428.45  13.29
2126.8  85304.83  11404.07  13.37
2129.3  84968.40  11415.80  13.44
2131.9  84456.90  11403.70  13.50
2134.4  84087.17  11402.12  13.56
2136.9  83764.29  11403.98  13.61
2139.4  83334.48  11394.78  13.67
2142.0  82962.08  11392.56  13.73
2144.5  82719.94  11404.24  13.79
2147.0  82520.55  11429.09  13.85
2149.5  82101.80  11426.85  13.92
2152.1  81958.32  11457.12  13.98
2154.6  81889.00  11486.34  14.03
2157.1  81429.81  11459.76  14.07
2159.6  81085.79  11458.63  14.13
2162.1  80958.16  11483.07  14.18
2164.6  80747.80  11494.30  14.23
2167.1  80477.00  11489.50  14.28
2169.6  80195.37  11488.58  14.33
2172.1  79793.32  11473.58  14.38
2174.6  79521.90  11484.88  14.44
2177.1  79170.59  11481.17  14.50
2179.5  78812.02  11471.15  14.56
2182.0  78382.22  11458.43  14.62
2184.5  77922.72  11446.50  14.69
2187.0  77400.50  11420.23  14.75
2189.5  76815.00  11383.56  14.82
2191.9  76152.01  11337.07  14.89
2194.4  75621.68  11311.98  14.96
2196.9  74984.40  11264.40  15.02
2199.3  74417.63  11219.38  15.08
2201.8  73642.40  11149.54  15.14
2204.3  73238.47  11122.29  15.19
2206.7  72696.70  11078.79  15.24
2209.2  72312.65  11055.74  15.29
2211.6  71777.48  10995.19  15.32
2214.1  71509.41  10968.64  15.34
2216.5  71028.30  10914.25  15.37
2219.0  70748.93  10881.97  15.38
2221.4  70407.10  10831.48  15.38
2223.9  69986.88  10755.87  15.37
2226.3  69544.35  10669.10  15.34
2228.7  69080.80  10562.81  15.29
2231.1  68558.74  10434.60  15.22
2233.6  68055.75  10298.39  15.13
2236.0  67584.57  10158.39  15.03
2238.4  67171.78  10008.40  14.90
2240.9  66796.70  9860.08  14.76
2243.3  66338.53  9692.45  14.61
2245.7  65845.37  9515.93  14.45
2248.1  65432.42  9342.51  14.28
2250.5  64995.25  9163.46  14.10
2252.9  64449.46  8966.27  13.91
2255.3  63964.82  8777.15  13.72
2257.7  63566.25  8610.00  13.54
2260.1  63146.04  8443.05  13.37
2262.5  62628.75  8258.75  13.19
2264.9  62179.95  8093.99  13.02
2267.3  61653.75  7925.00  12.85
2269.7  61234.69  7774.58  12.70
2272.1  60753.59  7626.44  12.55
2274.5  60270.64  7481.26  12.41
2276.8  59870.87  7354.74  12.28
2279.2  59369.12  7218.42  12.16
2281.6  59007.03  7109.59  12.05
2284.0  58611.57  6994.26  11.93
2286.3  58216.00  6883.07  11.82
2288.7  57865.52  6778.29  11.71
2291.1  57401.33  6660.63  11.60
2293.4  57022.35  6547.57  11.48
2295.8  56492.93  6418.19  11.36
2298.2  55971.51  6294.10  11.25
2300.5  55404.85  6159.55  11.12
2302.9  54757.63  6026.92  11.01
2305.2  54140.67  5901.91  10.90
2307.6  53566.71  5783.79  10.80
2309.9  52882.13  5666.54  10.72
2312.2  52339.63  5576.13  10.65
2314.6  51822.45  5495.85  10.61
2316.9  51209.22  5407.88  10.56
2319.2  50689.12  5319.40  10.49
2321.6  50128.14  5225.42  10.42
2323.9  49640.63  5145.84  10.37
2326.2  49180.13  5064.08  10.30
2328.6  48741.42  4972.90  10.20
2330.9  48301.32  4889.07  10.12
2333.2  47894.88  4800.87  10.02
2335.5  47516.03  4717.37  9.93
2337.8  47117.78  4634.14  9.84
2340.1  46620.40  4539.79  9.74
2342.4  46243.44  4461.98  9.65
2344.8  45882.76  4383.04  9.55
2347.1  45385.55  4289.34  9.45
2349.4  44898.43  4212.50  9.38
2351.6  44402.68  4134.01  9.31
2353.9  43969.22  4068.55  9.25
2356.2  43509.25  3997.83  9.19
2358.5  42999.60  3920.00  9.12
2360.8  42504.00  3838.80  9.03
2363.1  42117.18  3770.20  8.95
2365.4  41713.95  3699.34  8.87
2367.7  41300.78  3636.60  8.81
2369.9  40824.98  3562.39  8.73
2372.2  40291.00  3477.27  8.63
2374.5  39778.20  3394.26  8.53
2376.7  39223.68  3307.85  8.43
2379.0  38686.66  3223.89  8.33
2381.3  38167.50  3150.00  8.25
2383.5  37712.40  3080.00  8.17
2385.8  37175.32  2991.68  8.05
2388.0  36723.08  2908.70  7.92
2390.3  36276.40  2836.13  7.82
2392.5  35856.00  2769.00  7.72
2394.8  35446.95  2704.35  7.63
2397.0  35030.45  2629.90  7.51
2399.3  34621.99  2570.69  7.43
2401.5  34241.82  2503.60  7.31
2403.8  33776.92  2427.93  7.19
2406.0  33338.76  2356.06  7.07
2408.2  32982.13  2292.31  6.95
2410.4  32600.23  2229.84  6.84
2412.7  32228.79  2166.18  6.72
2414.9  31911.21  2103.06  6.59
2417.1  31561.09  2039.94  6.46
2419.3  31200.00  1985.60  6.36
2421.6  30869.22  1929.43  6.25
2423.8  30536.51  1878.55  6.15
2426.0  30215.47  1820.92  6.03
2428.2  29899.80  1765.64  5.91
2430.4  29611.24  1713.72  5.79
2432.6  29365.00  1670.00  5.69
2434.8  29102.58  1624.06  5.58
2437.0  28794.35  1573.39  5.46
2439.2  28491.45  1520.63  5.34
2441.4  28195.44  1475.81  5.23
2443.6  27978.76  1431.76  5.12
2445.7  27764.93  1390.07  5.01
2447.9  27513.26  1355.14  4.93
2450.1  27239.44  1315.44  4.83
2452.3  26939.90  1265.21  4.70
2454.5  26646.94  1228.64  4.61
2456.6  26289.90  1189.49  4.52
2458.8  25959.87  1152.94  4.44
2461.0  25717.53  1124.50  4.37
2463.1  25464.32  1082.16  4.25
2465.3  25204.09  1051.78  4.17
2467.5  24973.60  1026.97  4.11
2469.6  24752.35  995.69  4.02
2471.8  24473.42  962.94  3.93
2473.9  24203.10  942.71  3.89
2476.1  23898.88  917.59  3.84
2478.2  23598.34  891.16  3.78
2480.4  23330.08  869.20  3.73
2482.5  23010.17  838.04  3.64
2484.6  22720.50  818.13  3.60
2486.8  22484.37  800.70  3.56
2488.9  22189.40  777.34  3.50
2491.1  21890.05  759.62  3.47
2493.2  21555.01  736.47  3.42
2495.3  21200.08  719.50  3.39
2497.4  20901.83  706.39  3.38
2499.5  20627.68  683.75  3.31
2501.7  20496.48  671.72  3.28
2503.8  20385.98  666.58  3.27
2505.9  20314.22  661.98  3.26
2508.0  20297.44  652.50  3.21
2510.1  20293.12  641.57  3.16
2512.2  20368.50  649.14  3.19
2514.3  20494.88  657.30  3.21
2516.4  20648.07  672.27  3.26
