/*** Spectra Vista SIG Data ***/
name= 9_20220926_TITO_09_avg.sig
comm= Averaged Ref/Tar of files: HR.092622.0023_moc.sig,HR.092622.0024_moc.sig,HR.092622.0025_moc.sig
data=
337.3  6217.05  523.34  8.42
338.8  6445.40  502.07  7.79
340.3  6900.33  505.94  7.33
341.8  7076.55  476.96  6.74
343.2  7550.13  495.73  6.57
344.7  7900.50  503.80  6.38
346.2  8225.00  490.37  5.96
347.7  8548.20  497.51  5.82
349.2  8920.80  489.60  5.49
350.6  9350.40  482.82  5.16
352.1  9834.25  490.53  4.99
353.6  10320.00  474.39  4.60
355.1  10777.05  486.58  4.51
356.6  11388.13  505.73  4.44
358.0  11905.10  516.25  4.34
359.5  12438.90  516.83  4.15
361.0  13105.30  527.49  4.02
362.5  13726.65  548.19  3.99
364.0  14483.20  561.44  3.88
365.4  15103.73  572.22  3.79
366.9  15764.93  595.41  3.78
368.4  16409.15  609.84  3.72
369.9  17172.00  633.98  3.69
371.3  18016.08  672.32  3.73
372.8  18753.95  701.57  3.74
374.3  19567.20  708.35  3.62
375.8  20390.45  728.48  3.57
377.2  21217.95  728.07  3.43
378.7  22018.15  747.48  3.39
380.2  22829.93  753.21  3.30
381.7  23790.25  778.69  3.27
383.1  24728.03  805.44  3.26
384.6  25709.18  828.18  3.22
386.1  26626.13  854.65  3.21
387.6  27549.30  871.24  3.16
389.0  28624.05  878.74  3.07
390.5  29602.23  910.69  3.08
392.0  30687.75  935.44  3.05
393.4  31852.50  961.93  3.02
394.9  32830.50  984.07  3.00
396.4  34003.20  1001.40  2.95
397.9  35070.00  1038.26  2.96
399.3  36056.58  1049.45  2.91
400.8  37236.38  1079.19  2.90
402.2  38471.40  1116.50  2.90
403.7  39719.70  1141.11  2.87
405.2  40844.60  1174.01  2.87
406.6  42083.70  1206.27  2.87
408.1  43188.53  1221.80  2.83
409.6  44400.45  1262.88  2.84
411.0  45635.98  1286.09  2.82
412.5  47038.00  1310.73  2.79
414.0  48345.33  1358.22  2.81
415.4  49690.80  1398.36  2.81
416.9  50996.48  1441.68  2.83
418.4  52308.00  1475.14  2.82
419.8  53661.30  1524.43  2.84
421.3  55162.80  1563.54  2.83
422.7  56648.80  1613.39  2.85
424.2  58142.85  1659.35  2.85
425.7  59581.50  1696.91  2.85
427.1  61093.00  1747.27  2.86
428.6  62572.10  1794.06  2.87
430.0  64117.08  1848.45  2.88
431.5  65775.45  1895.28  2.88
432.9  67447.38  1957.06  2.90
434.4  69173.88  2002.54  2.89
435.9  70812.30  2051.86  2.90
437.3  72499.88  2101.60  2.90
438.8  74174.33  2159.55  2.91
440.2  75852.18  2211.16  2.92
441.7  77723.15  2272.02  2.92
443.1  79540.65  2332.93  2.93
444.6  81343.90  2389.23  2.94
446.0  83148.70  2452.10  2.95
447.5  85125.00  2523.81  2.96
448.9  86863.63  2589.35  2.98
450.4  88775.00  2654.29  2.99
451.8  90600.75  2720.20  3.00
453.3  92455.95  2783.62  3.01
454.7  94250.48  2850.99  3.02
456.2  96068.00  2911.24  3.03
457.6  97983.00  2976.38  3.04
459.1  99813.00  3036.53  3.04
460.5  101673.03  3099.00  3.05
462.0  103721.40  3168.29  3.05
463.4  105700.00  3232.41  3.06
464.8  107662.28  3297.66  3.06
466.3  109626.68  3359.88  3.06
467.7  111683.20  3424.61  3.07
469.2  113541.30  3485.54  3.07
470.6  115606.75  3557.77  3.08
472.0  117640.58  3621.26  3.08
473.5  119655.43  3689.14  3.08
474.9  121826.10  3760.97  3.09
476.4  123904.60  3832.69  3.09
477.8  126028.00  3907.20  3.10
479.2  128130.30  3969.41  3.10
480.7  130279.58  4041.72  3.10
482.1  132504.13  4120.13  3.11
483.6  134729.10  4200.94  3.12
485.0  136993.58  4285.24  3.13
486.4  139111.63  4368.47  3.14
487.9  141363.00  4457.58  3.15
489.3  143546.25  4539.34  3.16
490.7  145749.35  4633.29  3.18
492.2  148004.00  4728.09  3.19
493.6  150273.00  4835.26  3.22
495.0  152571.90  4958.63  3.25
496.5  154791.00  5073.30  3.28
497.9  157112.38  5200.46  3.31
499.3  159382.38  5338.82  3.35
500.7  161706.20  5489.12  3.39
502.2  164071.93  5663.82  3.45
503.6  166380.00  5852.71  3.52
505.0  168675.38  6063.17  3.59
506.5  171157.25  6315.26  3.69
507.9  173627.13  6586.51  3.79
509.3  175936.28  6892.83  3.92
510.7  178613.18  7252.40  4.06
512.2  181250.03  7657.69  4.22
513.6  184066.28  8122.63  4.41
515.0  186830.00  8637.62  4.62
516.4  189690.20  9221.01  4.86
517.8  192521.25  9861.39  5.12
519.3  195459.20  10559.82  5.40
520.7  198128.10  11306.64  5.71
522.1  200801.90  12094.05  6.02
523.5  203360.33  12900.53  6.34
524.9  206245.50  13731.75  6.66
526.3  208863.23  14545.45  6.96
527.8  211681.88  15347.91  7.25
529.2  214329.60  16153.78  7.54
530.6  217201.50  16963.73  7.81
532.0  220142.98  17720.26  8.05
533.4  222562.65  18385.19  8.26
534.8  225034.43  18990.78  8.44
536.3  228063.75  19592.48  8.59
537.7  231175.25  20170.92  8.73
539.1  234118.30  20705.37  8.84
540.5  236964.00  21201.78  8.95
541.9  239878.83  21693.28  9.04
543.3  242423.30  22147.94  9.14
544.7  245366.00  22634.02  9.22
546.1  248204.60  23100.79  9.31
547.5  251164.80  23580.62  9.39
549.0  254336.40  24059.78  9.46
550.4  257206.95  24482.64  9.52
551.8  260087.70  24858.69  9.56
553.2  262981.13  25186.08  9.58
554.6  265863.00  25425.69  9.56
556.0  268826.25  25599.08  9.52
557.4  271933.50  25708.53  9.45
558.8  274805.60  25725.64  9.36
560.2  277980.00  25694.86  9.24
561.6  280909.48  25576.32  9.10
563.0  283712.00  25375.57  8.94
564.4  286920.20  25158.47  8.77
565.8  289940.10  24867.59  8.58
567.2  293109.48  24538.27  8.37
568.6  296151.53  24158.61  8.16
570.0  299045.50  23726.79  7.93
571.4  302487.95  23320.64  7.71
572.8  305634.80  22905.74  7.49
574.2  308517.83  22495.47  7.29
575.6  311594.63  22131.64  7.10
577.0  314599.73  21808.18  6.93
578.4  318040.63  21555.42  6.78
579.8  321102.95  21302.17  6.63
581.2  324182.50  21093.85  6.51
582.5  327082.50  20907.43  6.39
583.9  330126.10  20756.88  6.29
585.3  333057.60  20620.91  6.19
586.7  336058.80  20524.24  6.11
588.1  339061.60  20445.42  6.03
589.5  342393.45  20408.65  5.96
590.9  345343.38  20381.04  5.90
592.3  348293.03  20376.62  5.85
593.7  351277.33  20396.40  5.81
595.0  354215.40  20431.59  5.77
596.4  357528.38  20504.11  5.73
597.8  360185.00  20530.85  5.70
599.2  363316.20  20577.44  5.66
600.6  366515.33  20613.94  5.62
602.0  369481.80  20609.53  5.58
603.3  372372.00  20578.63  5.53
604.7  375410.88  20519.44  5.47
606.1  378433.65  20432.65  5.40
607.5  381766.63  20326.27  5.32
608.9  384846.00  20182.21  5.24
610.2  388037.93  20031.89  5.16
611.6  390967.50  19861.81  5.08
613.0  393778.18  19686.33  5.00
614.4  396562.93  19510.80  4.92
615.8  399778.70  19378.83  4.85
617.1  402516.73  19233.32  4.78
618.5  405766.88  19141.67  4.72
619.9  408520.35  19048.70  4.66
621.3  411487.05  19006.20  4.62
622.6  414384.75  18996.90  4.58
624.0  417090.38  19006.27  4.56
625.4  420207.90  19062.97  4.54
626.8  423178.60  19141.17  4.52
628.1  426007.40  19233.49  4.51
629.5  428816.15  19322.35  4.51
630.9  431678.05  19419.21  4.50
632.2  434680.80  19503.43  4.49
633.6  437196.18  19529.31  4.47
635.0  440117.33  19526.85  4.44
636.3  443151.65  19460.77  4.39
637.7  445888.50  19329.14  4.33
639.1  448899.00  19168.87  4.27
640.4  451621.50  18950.64  4.20
641.8  454449.60  18721.41  4.12
643.2  457027.40  18481.95  4.04
644.5  459900.00  18256.67  3.97
645.9  462590.10  18032.54  3.90
647.2  465563.18  17847.21  3.83
648.6  468393.60  17697.24  3.78
650.0  471214.80  17576.47  3.73
651.3  473623.85  17515.78  3.70
652.7  476970.75  17507.83  3.67
654.0  479982.10  17489.05  3.64
655.4  482288.10  17426.68  3.61
656.8  483813.23  17317.95  3.58
658.1  486340.58  17237.44  3.54
659.5  489628.80  17172.21  3.51
660.8  492922.50  17117.50  3.47
662.2  495526.20  17008.11  3.43
663.5  498366.48  16895.66  3.39
664.9  500408.48  16795.37  3.36
666.2  502512.73  16736.44  3.33
667.6  505048.50  16727.87  3.31
668.9  507816.00  16801.92  3.31
670.3  510555.50  16864.98  3.30
671.6  512955.20  16950.31  3.30
673.0  515287.20  17088.41  3.32
674.3  517728.75  17251.37  3.33
675.7  520290.00  17457.41  3.36
677.0  522618.83  17675.79  3.38
678.4  524883.60  17932.19  3.42
679.7  527263.58  18250.85  3.46
681.1  529824.35  18612.52  3.51
682.4  532060.50  19014.67  3.57
683.8  534433.50  19473.13  3.64
685.1  536652.90  20012.14  3.73
686.4  538829.20  20663.88  3.83
687.8  541375.05  21512.26  3.97
689.1  543784.50  22624.49  4.16
690.5  545737.60  24095.57  4.42
691.8  548495.20  26124.58  4.76
693.1  550884.00  28791.20  5.23
694.5  553198.30  32210.65  5.82
695.8  555645.50  36415.84  6.55
697.1  557917.90  41414.28  7.42
698.5  560275.88  47232.17  8.43
699.8  562701.60  53789.11  9.56
701.1  564557.70  60939.43  10.79
702.5  566607.63  68626.69  12.11
703.8  569073.88  76743.02  13.49
705.1  570960.80  85071.25  14.90
706.5  573285.18  93664.74  16.34
707.8  575158.20  102344.59  17.79
709.1  577481.55  111210.20  19.26
710.5  579675.83  120151.21  20.73
711.8  581618.00  129118.76  22.20
713.1  583596.00  138161.05  23.67
714.4  585699.33  147268.43  25.14
715.8  588016.83  156462.35  26.61
717.1  590248.85  165641.75  28.06
718.4  592521.30  174769.18  29.50
719.7  594748.80  183829.19  30.91
721.0  596510.13  192641.65  32.29
722.4  598397.85  201346.22  33.65
723.7  600350.35  209882.81  34.96
725.0  602105.70  218090.03  36.22
726.3  604435.00  226253.49  37.43
727.6  606136.50  233908.87  38.59
729.0  608031.55  241301.69  39.69
730.3  610037.13  248404.06  40.72
731.6  611582.90  254962.73  41.69
732.9  613566.85  261383.41  42.60
734.2  615285.00  267333.94  43.45
735.5  617051.05  273021.78  44.25
736.8  619082.28  278448.62  44.98
738.1  620934.38  283471.93  45.65
739.5  622697.85  288152.27  46.27
740.8  624659.75  292608.90  46.84
742.1  626275.00  296680.92  47.37
743.4  628071.50  300580.09  47.86
744.7  629993.00  304304.93  48.30
746.0  631507.98  307571.91  48.70
747.3  633028.90  310622.16  49.07
748.6  634598.10  313463.29  49.40
749.9  636376.65  316226.48  49.69
751.2  637748.23  318583.07  49.95
752.5  639328.45  320903.65  50.19
753.8  640710.00  322943.02  50.40
755.1  642330.68  324953.04  50.59
756.4  643521.83  326608.58  50.75
757.7  645552.88  328594.36  50.90
759.0  649154.88  331290.38  51.03
760.3  651952.85  333438.16  51.14
761.6  654826.18  335581.88  51.25
762.9  656260.00  336926.91  51.34
764.2  657085.20  337863.47  51.42
765.5  657988.20  338815.53  51.49
766.8  658581.65  339544.47  51.56
768.1  659682.45  340506.60  51.62
769.3  661031.50  341509.52  51.66
770.6  662412.65  342562.86  51.71
771.9  663598.68  343493.86  51.76
773.2  665121.60  344490.90  51.79
774.5  666084.75  345221.09  51.83
775.8  667225.63  346042.17  51.86
777.1  668447.05  346891.22  51.90
778.4  669775.38  347793.77  51.93
779.6  671104.20  348684.51  51.96
780.9  671872.73  349257.15  51.98
782.2  672855.23  349953.19  52.01
783.5  673800.75  350618.69  52.04
784.8  674690.63  351227.25  52.06
786.0  675546.75  351839.93  52.08
787.3  676451.40  352474.39  52.11
788.6  677330.13  353120.92  52.13
789.9  678072.60  353643.65  52.15
791.2  679491.70  354508.58  52.17
792.4  680759.75  355260.24  52.19
793.7  682311.83  356235.09  52.21
795.0  683471.35  356951.62  52.23
796.2  684862.85  357807.18  52.25
797.5  686086.88  358590.54  52.27
798.8  687517.25  359476.33  52.29
800.0  688730.00  360209.33  52.30
801.3  690039.00  360969.75  52.31
802.6  691056.00  361660.80  52.33
803.8  692167.88  362382.73  52.35
805.1  693316.88  363068.18  52.37
806.4  694376.00  363706.51  52.38
807.7  695516.73  364399.62  52.39
808.9  696683.60  365145.23  52.41
810.2  697668.30  365745.00  52.42
811.4  698798.40  366439.51  52.44
812.7  700124.80  367250.68  52.46
814.0  701454.60  368039.98  52.47
815.2  702922.35  368895.24  52.48
816.5  704068.75  369618.08  52.50
817.7  704919.75  370152.78  52.51
819.0  705574.80  370660.40  52.53
820.2  706421.10  371218.72  52.55
821.5  707492.40  371927.49  52.57
822.7  708591.63  372576.12  52.58
824.0  709608.90  373193.69  52.59
825.2  710379.15  373640.47  52.60
826.5  711088.10  374174.43  52.62
827.7  712151.35  374855.54  52.64
829.0  713106.45  375454.10  52.65
830.2  714039.40  376049.34  52.67
831.5  714933.45  376626.25  52.68
832.7  715896.90  377235.72  52.69
834.0  716736.60  377662.22  52.69
835.2  717705.05  378342.11  52.72
836.4  718410.80  378904.35  52.74
837.7  719161.88  379469.36  52.77
838.9  720240.85  380268.79  52.80
840.1  721228.20  380835.28  52.80
841.4  722201.30  381479.89  52.82
842.6  723165.80  382048.09  52.83
843.8  723934.90  382649.65  52.86
845.1  724807.05  383241.16  52.87
846.3  725663.40  383890.38  52.90
847.5  726670.75  384481.62  52.91
848.8  727662.10  385106.11  52.92
850.0  728810.60  385850.41  52.94
851.2  729787.70  386467.18  52.96
852.5  730825.00  387199.86  52.98
853.7  731649.38  387700.80  52.99
854.9  732685.20  388453.56  53.02
856.1  733748.40  389096.40  53.03
857.4  734742.30  389690.20  53.04
858.6  735628.60  390289.20  53.06
859.8  736889.10  390988.56  53.06
861.0  737963.45  391616.68  53.07
862.2  738956.40  392298.40  53.09
863.5  739854.45  392941.94  53.11
864.7  740887.50  393540.95  53.12
865.9  741848.63  394126.85  53.13
867.1  742746.88  394590.18  53.13
868.3  743998.20  395296.01  53.13
869.5  745101.55  396010.81  53.15
870.8  746269.65  396658.63  53.15
872.0  747215.63  397268.36  53.17
873.2  748132.83  397853.30  53.18
874.4  749091.75  398352.66  53.18
875.6  750302.95  399043.45  53.18
876.8  751914.90  399838.43  53.18
878.0  752884.30  400451.79  53.19
879.2  753809.75  401094.44  53.21
880.4  754968.00  401720.00  53.21
881.6  756053.70  402301.19  53.21
882.8  757402.70  403044.41  53.21
884.0  758361.18  403548.91  53.21
885.2  759730.00  404342.98  53.22
886.5  761214.83  405069.78  53.21
887.7  762041.58  405692.84  53.24
888.8  763541.60  406510.21  53.24
890.0  764583.75  407046.50  53.24
891.2  765757.20  407666.03  53.24
892.4  767224.43  408466.64  53.24
893.6  769008.98  409415.04  53.24
894.8  770704.43  410316.32  53.24
896.0  772129.18  411155.43  53.25
897.2  774033.98  412233.88  53.26
898.4  776097.00  413309.24  53.25
899.6  777530.20  414004.93  53.25
900.8  778074.70  414313.33  53.25
902.0  778697.75  414676.46  53.25
903.2  778824.40  414837.91  53.26
904.3  780097.50  415487.89  53.26
905.5  781407.00  416198.83  53.26
906.7  782738.50  416865.88  53.26
907.9  784057.40  417477.56  53.25
909.1  784957.25  418067.10  53.26
910.2  785531.25  418306.50  53.25
911.4  785689.88  418465.14  53.26
912.6  786185.00  418781.33  53.27
913.8  787360.00  419334.81  53.26
915.0  787854.60  419562.06  53.25
916.2  788523.08  419654.20  53.22
917.3  789018.95  420081.64  53.24
918.5  789468.15  420287.16  53.24
919.7  789563.75  420324.93  53.24
920.8  789883.30  420435.80  53.23
922.0  790175.38  420467.91  53.21
923.2  790774.73  420681.40  53.20
924.4  791424.13  420991.63  53.19
925.5  792414.40  421332.92  53.17
926.7  793104.55  421752.79  53.18
927.9  794667.18  422418.41  53.16
929.0  797847.30  424038.65  53.15
930.2  802434.60  426306.87  53.13
931.4  807518.55  428807.91  53.10
932.5  812105.25  431125.88  53.09
933.7  814786.95  432399.20  53.07
934.9  816497.50  433103.50  53.04
936.0  815763.38  432510.13  53.02
937.2  812776.70  430677.58  52.99
938.3  808756.00  428435.37  52.97
939.5  806855.40  427026.82  52.92
940.7  806650.08  426767.62  52.91
941.8  809849.95  428242.72  52.88
943.0  811755.53  429099.84  52.86
944.2  813984.00  429955.89  52.82
945.3  813737.40  429281.80  52.75
946.5  811947.50  428043.50  52.72
947.6  813343.75  428242.57  52.65
948.8  811999.53  427167.30  52.61
949.9  812643.30  426982.84  52.54
951.1  812799.95  426680.66  52.50
952.2  812583.83  425853.79  52.41
953.4  812689.05  425293.58  52.33
954.5  811017.38  423904.95  52.27
955.7  810697.10  423250.78  52.21
956.8  811289.73  422947.29  52.13
958.0  809991.00  422034.56  52.10
959.1  809676.00  421441.92  52.05
960.3  809837.50  420883.81  51.97
961.4  810466.80  421075.69  51.95
962.6  809949.60  420671.18  51.94
963.7  810488.00  420634.80  51.90
964.9  810732.15  420591.70  51.88
966.0  811275.15  420766.65  51.86
967.2  811834.80  420806.88  51.83
968.3  813038.00  421628.74  51.86
969.5  813529.90  421624.09  51.83
970.6  813636.50  421897.98  51.85
971.8  813618.23  421968.57  51.86
972.9  814047.50  422429.87  51.89
974.0  814998.80  422733.38  51.87
975.2  814336.88  422136.00  51.84
976.3  815612.00  422786.63  51.84
977.5  814609.28  422480.99  51.86
978.6  813587.78  422844.26  51.97
979.7  813243.20  422888.11  52.00
980.9  814007.40  423189.56  51.99
982.0  813942.30  423339.23  52.01
983.2  814476.60  423470.37  51.99
984.3  812060.90  422794.29  52.06
985.4  810746.30  422625.81  52.13
986.6  811915.23  423227.71  52.13
987.7  811995.13  423097.84  52.11
988.9  812756.78  423604.10  52.12
990.0  812327.85  423856.31  52.18
993.1  842785.20  435788.67  51.71
996.9  843279.00  437669.91  51.90
1000.7  843238.28  439148.37  52.08
1004.5  842302.20  439981.92  52.24
1008.4  842912.74  441704.95  52.40
1012.2  844023.08  443615.83  52.56
1016.0  843895.95  444902.87  52.72
1019.8  842801.90  445690.41  52.88
1023.7  841961.83  446389.68  53.02
1027.5  840285.53  446437.91  53.13
1031.3  839467.41  446773.49  53.22
1035.1  838915.95  447121.32  53.30
1038.9  838758.12  447515.52  53.35
1042.7  838426.25  447876.64  53.42
1046.5  837656.75  447870.31  53.47
1050.3  836052.12  447447.18  53.52
1054.2  833995.53  446779.73  53.57
1058.0  833112.00  446560.80  53.60
1061.8  831921.67  446163.50  53.63
1065.6  830277.17  445434.87  53.65
1069.4  828475.38  444569.68  53.66
1073.2  827016.13  443914.97  53.68
1077.0  825657.07  443226.01  53.68
1080.8  824582.00  442650.18  53.68
1084.6  823428.83  441866.33  53.66
1088.4  822093.45  440999.45  53.64
1092.2  820566.83  439923.19  53.61
1096.0  819298.33  438916.50  53.57
1099.8  817899.38  437810.69  53.53
1103.6  816239.77  436520.00  53.48
1107.4  814868.38  435369.09  53.43
1111.2  813417.75  434167.89  53.38
1114.9  812230.50  433014.67  53.31
1118.7  811492.08  431872.74  53.22
1122.5  811233.37  430826.09  53.11
1126.3  808633.35  428166.90  52.95
1130.1  808036.80  425923.80  52.71
1133.9  804674.37  421475.78  52.38
1137.7  802148.40  416712.31  51.95
1141.4  798618.55  410781.61  51.44
1145.2  797888.30  405999.33  50.88
1149.0  795944.70  400912.83  50.37
1152.8  792713.20  395851.39  49.94
1156.6  789371.77  391624.31  49.61
1160.3  786334.20  388322.70  49.38
1164.1  781685.40  384920.15  49.24
1167.9  778542.50  382756.25  49.16
1171.7  776073.87  381144.69  49.11
1175.4  773885.56  379800.32  49.08
1179.2  772071.75  378666.67  49.05
1183.0  772190.38  378465.89  49.01
1186.7  771941.33  378028.00  48.97
1190.5  770173.04  376863.27  48.93
1194.3  767311.07  375227.64  48.90
1198.0  764336.00  373825.38  48.91
1201.8  761940.67  372851.11  48.93
1205.6  760298.33  372471.44  48.99
1209.3  758976.00  372441.83  49.07
1213.1  757503.83  372366.30  49.16
1216.8  755431.73  372168.65  49.27
1220.6  753267.33  371950.33  49.38
1224.3  750979.17  371657.41  49.49
1228.1  748975.09  371593.02  49.61
1231.9  746882.50  371326.65  49.72
1235.6  744596.05  370902.03  49.81
1239.4  742376.40  370465.64  49.90
1243.1  740292.30  369965.20  49.98
1246.9  738340.63  369465.88  50.04
1250.6  736345.63  368847.65  50.09
1254.3  734481.60  368215.47  50.13
1258.1  732488.00  367491.11  50.17
1261.8  730071.53  366457.57  50.19
1265.6  727550.69  365305.40  50.21
1269.3  724866.73  363870.43  50.20
1273.1  725180.19  363816.49  50.17
1276.8  725626.73  363687.94  50.12
1280.6  725444.67  363177.63  50.06
1284.3  723111.28  361447.65  49.99
1288.0  721004.92  359666.47  49.88
1291.8  718956.00  357663.60  49.75
1295.5  716988.58  355493.80  49.58
1299.2  714620.40  352946.53  49.39
1302.9  711930.18  349950.35  49.16
1306.7  708995.70  346600.80  48.89
1310.4  706142.77  342982.72  48.57
1314.1  703700.63  339332.08  48.22
1317.9  701356.72  335300.96  47.81
1321.6  698647.95  330825.95  47.35
1325.3  695859.53  325989.75  46.85
1329.0  693118.07  320972.50  46.31
1332.8  689330.00  315197.78  45.73
1336.5  685653.50  309457.42  45.13
1340.2  683695.70  304474.77  44.53
1343.9  682704.75  299962.98  43.94
1347.6  681679.80  295584.82  43.36
1351.4  680775.00  291385.56  42.80
1355.1  681058.40  287760.57  42.25
1358.8  679639.13  283161.32  41.66
1362.5  679238.41  278603.56  41.02
1366.2  676951.33  272477.42  40.25
1369.9  673067.00  264730.89  39.33
1373.6  669013.58  255504.99  38.19
1377.3  666290.50  244846.40  36.75
1381.0  663569.05  231807.76  34.93
1384.8  659977.25  216039.44  32.73
1388.4  655735.65  198789.70  30.32
1392.2  651649.10  180912.77  27.76
1395.9  649759.98  163853.72  25.22
1399.6  645900.02  147660.07  22.86
1403.3  643634.40  133911.73  20.81
1407.0  641520.00  122454.75  19.09
1410.7  640366.12  113467.64  17.72
1414.3  638567.50  106434.00  16.67
1418.1  636562.50  101175.93  15.89
1421.7  634782.40  97289.99  15.33
1425.4  633446.24  94572.35  14.93
1429.1  630005.25  92381.33  14.66
1432.8  628648.95  91180.35  14.50
1436.5  625321.13  90156.80  14.42
1440.2  621909.83  89513.85  14.39
1443.9  619696.02  89325.33  14.41
1447.6  616179.20  89145.96  14.47
1451.2  613224.50  89194.82  14.55
1454.9  611591.87  89603.71  14.65
1458.6  607964.13  90020.64  14.81
1462.3  607074.13  91232.63  15.03
1466.0  607084.54  93020.21  15.32
1469.7  605332.93  94999.75  15.69
1473.3  603141.00  97307.46  16.13
1477.0  599037.61  99594.91  16.63
1480.7  595895.46  102252.82  17.16
1484.4  592272.09  104929.45  17.72
1488.0  589182.13  107816.71  18.30
1491.7  585716.87  110641.73  18.89
1495.4  582189.20  113542.84  19.50
1499.0  579269.60  116485.27  20.11
1502.7  576553.67  119492.74  20.73
1506.4  573828.28  122464.80  21.34
1510.0  571114.38  125388.61  21.96
1513.7  568490.33  128249.07  22.56
1517.4  565988.27  131060.17  23.16
1521.0  563594.08  133864.18  23.75
1524.7  561207.09  136484.73  24.32
1528.3  558755.81  139033.73  24.88
1532.0  556240.85  141460.02  25.43
1535.7  553536.00  143716.00  25.96
1539.3  550969.23  145925.51  26.49
1543.0  549328.79  148258.58  26.99
1546.6  547982.17  150583.94  27.48
1550.3  546473.28  152724.70  27.95
1553.9  544094.33  154521.32  28.40
1557.6  541900.90  156260.96  28.84
1561.2  539449.33  157771.94  29.25
1564.9  536751.20  159152.61  29.65
1568.5  534074.67  160421.92  30.04
1572.2  531736.57  161677.13  30.41
1575.8  529920.95  163044.81  30.77
1579.5  528040.50  164310.13  31.12
1583.1  525796.48  165378.01  31.45
1586.8  523633.55  166378.08  31.77
1590.4  521521.22  167314.67  32.08
1594.0  519180.38  168133.96  32.38
1597.7  516920.48  168930.63  32.68
1601.3  514551.83  169589.40  32.96
1604.9  511911.03  170063.99  33.22
1608.6  509033.25  170384.25  33.47
1612.2  506486.83  170704.30  33.70
1615.8  504237.60  171068.53  33.93
1619.5  502049.19  171370.96  34.13
1623.1  499346.10  171430.97  34.33
1626.7  496558.52  171395.54  34.52
1630.3  494042.40  171375.33  34.69
1634.0  491676.79  171325.53  34.85
1637.6  489483.33  171283.33  34.99
1641.2  487214.12  171116.11  35.12
1644.8  484744.18  170767.52  35.23
1648.5  482100.98  170273.67  35.32
1652.1  479958.10  169822.59  35.38
1655.7  478144.44  169342.07  35.42
1659.3  476322.53  168760.20  35.43
1662.9  473098.55  167614.68  35.43
1666.6  469585.88  166243.37  35.40
1670.2  466235.55  164850.40  35.36
1673.8  463038.39  163338.99  35.28
1677.4  460497.38  161968.73  35.17
1681.0  458843.70  160721.51  35.03
1684.6  457926.79  159541.96  34.84
1688.2  456456.00  157959.82  34.61
1691.8  454828.05  156270.46  34.36
1695.4  454017.94  154836.73  34.10
1699.0  453140.60  153392.47  33.85
1702.6  452581.07  151960.15  33.58
1706.2  451058.60  150101.18  33.28
1709.8  448948.29  148048.04  32.98
1713.4  447385.90  146376.53  32.72
1717.0  445774.42  144911.10  32.51
1720.6  444077.67  143592.76  32.34
1724.2  442640.29  142424.59  32.18
1727.8  441262.27  141331.53  32.03
1731.4  440487.71  140441.57  31.88
1735.0  440452.77  139783.62  31.74
1738.6  439850.25  138787.92  31.55
1742.2  438977.95  137445.52  31.31
1745.8  437273.60  135696.59  31.03
1749.4  434932.18  133632.99  30.73
1753.0  431189.20  131165.33  30.42
1756.6  427414.75  128746.33  30.12
1760.1  424200.00  126604.62  29.85
1763.7  420447.58  124390.35  29.59
1767.3  417403.96  122517.81  29.35
1770.9  414752.54  120821.76  29.13
1774.5  411723.67  119119.02  28.93
1778.0  409579.23  117818.27  28.77
1781.6  407352.17  116696.34  28.65
1785.2  404806.57  115692.93  28.58
1788.8  402015.21  114768.01  28.55
1792.3  399720.48  114062.77  28.54
1795.9  399174.20  113935.19  28.54
1799.5  399398.39  114053.06  28.56
1803.1  400256.54  114330.23  28.56
1806.6  401449.82  114607.11  28.55
1810.2  403091.85  114972.67  28.52
1813.8  402815.87  114812.59  28.50
1817.3  402475.70  114647.13  28.49
1820.9  401671.88  114315.97  28.46
1824.5  400689.69  113860.82  28.42
1828.0  401034.22  113673.11  28.34
1831.6  401593.42  113396.34  28.24
1835.2  400850.08  112522.87  28.07
1838.7  401073.17  111604.63  27.83
1842.3  399441.00  109873.56  27.51
1845.8  398083.40  107779.95  27.07
1849.4  397576.90  105419.07  26.52
1852.9  395948.96  102177.31  25.81
1856.5  394496.70  98231.25  24.90
1860.0  394291.75  93764.06  23.78
1863.6  393502.88  88371.39  22.46
1867.1  393000.71  82208.41  20.92
1870.7  393382.23  75142.01  19.10
1874.2  392398.45  66944.53  17.06
1877.8  389442.23  58368.37  14.99
1881.3  386528.58  50001.95  12.94
1884.9  384173.93  42513.42  11.07
1888.4  382015.14  35885.88  9.39
1891.9  380243.91  30578.71  8.04
1895.5  378496.65  26576.10  7.02
1899.0  377389.15  23892.10  6.33
1901.3  395954.13  16286.75  4.11
1904.1  395936.08  14854.64  3.75
1906.8  394325.48  13742.33  3.49
1909.6  390958.33  12946.64  3.31
1912.4  387413.22  12353.19  3.19
1915.1  383699.07  11860.41  3.09
1917.9  379978.90  11521.05  3.03
1920.6  377121.70  11253.94  2.98
1923.3  374728.27  11064.71  2.95
1926.1  371621.10  10922.30  2.94
1928.8  368082.00  10816.00  2.94
1931.6  367039.07  10832.30  2.95
1934.3  363321.73  10775.98  2.97
1937.0  359493.60  10791.20  3.00
1939.8  356275.87  10806.75  3.03
1942.5  351918.72  10846.55  3.08
1945.2  348485.83  10917.78  3.13
1947.9  345872.15  11035.27  3.19
1950.7  341836.60  11136.74  3.26
1953.4  338454.03  11266.38  3.33
1956.1  335859.67  11471.03  3.42
1958.8  333764.67  11690.97  3.50
1961.5  330925.00  11920.42  3.60
1964.2  327672.33  12144.62  3.71
1966.9  324784.80  12394.22  3.82
1969.6  322131.87  12705.80  3.94
1972.3  319626.88  13003.44  4.07
1975.0  317171.33  13330.00  4.20
1977.7  315022.67  13682.59  4.34
1980.4  312866.40  14051.65  4.49
1983.1  310525.37  14439.55  4.65
1985.8  308448.00  14844.40  4.81
1988.4  306450.65  15276.07  4.98
1991.1  304703.00  15718.97  5.16
1993.8  303241.40  16172.33  5.33
1996.5  301718.90  16652.77  5.52
1999.1  300341.28  17147.27  5.71
2001.8  299145.80  17651.97  5.90
2004.5  297956.50  18166.42  6.10
2007.1  296500.60  18651.95  6.29
2009.8  294571.67  19110.00  6.49
2012.4  293275.40  19622.35  6.69
2015.1  292155.80  20140.45  6.89
2017.8  291027.20  20667.68  7.10
2020.4  289899.20  21165.75  7.30
2023.1  289449.13  21713.47  7.50
2025.7  289210.60  22272.87  7.70
2028.3  288406.55  22767.67  7.89
2031.0  287829.27  23282.54  8.09
2033.6  287574.25  23821.00  8.28
2036.2  287161.47  24303.92  8.46
2038.9  286187.20  24752.00  8.65
2041.5  285270.83  25173.61  8.82
2044.1  284479.17  25590.28  9.00
2046.8  283294.02  25951.44  9.16
2049.4  282492.93  26347.64  9.33
2052.0  282330.75  26795.72  9.49
2054.6  281956.27  27246.22  9.66
2057.2  280891.20  27624.62  9.83
2059.8  279405.00  27958.00  10.01
2062.4  278029.48  28302.45  10.18
2065.0  276681.20  28649.05  10.35
2067.6  274842.57  28934.85  10.53
2070.2  273412.30  29271.39  10.71
2072.8  272523.17  29650.19  10.88
2075.4  271462.50  30014.33  11.06
2078.0  270849.57  30411.78  11.23
2080.6  269625.97  30739.51  11.40
2083.2  268334.20  31065.49  11.58
2085.8  267003.10  31363.15  11.75
2088.4  265946.00  31686.88  11.91
2090.9  264342.50  31956.17  12.09
2093.5  262471.00  32185.60  12.26
2096.1  260703.30  32403.80  12.43
2098.7  259239.38  32640.35  12.59
2101.2  257313.60  32841.87  12.76
2103.8  255886.33  33110.17  12.94
2106.4  254477.97  33335.98  13.10
2108.9  253481.85  33621.42  13.26
2111.5  252546.58  33907.42  13.43
2114.0  251940.00  34233.33  13.59
2116.6  249778.47  34339.31  13.75
2119.1  248682.00  34582.57  13.91
2121.7  248156.35  34876.97  14.05
2124.2  248004.83  35224.45  14.20
2126.8  246893.60  35412.67  14.34
2129.3  245795.65  35605.67  14.49
2131.9  245967.73  35959.29  14.62
2134.4  245138.95  36143.57  14.74
2136.9  244882.27  36379.39  14.86
2139.4  243826.08  36486.86  14.96
2142.0  243427.05  36670.32  15.06
2144.5  242928.92  36833.41  15.16
2147.0  242507.52  36996.51  15.26
2149.5  242100.73  37155.20  15.35
2152.1  242436.13  37389.73  15.42
2154.6  242509.60  37584.00  15.50
2157.1  242429.17  37737.17  15.57
2159.6  241377.67  37737.17  15.63
2162.1  241222.73  37837.02  15.69
2164.6  240551.98  37877.51  15.75
2167.1  239618.37  37860.60  15.80
2169.6  239738.57  38019.34  15.86
2172.1  238928.30  38016.93  15.91
2174.6  238578.90  38100.84  15.97
2177.1  237533.92  38059.69  16.02
2179.5  237074.70  38127.11  16.08
2182.0  236768.42  38212.08  16.14
2184.5  235851.85  38191.62  16.19
2187.0  235060.43  38214.97  16.26
2189.5  234018.88  38207.84  16.33
2191.9  232831.50  38143.84  16.38
2194.4  231163.75  38001.25  16.44
2196.9  230089.02  37919.20  16.48
2199.3  228652.90  37796.13  16.53
2201.8  227489.73  37689.48  16.57
2204.3  226811.20  37661.60  16.60
2206.7  225644.95  37497.28  16.62
2209.2  224427.15  37355.85  16.64
2211.6  222522.40  37060.50  16.65
2214.1  221855.20  36984.77  16.67
2216.5  221478.85  36899.73  16.66
2219.0  220155.83  36670.33  16.66
2221.4  220170.00  36659.20  16.65
2223.9  219017.07  36422.24  16.63
2226.3  217808.77  36131.20  16.59
2228.7  216867.73  35858.04  16.53
2231.1  216212.60  35575.87  16.45
2233.6  215206.40  35196.80  16.35
2236.0  214195.17  34801.05  16.25
2238.4  213328.38  34422.47  16.14
2240.9  212596.60  34012.53  16.00
2243.3  211731.60  33547.99  15.84
2245.7  210925.23  33077.10  15.68
2248.1  209969.07  32577.42  15.52
2250.5  209195.07  32065.24  15.33
2252.9  208519.47  31574.36  15.14
2255.3  207783.07  31042.25  14.94
2257.7  206922.10  30492.00  14.74
2260.1  206013.60  29952.53  14.54
2262.5  204962.80  29365.60  14.33
2264.9  204037.60  28821.92  14.13
2267.3  203145.80  28304.47  13.93
2269.7  202200.90  27817.37  13.76
2272.1  201400.83  27372.45  13.59
2274.5  200623.33  26951.84  13.43
2276.8  199949.60  26547.56  13.28
2279.2  199210.70  26145.37  13.12
2281.6  198610.80  25778.57  12.98
2284.0  198247.50  25423.20  12.82
2286.3  197769.53  25074.15  12.68
2288.7  197217.90  24710.09  12.53
2291.1  196694.50  24318.67  12.36
2293.4  196019.50  23956.23  12.22
2295.8  195318.93  23567.99  12.07
2298.2  194498.20  23182.87  11.92
2300.5  193417.50  22759.32  11.77
2302.9  192013.30  22316.37  11.62
2305.2  190637.00  21887.25  11.48
2307.6  189130.67  21483.47  11.36
2309.9  188065.90  21184.36  11.26
2312.2  187113.50  20919.06  11.18
2314.6  186140.70  20682.30  11.11
2316.9  185076.37  20419.30  11.03
2319.2  184429.67  20193.19  10.95
2321.6  183797.50  19958.31  10.86
2323.9  182998.60  19683.73  10.76
2326.2  182168.72  19419.23  10.66
2328.6  181436.00  19159.10  10.56
2330.9  181133.60  18915.20  10.44
2333.2  180630.50  18718.67  10.36
2335.5  180115.00  18494.16  10.27
2337.8  179680.20  18234.13  10.15
2340.1  179107.07  17973.22  10.03
2342.4  178641.45  17739.00  9.93
2344.8  177962.08  17482.70  9.82
2347.1  177212.30  17232.60  9.72
2349.4  176592.00  16954.84  9.60
2351.6  175826.00  16682.00  9.49
2353.9  174803.20  16426.00  9.40
2356.2  173992.70  16183.57  9.30
2358.5  173200.22  15949.03  9.21
2360.8  172464.58  15754.17  9.13
2363.1  172080.75  15594.11  9.06
2365.4  171639.00  15336.00  8.94
2367.7  171073.53  15137.07  8.85
2369.9  170378.63  14926.51  8.76
2372.2  169226.30  14682.50  8.68
2374.5  168087.50  14407.50  8.57
2376.7  167141.80  14165.53  8.48
2379.0  165935.55  13904.00  8.38
2381.3  164487.77  13641.59  8.29
2383.5  163457.00  13388.67  8.19
2385.8  162822.92  13160.58  8.08
2388.0  162049.73  12914.38  7.97
2390.3  161309.53  12645.42  7.84
2392.5  160830.33  12479.83  7.76
2394.8  159975.17  12228.92  7.64
2397.0  159465.73  12001.24  7.53
2399.3  158865.05  11756.95  7.40
2401.5  158154.40  11585.50  7.33
2403.8  157404.87  11407.60  7.25
2406.0  156977.33  11195.68  7.13
2408.2  156150.75  10941.70  7.01
2410.4  155398.18  10743.32  6.91
2412.7  154959.60  10555.07  6.81
2414.9  154260.27  10333.73  6.70
2417.1  154252.20  10182.56  6.60
2419.3  153796.73  10022.26  6.52
2421.6  152967.97  9796.35  6.40
2423.8  152359.10  9601.12  6.30
2426.0  152093.70  9445.40  6.21
2428.2  151709.25  9240.00  6.09
2430.4  151731.85  9108.24  6.00
2432.6  151606.90  9004.97  5.94
2434.8  150935.35  8871.45  5.88
2437.0  150367.10  8676.20  5.77
2439.2  149959.33  8489.44  5.66
2441.4  149150.00  8352.40  5.60
2443.6  149083.13  8179.18  5.49
2445.7  149163.47  8077.52  5.42
2447.9  149025.50  7921.77  5.32
2450.1  148347.67  7768.05  5.24
2452.3  147417.78  7603.02  5.16
2454.5  146827.33  7449.25  5.07
2456.6  146180.33  7276.78  4.98
2458.8  144977.00  7115.58  4.91
2461.0  144586.43  6969.16  4.82
2463.1  144241.33  6919.94  4.80
2465.3  143662.00  6733.78  4.69
2467.5  143208.00  6605.45  4.61
2469.6  142791.17  6517.75  4.56
2471.8  142334.40  6488.18  4.56
2473.9  141680.50  6358.44  4.49
2476.1  140951.25  6259.31  4.44
2478.2  140155.55  6171.36  4.40
2480.4  139519.53  6119.28  4.39
2482.5  138538.50  5995.23  4.33
2484.6  137596.00  5822.00  4.23
2486.8  136755.90  5646.27  4.13
2488.9  136235.60  5669.47  4.16
2491.1  134842.10  5494.51  4.07
2493.2  133609.77  5477.45  4.10
2495.3  132134.97  5411.57  4.10
2497.4  130749.90  5280.17  4.04
2499.5  129936.47  5140.74  3.96
2501.7  129958.00  5128.33  3.95
2503.8  130242.47  5156.59  3.96
2505.9  130820.20  5085.33  3.89
2508.0  131779.92  5150.47  3.91
2510.1  132643.20  5122.40  3.86
2512.2  133325.08  5126.56  3.85
2514.3  134496.48  5132.91  3.82
2516.4  135947.77  5412.53  3.98
