/*** Spectra Vista SIG Data ***/
name= 12_20220824_CECA_3_avg.sig
comm= Averaged Ref/Tar of files: HR.082422.0032_moc.sig,HR.082422.0033_moc.sig,HR.082422.0034_moc.sig
data=
337.3  3275.25  258.05  7.88
338.8  3415.10  237.29  6.95
340.3  3560.60  231.13  6.49
341.8  3749.45  243.87  6.50
343.2  3951.60  224.96  5.69
344.7  4137.05  221.78  5.36
346.2  4289.25  212.42  4.95
347.7  4522.38  209.73  4.64
349.2  4687.20  206.64  4.41
350.6  4921.15  210.56  4.28
352.1  5215.85  209.59  4.02
353.6  5447.90  208.20  3.82
355.1  5758.43  206.54  3.59
356.6  6063.38  201.02  3.32
358.0  6348.10  204.16  3.22
359.5  6643.50  210.12  3.16
361.0  6972.53  211.47  3.03
362.5  7318.75  214.68  2.93
364.0  7656.23  221.75  2.90
365.4  8036.60  224.80  2.80
366.9  8425.63  232.05  2.75
368.4  8782.55  232.75  2.65
369.9  9161.48  237.82  2.60
371.3  9585.30  249.20  2.60
372.8  9982.80  258.42  2.59
374.3  10427.50  265.17  2.54
375.8  10833.90  262.31  2.42
377.2  11271.10  269.00  2.39
378.7  11701.50  276.17  2.36
380.2  12105.00  276.17  2.28
381.7  12674.73  277.46  2.19
383.1  13124.65  280.28  2.14
384.6  13676.33  280.54  2.05
386.1  14161.10  288.27  2.04
387.6  14660.80  294.65  2.01
389.0  15168.80  303.73  2.00
390.5  15664.50  304.44  1.94
392.0  16240.30  310.35  1.91
393.4  16816.00  311.80  1.85
394.9  17356.50  327.12  1.88
396.4  17905.50  334.65  1.87
397.9  18475.63  334.83  1.81
399.3  19044.40  337.67  1.77
400.8  19615.98  345.63  1.76
402.2  20302.85  353.52  1.74
403.7  20897.10  359.52  1.72
405.2  21496.90  363.02  1.69
406.6  22086.40  374.29  1.69
408.1  22690.40  379.68  1.67
409.6  23310.90  380.47  1.63
411.0  23997.40  392.84  1.64
412.5  24677.63  399.84  1.62
414.0  25326.13  410.22  1.62
415.4  26016.38  424.00  1.63
416.9  26695.88  431.76  1.62
418.4  27414.90  445.71  1.63
419.8  28137.20  465.92  1.66
421.3  28876.50  482.46  1.67
422.7  29667.00  498.80  1.68
424.2  30459.38  519.75  1.71
425.7  31230.80  541.16  1.73
427.1  31998.15  559.15  1.75
428.6  32813.50  582.80  1.78
430.0  33567.10  607.00  1.81
431.5  34431.98  634.81  1.84
432.9  35321.15  666.09  1.89
434.4  36227.93  693.33  1.91
435.9  37086.00  720.53  1.94
437.3  37936.25  746.17  1.97
438.8  38797.35  772.87  1.99
440.2  39670.40  803.11  2.02
441.7  40642.20  836.16  2.06
443.1  41565.25  869.20  2.09
444.6  42548.80  897.79  2.11
446.0  43505.18  927.28  2.13
447.5  44474.93  956.45  2.15
448.9  45420.90  989.00  2.18
450.4  46438.70  1027.37  2.21
451.8  47320.00  1059.07  2.24
453.3  48259.83  1093.07  2.26
454.7  49287.68  1120.75  2.27
456.2  50162.43  1147.93  2.29
457.6  51161.85  1175.28  2.30
459.1  52154.05  1204.58  2.31
460.5  53098.75  1228.72  2.31
462.0  54181.15  1258.73  2.32
463.4  55238.40  1287.80  2.33
464.8  56235.38  1315.35  2.34
466.3  57250.05  1338.92  2.34
467.7  58242.35  1364.34  2.34
469.2  59326.13  1392.49  2.35
470.6  60316.65  1419.99  2.35
472.0  61381.08  1448.79  2.36
473.5  62404.25  1474.65  2.36
474.9  63455.25  1502.90  2.37
476.4  64627.20  1534.08  2.37
477.8  65714.00  1566.00  2.38
479.2  66758.00  1595.00  2.39
480.7  67873.28  1628.92  2.40
482.1  69027.65  1662.71  2.41
483.6  70241.45  1697.39  2.42
485.0  71361.75  1735.07  2.43
486.4  72575.40  1773.16  2.44
487.9  73695.38  1811.55  2.46
489.3  74876.63  1859.28  2.48
490.7  75966.28  1906.40  2.51
492.2  77233.80  1961.96  2.54
493.6  78377.50  2019.75  2.58
495.0  79501.50  2074.80  2.61
496.5  80697.83  2136.68  2.65
497.9  81827.80  2209.08  2.70
499.3  83001.80  2289.30  2.76
500.7  84296.10  2381.11  2.82
502.2  85468.40  2483.95  2.91
503.6  86738.60  2598.80  3.00
505.0  87826.75  2722.95  3.10
506.5  89167.13  2872.26  3.22
507.9  90402.85  3040.11  3.36
509.3  91804.40  3240.21  3.53
510.7  93073.50  3451.50  3.71
512.2  94492.80  3699.81  3.92
513.6  95987.15  3987.39  4.15
515.0  97427.03  4307.33  4.42
516.4  98828.10  4664.52  4.72
517.8  100485.25  5073.70  5.05
519.3  101818.55  5502.39  5.40
520.7  103408.00  5975.93  5.78
522.1  104728.65  6454.59  6.16
523.5  106098.70  6959.27  6.56
524.9  107568.45  7475.34  6.95
526.3  109002.60  7980.51  7.32
527.8  110513.70  8484.30  7.68
529.2  111630.80  8949.93  8.02
530.6  113201.30  9429.11  8.33
532.0  114940.00  9891.47  8.61
533.4  116256.30  10282.61  8.84
534.8  117160.28  10599.40  9.05
536.3  118873.50  10958.12  9.22
537.7  120922.20  11318.16  9.36
539.1  122399.58  11603.58  9.48
540.5  123596.85  11852.38  9.59
541.9  125356.65  12148.66  9.69
543.3  126630.50  12392.97  9.79
544.7  127930.80  12637.28  9.88
546.1  129718.88  12924.16  9.96
547.5  130995.20  13148.80  10.04
549.0  132737.00  13406.80  10.10
550.4  134268.13  13624.08  10.15
551.8  135814.60  13808.80  10.17
553.2  137358.68  13956.89  10.16
554.6  138715.20  14037.23  10.12
556.0  140252.85  14092.56  10.05
557.4  141875.83  14106.70  9.94
558.8  143523.45  14084.28  9.81
560.2  144980.25  14003.48  9.66
561.6  146658.90  13908.34  9.48
563.0  148242.20  13759.96  9.28
564.4  149831.10  13582.77  9.07
565.8  151353.13  13363.42  8.83
567.2  153112.25  13133.63  8.58
568.6  154620.75  12857.15  8.32
570.0  156064.50  12549.55  8.04
571.4  157805.05  12258.13  7.77
572.8  159554.75  11973.47  7.50
574.2  161190.40  11695.79  7.26
575.6  162742.50  11434.50  7.03
577.0  164268.10  11206.59  6.82
578.4  165995.38  11012.52  6.63
579.8  167512.05  10830.87  6.47
581.2  169249.65  10686.04  6.31
582.5  170679.60  10540.92  6.18
583.9  172209.20  10415.47  6.05
585.3  174021.53  10331.82  5.94
586.7  175492.85  10240.49  5.84
588.1  176976.50  10172.07  5.75
589.5  178629.50  10128.30  5.67
590.9  180271.20  10095.25  5.60
592.3  182100.50  10088.53  5.54
593.7  183559.35  10079.16  5.49
595.0  185193.00  10083.87  5.45
596.4  186635.40  10083.73  5.40
597.8  188123.10  10079.95  5.36
599.2  189670.80  10074.24  5.31
600.6  191440.28  10064.82  5.26
602.0  192756.15  10009.68  5.19
603.3  194564.45  9963.77  5.12
604.7  196236.25  9891.58  5.04
606.1  197740.20  9792.48  4.95
607.5  199378.15  9682.52  4.86
608.9  201069.55  9559.62  4.75
610.2  202461.53  9417.87  4.65
611.6  204059.63  9284.51  4.55
613.0  205637.95  9147.81  4.45
614.4  207031.95  9007.42  4.35
615.8  208494.00  8890.05  4.26
617.1  210033.60  8790.60  4.19
618.5  211684.40  8710.29  4.11
619.9  213203.63  8646.55  4.06
621.3  214848.90  8600.79  4.00
622.6  216458.50  8574.57  3.96
624.0  217906.80  8559.30  3.93
625.4  219387.30  8564.82  3.90
626.8  220975.30  8588.88  3.89
628.1  222298.73  8616.56  3.88
629.5  224161.63  8670.12  3.87
630.9  225757.95  8709.58  3.86
632.2  227142.48  8731.94  3.84
633.6  228755.75  8749.73  3.82
635.0  230308.00  8735.31  3.79
636.3  231837.30  8696.13  3.75
637.7  233224.63  8620.32  3.70
639.1  234885.00  8528.33  3.63
640.4  236367.78  8399.16  3.55
641.8  237589.43  8237.53  3.47
643.2  239209.78  8082.41  3.38
644.5  240571.50  7920.50  3.29
645.9  242285.40  7778.52  3.21
647.2  244102.78  7660.52  3.14
648.6  245997.00  7568.10  3.08
650.0  247428.00  7473.60  3.02
651.3  247856.68  7370.95  2.97
652.7  249055.25  7283.80  2.92
654.0  251121.40  7239.45  2.88
655.4  252643.08  7169.57  2.84
656.8  252878.00  7067.27  2.79
658.1  254126.50  6976.47  2.75
659.5  256610.03  6901.93  2.69
660.8  258480.00  6816.00  2.64
662.2  259392.00  6720.00  2.59
663.5  261015.60  6650.91  2.55
664.9  262304.90  6591.69  2.51
666.2  263047.80  6532.72  2.48
667.6  264752.18  6521.88  2.46
668.9  265885.10  6529.25  2.46
670.3  267135.13  6548.42  2.45
671.6  268663.88  6608.00  2.46
673.0  269858.63  6687.65  2.48
674.3  271100.70  6777.33  2.50
675.7  272449.65  6896.23  2.53
677.0  273550.50  7015.70  2.56
678.4  274938.08  7165.47  2.61
679.7  276061.35  7338.73  2.66
681.1  277394.45  7546.71  2.72
682.4  278570.50  7776.25  2.79
683.8  279830.20  8041.45  2.87
685.1  280854.75  8357.35  2.98
686.4  282206.40  8740.88  3.10
687.8  283487.25  9223.37  3.25
689.1  284577.50  9834.50  3.46
690.5  285945.90  10632.64  3.72
691.8  286758.53  11678.01  4.07
693.1  288153.30  13070.56  4.54
694.5  289334.50  14829.97  5.13
695.8  290563.00  17026.10  5.86
697.1  291791.50  19680.27  6.74
698.5  292852.70  22805.93  7.79
699.8  293981.38  26417.89  8.99
701.1  295160.48  30469.15  10.32
702.5  295968.75  34868.31  11.78
703.8  296955.00  39597.00  13.33
705.1  298140.38  44595.85  14.96
706.5  299220.88  49759.02  16.63
707.8  300227.55  55022.72  18.33
709.1  301141.93  60319.17  20.03
710.5  302302.83  65689.08  21.73
711.8  303213.10  70982.39  23.41
713.1  304238.90  76283.84  25.07
714.4  305175.50  81481.23  26.70
715.8  306045.20  86562.65  28.28
717.1  307379.55  91670.76  29.82
718.4  308336.00  96529.07  31.31
719.7  309480.75  101302.32  32.73
721.0  310050.00  105729.00  34.10
722.4  310874.30  110059.03  35.40
723.7  311845.20  114276.80  36.65
725.0  312945.98  118345.74  37.82
726.3  313912.23  122168.53  38.92
727.6  314482.85  125644.02  39.95
729.0  315448.00  129076.92  40.92
730.3  316248.38  132252.53  41.82
731.6  317201.30  135300.95  42.65
732.9  318052.88  138123.16  43.43
734.2  318881.75  140782.95  44.15
735.5  319940.00  143361.35  44.81
736.8  320755.80  145679.16  45.42
738.1  321646.20  147867.71  45.97
739.5  322639.55  149975.25  46.48
740.8  323388.18  151820.06  46.95
742.1  324156.10  153581.88  47.38
743.4  324900.00  155223.33  47.78
744.7  325940.73  156880.53  48.13
746.0  326862.90  158380.04  48.45
747.3  327485.75  159619.74  48.74
748.6  328261.00  160851.67  49.00
749.9  329056.00  161993.87  49.23
751.2  329803.80  163060.94  49.44
752.5  330719.05  164152.27  49.63
753.8  331335.03  165023.46  49.81
755.1  332072.00  165883.47  49.95
756.4  332713.78  166631.36  50.08
757.7  333760.00  167523.18  50.19
759.0  335627.55  168791.09  50.29
760.3  336864.00  169688.64  50.37
761.6  338511.60  170764.91  50.45
762.9  339083.00  171289.17  50.52
764.2  339504.90  171690.15  50.57
765.5  339812.35  172019.53  50.62
766.8  340326.40  172393.60  50.66
768.1  340910.80  172795.36  50.69
769.3  341560.45  173218.03  50.71
770.6  342247.75  173662.67  50.74
771.9  343030.63  174132.77  50.76
773.2  343469.60  174425.23  50.78
774.5  344143.80  174814.64  50.80
775.8  344901.75  175242.59  50.81
777.1  345544.10  175599.60  50.82
778.4  345920.30  175832.03  50.83
779.6  346742.13  176285.10  50.84
780.9  347280.00  176576.00  50.85
782.2  347784.25  176865.70  50.86
783.5  348157.50  177083.00  50.86
784.8  348754.05  177416.37  50.87
786.0  349222.65  177658.83  50.87
787.3  349655.78  177900.90  50.88
788.6  350138.65  178164.84  50.88
789.9  350658.00  178448.11  50.89
791.2  351386.53  178819.38  50.89
792.4  352140.03  179212.53  50.89
793.7  352670.60  179491.60  50.89
795.0  353335.95  179854.29  50.90
796.2  354057.63  180233.41  50.91
797.5  354854.78  180634.82  50.90
798.8  355561.15  181014.23  50.91
800.0  356321.90  181395.48  50.91
801.3  356848.50  181674.45  50.91
802.6  357507.90  182015.58  50.91
803.8  358181.13  182375.59  50.92
805.1  358716.75  182666.87  50.92
806.4  359206.80  182930.80  50.93
807.7  359818.20  183223.08  50.92
808.9  360404.35  183542.79  50.93
810.2  360972.85  183828.40  50.93
811.4  361541.60  184117.81  50.93
812.7  362171.88  184470.00  50.93
814.0  363066.45  184928.10  50.94
815.2  363726.00  185280.93  50.94
816.5  364199.13  185508.34  50.94
817.7  364696.35  185769.03  50.94
819.0  365240.70  186041.31  50.94
820.2  365420.00  186143.47  50.94
821.5  366130.00  186535.79  50.95
822.7  366501.13  186738.25  50.95
824.0  366832.80  186910.92  50.95
825.2  367337.03  187163.19  50.95
826.5  367657.68  187303.55  50.95
827.7  368255.70  187585.65  50.94
829.0  368702.08  187805.64  50.94
830.2  368995.90  187949.56  50.94
831.5  369505.20  188182.86  50.93
832.7  369766.43  188347.81  50.94
834.0  370092.38  188506.59  50.94
835.2  370511.35  188669.80  50.92
836.4  370782.50  188823.43  50.93
837.7  371107.40  189027.92  50.94
838.9  371535.95  189267.07  50.94
840.1  371949.98  189469.08  50.94
841.4  372353.60  189689.43  50.94
842.6  372636.60  189884.56  50.96
843.8  372989.00  190059.33  50.96
845.1  373489.55  190315.67  50.96
846.3  373822.00  190500.97  50.96
847.5  374169.60  190706.32  50.97
848.8  374631.60  190904.32  50.96
850.0  374897.60  191082.50  50.97
851.2  375370.20  191356.74  50.98
852.5  375704.90  191553.99  50.99
853.7  376166.25  191782.80  50.98
854.9  376571.70  192007.28  50.99
856.1  376995.45  192200.06  50.98
857.4  377174.83  192306.48  50.99
858.6  377575.00  192531.21  50.99
859.8  377885.63  192714.50  51.00
861.0  378378.00  192918.96  50.99
862.2  378829.75  193153.42  50.99
863.5  379092.35  193314.59  50.99
864.7  379480.20  193570.96  51.01
865.9  379918.40  193736.85  50.99
867.1  380167.05  193877.53  51.00
868.3  380537.40  194061.10  51.00
869.5  380973.40  194289.37  51.00
870.8  381429.00  194524.20  51.00
872.0  381908.18  194766.21  51.00
873.2  382309.80  194968.62  51.00
874.4  382712.85  195173.55  51.00
875.6  383079.55  195331.75  50.99
876.8  383490.75  195538.61  50.99
878.0  383999.95  195785.81  50.99
879.2  384322.50  196001.72  51.00
880.4  384925.88  196228.85  50.98
881.6  385323.70  196439.53  50.98
882.8  385713.60  196617.49  50.97
884.0  386297.65  196848.46  50.96
885.2  386844.70  197079.44  50.95
886.5  387297.15  197353.62  50.96
887.7  387827.70  197574.87  50.94
888.8  388375.13  197859.86  50.95
890.0  389029.60  198126.51  50.93
891.2  389698.30  198381.64  50.91
892.4  390172.65  198678.27  50.92
893.6  390699.25  198917.79  50.91
894.8  391488.75  199344.83  50.92
896.0  392335.25  199730.70  50.91
897.2  393126.50  200129.80  50.91
898.4  393855.00  200480.72  50.90
899.6  394413.38  200714.20  50.89
900.8  394816.63  200855.71  50.87
902.0  395073.30  200951.92  50.86
903.2  395465.10  201089.59  50.85
904.3  395699.40  201233.44  50.86
905.5  396242.38  201537.78  50.86
906.7  396909.50  201787.87  50.84
907.9  397497.80  202003.81  50.82
909.1  397852.43  202114.17  50.80
910.2  398026.43  202190.95  50.80
911.4  398151.00  202273.50  50.80
912.6  398440.90  202340.23  50.78
913.8  398632.88  202450.46  50.79
915.0  399090.30  202618.92  50.77
916.2  399262.50  202681.70  50.76
917.3  399300.30  202647.90  50.75
918.5  399667.20  202695.80  50.72
919.7  399780.45  202762.40  50.72
920.8  399873.15  202730.10  50.70
922.0  399938.00  202717.90  50.69
923.2  400354.50  202766.20  50.65
924.4  400595.63  202839.30  50.63
925.5  400837.10  202892.51  50.62
926.7  401355.13  203102.68  50.60
927.9  402277.20  203461.84  50.58
929.0  403779.60  204028.38  50.53
930.2  405870.40  205036.60  50.52
931.4  408497.85  206118.27  50.46
932.5  411256.85  207376.57  50.43
933.7  412651.75  208057.21  50.42
934.9  413428.75  208257.58  50.37
936.0  412938.50  207913.55  50.35
937.2  410812.35  206702.20  50.32
938.3  409183.20  205728.22  50.28
939.5  407772.00  204822.24  50.23
940.7  407918.70  204790.20  50.20
941.8  409617.38  205387.59  50.14
943.0  411020.25  205946.30  50.11
944.2  411693.10  206150.97  50.07
945.3  411440.25  205775.70  50.01
946.5  410765.85  205138.98  49.94
947.6  410767.80  205091.49  49.93
948.8  410750.93  204761.05  49.85
949.9  410986.80  204559.04  49.77
951.1  410875.73  204134.45  49.68
952.2  410856.00  203673.60  49.57
953.4  410562.25  203215.53  49.50
954.5  410459.40  202849.92  49.42
955.7  410193.00  202490.40  49.36
956.8  410087.80  202007.83  49.26
958.0  409775.00  201624.07  49.20
959.1  409690.88  201256.41  49.12
960.3  409585.48  200906.16  49.05
961.4  409524.30  200649.71  49.00
962.6  409493.00  200558.87  48.98
963.7  409447.43  200283.33  48.92
964.9  409421.78  200117.13  48.88
966.0  409422.60  200013.57  48.85
967.2  409432.50  200014.38  48.85
968.3  409195.80  199894.50  48.85
969.5  409018.23  199691.10  48.82
970.6  409123.33  199720.71  48.82
971.8  409613.40  199776.36  48.77
972.9  409326.98  199657.48  48.78
974.0  409656.30  199841.88  48.78
975.2  409691.13  199671.83  48.74
976.3  409794.08  199817.93  48.76
977.5  409941.70  199777.25  48.73
978.6  410102.50  199783.27  48.72
979.7  410284.35  200017.16  48.75
980.9  410341.75  200150.58  48.78
982.0  410357.25  200171.15  48.78
983.2  409761.85  200078.23  48.83
984.3  409481.40  199973.39  48.84
985.4  409631.10  200186.95  48.87
986.6  410235.50  200122.87  48.78
987.7  411553.98  200711.37  48.77
988.9  410882.40  200661.36  48.84
990.0  411878.20  201136.28  48.83
993.1  362296.43  175977.05  48.57
996.9  362639.08  176749.04  48.74
1000.7  363594.35  177707.39  48.88
1004.5  364041.83  178434.30  49.01
1008.4  363812.25  178840.58  49.16
1012.2  363863.04  179338.26  49.29
1016.0  363978.00  179817.77  49.40
1019.8  364067.55  180266.63  49.51
1023.7  363898.53  180537.29  49.61
1027.5  363426.40  180646.95  49.71
1031.3  363398.78  180897.66  49.78
1035.1  363106.10  180966.44  49.84
1038.9  363017.97  181091.74  49.89
1042.7  362872.17  181153.60  49.92
1046.5  362679.17  181181.05  49.96
1050.3  362692.43  181303.45  49.99
1054.2  362374.25  181242.33  50.02
1058.0  361964.75  181051.85  50.02
1061.8  361849.46  181051.12  50.03
1065.6  361571.30  180899.35  50.03
1069.4  361369.87  180807.29  50.03
1073.2  360823.28  180500.62  50.02
1077.0  360330.03  180188.60  50.01
1080.8  359992.71  179886.31  49.97
1084.6  359215.73  179331.60  49.92
1088.4  358729.89  178965.68  49.89
1092.2  357990.75  178416.65  49.84
1096.0  357389.92  177943.77  49.79
1099.8  356835.27  177456.65  49.73
1103.6  356147.87  176889.23  49.67
1107.4  355251.15  176154.39  49.59
1111.2  354947.80  175720.88  49.51
1114.9  354250.75  175055.42  49.42
1118.7  353652.75  174341.12  49.30
1122.5  353001.13  173481.90  49.14
1126.3  351943.32  172308.04  48.96
1130.1  351484.22  171187.66  48.70
1133.9  349934.90  169226.90  48.36
1137.7  348543.40  167053.67  47.93
1141.4  346820.50  164424.22  47.41
1145.2  346055.58  162084.46  46.84
1149.0  344976.04  159690.21  46.29
1152.8  343405.40  157340.95  45.82
1156.6  341781.18  155426.33  45.48
1160.3  340082.67  153904.86  45.26
1164.1  337788.43  152441.51  45.13
1167.9  336087.50  151495.39  45.08
1171.7  334837.13  150869.25  45.06
1175.4  333643.80  150328.18  45.06
1179.2  332588.15  149819.61  45.05
1183.0  332327.33  149620.67  45.02
1186.7  331936.50  149348.70  44.99
1190.5  331014.87  148846.84  44.97
1194.3  329883.40  148288.60  44.95
1198.0  328680.00  147769.05  44.96
1201.8  327220.68  147184.79  44.98
1205.6  326044.33  146803.38  45.03
1209.3  325164.15  146634.15  45.10
1213.1  324236.33  146464.17  45.17
1216.8  323292.66  146329.91  45.26
1220.6  322188.53  146112.27  45.35
1224.3  320951.75  145825.08  45.44
1228.1  319712.00  145552.66  45.53
1231.9  318440.45  145220.54  45.60
1235.6  316994.18  144758.87  45.67
1239.4  315675.13  144373.02  45.73
1243.1  314460.72  143948.95  45.78
1246.9  313278.69  143521.86  45.81
1250.6  312326.93  143156.68  45.84
1254.3  311284.88  142718.68  45.85
1258.1  310299.97  142274.72  45.85
1261.8  309055.20  141689.60  45.85
1265.6  307719.13  141023.62  45.83
1269.3  306460.98  140313.09  45.78
1273.1  306473.58  140152.98  45.73
1276.8  306581.60  139999.77  45.66
1280.6  306220.33  139626.37  45.60
1284.3  304777.60  138699.48  45.51
1288.0  303443.06  137724.70  45.39
1291.8  302354.87  136768.76  45.23
1295.5  301177.07  135708.99  45.06
1299.2  299935.72  134570.86  44.87
1302.9  298462.55  133226.05  44.64
1306.7  296880.38  131740.93  44.38
1310.4  295377.75  130145.39  44.06
1314.1  293986.00  128506.92  43.71
1317.9  292775.63  126781.01  43.30
1321.6  291376.17  124842.95  42.85
1325.3  289762.20  122670.00  42.33
1329.0  288488.20  120557.12  41.79
1332.8  286501.60  118016.80  41.19
1336.5  284738.60  115546.86  40.58
1340.2  284329.50  113628.67  39.96
1343.9  283787.50  111661.76  39.35
1347.6  282997.65  109633.20  38.74
1351.4  282983.50  107973.00  38.16
1355.1  283090.50  106395.72  37.58
1358.8  283200.00  104717.71  36.98
1362.5  282722.83  102674.28  36.32
1366.2  281300.70  99982.34  35.54
1369.9  279495.25  96810.29  34.64
1373.6  277452.06  93065.92  33.54
1377.3  275547.00  88681.11  32.18
1381.0  274380.67  83641.71  30.48
1384.8  272561.25  77468.39  28.42
1388.4  270310.13  70710.27  26.16
1392.2  268559.50  63797.99  23.76
1395.9  267072.65  57000.93  21.34
1399.6  265540.34  50694.50  19.09
1403.3  264424.83  45251.18  17.11
1407.0  263398.90  40712.34  15.46
1410.7  262289.78  37109.44  14.15
1414.3  261161.19  34380.68  13.16
1418.1  260065.38  32422.70  12.47
1421.7  259243.48  31069.07  11.98
1425.4  258346.08  30174.67  11.68
1429.1  257469.75  29629.82  11.51
1432.8  256071.09  29284.64  11.44
1436.5  255305.51  29194.27  11.44
1440.2  254592.83  29238.65  11.48
1443.9  253397.19  29316.87  11.57
1447.6  251897.80  29418.40  11.68
1451.2  250877.18  29592.07  11.80
1454.9  249641.70  29780.57  11.93
1458.6  248544.66  30073.38  12.10
1462.3  247403.57  30474.71  12.32
1466.0  246091.86  31009.33  12.60
1469.7  244457.09  31674.24  12.96
1473.3  243459.50  32565.52  13.38
1477.0  241612.20  33454.94  13.85
1480.7  240082.78  34453.38  14.35
1484.4  238254.82  35424.22  14.87
1488.0  236778.67  36480.19  15.41
1491.7  235246.85  37511.01  15.95
1495.4  233588.46  38531.75  16.50
1499.0  232043.50  39529.07  17.04
1502.7  230767.58  40566.44  17.58
1506.4  229403.09  41550.97  18.11
1510.0  228042.10  42508.91  18.64
1513.7  226622.96  43416.05  19.16
1517.4  225320.00  44306.38  19.66
1521.0  224143.60  45190.69  20.16
1524.7  222953.25  46000.19  20.63
1528.3  221706.00  46765.86  21.09
1532.0  220516.45  47500.57  21.54
1535.7  219158.85  48147.71  21.97
1539.3  217925.07  48783.55  22.39
1543.0  216989.08  49447.42  22.79
1546.6  216305.92  50132.64  23.18
1550.3  215358.40  50710.46  23.55
1553.9  214331.10  51223.67  23.90
1557.6  213096.40  51660.82  24.24
1561.2  211872.60  52045.46  24.56
1564.9  210618.95  52396.38  24.88
1568.5  209346.78  52709.07  25.18
1572.2  208249.10  53030.72  25.47
1575.8  207172.00  53348.00  25.75
1579.5  206198.80  53648.96  26.02
1583.1  205231.37  53936.52  26.28
1586.8  204050.00  54140.00  26.53
1590.4  202978.13  54357.11  26.78
1594.0  201706.16  54493.97  27.02
1597.7  200686.43  54682.69  27.25
1601.3  199513.13  54806.63  27.47
1604.9  198326.12  54897.10  27.68
1608.6  197039.15  54930.53  27.88
1612.2  195957.30  54990.02  28.06
1615.8  194769.58  54995.62  28.24
1619.5  193664.33  54990.71  28.39
1623.1  192376.87  54918.93  28.55
1626.7  191178.00  54825.92  28.68
1630.3  190004.25  54726.30  28.80
1634.0  188818.00  54580.00  28.91
1637.6  187719.67  54405.85  28.98
1641.2  186584.00  54160.74  29.03
1644.8  185284.74  53797.09  29.03
1648.5  184192.18  53439.63  29.01
1652.1  183215.40  53072.40  28.97
1655.7  182313.80  52714.46  28.91
1659.3  181467.36  52422.24  28.89
1662.9  180129.17  52022.02  28.88
1666.6  178787.33  51658.83  28.89
1670.2  177472.40  51298.86  28.91
1673.8  176127.10  50909.68  28.91
1677.4  175077.05  50555.91  28.88
1681.0  174304.80  50231.67  28.82
1684.6  173901.00  49943.52  28.72
1688.2  173224.30  49490.64  28.57
1691.8  172584.90  49049.36  28.42
1695.4  172175.00  48647.17  28.25
1699.0  171867.50  48253.03  28.08
1702.6  171613.00  47842.62  27.88
1706.2  171055.73  47323.14  27.67
1709.8  170180.60  46724.98  27.46
1713.4  169500.49  46195.72  27.25
1717.0  168666.25  45655.46  27.07
1720.6  167903.10  45143.96  26.89
1724.2  167234.63  44651.33  26.70
1727.8  166528.25  44163.15  26.52
1731.4  166057.38  43732.86  26.34
1735.0  165846.45  43378.37  26.16
1738.6  165608.55  42979.69  25.95
1742.2  165070.70  42459.60  25.72
1745.8  164460.90  41901.49  25.48
1749.4  163552.95  41245.41  25.22
1753.0  162105.87  40462.11  24.96
1756.6  160488.42  39672.71  24.72
1760.1  159177.53  38974.66  24.49
1763.7  157519.33  38208.48  24.26
1767.3  156135.58  37538.62  24.04
1770.9  154935.96  36931.24  23.84
1774.5  153538.76  36306.37  23.65
1778.0  152417.99  35785.06  23.48
1781.6  151348.50  35323.31  23.34
1785.2  150219.95  34890.20  23.23
1788.8  149082.30  34499.18  23.14
1792.3  147869.97  34129.20  23.08
1795.9  147387.72  33942.24  23.03
1799.5  146875.00  33775.09  23.00
1803.1  146399.75  33617.97  22.96
1806.6  146933.33  33686.28  22.93
1810.2  147955.50  33859.07  22.88
1813.8  148670.60  33973.72  22.85
1817.3  148498.80  33890.51  22.82
1820.9  147588.73  33631.13  22.79
1824.5  146361.55  33272.14  22.73
1828.0  145450.71  32950.04  22.65
1831.6  144626.80  32618.78  22.55
1835.2  143947.50  32251.43  22.40
1838.7  143603.87  31865.37  22.19
1842.3  143340.00  31414.29  21.92
1845.8  142640.67  30751.54  21.56
1849.4  142168.83  29983.92  21.09
1852.9  141563.63  29015.07  20.50
1856.5  140746.85  27796.65  19.75
1860.0  139997.53  26350.93  18.82
1863.6  139640.23  24772.31  17.74
1867.1  139360.90  22963.85  16.48
1870.7  139360.18  20853.57  14.96
1874.2  138836.25  18373.56  13.23
1877.8  137779.80  15802.19  11.47
1881.3  136372.25  13271.64  9.73
1884.9  135352.98  11021.99  8.14
1888.4  134352.98  9032.64  6.72
1891.9  133266.80  7432.90  5.58
1895.5  132130.42  6234.68  4.72
1899.0  131464.38  5444.07  4.14
1901.3  162306.83  3605.17  2.22
1904.1  162120.75  3128.25  1.93
1906.8  161332.20  2791.80  1.73
1909.6  159636.40  2551.27  1.60
1912.4  158055.68  2384.32  1.51
1915.1  156898.50  2265.63  1.44
1917.9  155619.83  2190.94  1.41
1920.6  154609.07  2145.39  1.39
1923.3  153655.83  2109.49  1.37
1926.1  152491.07  2096.31  1.37
1928.8  151433.33  2102.22  1.39
1931.6  150587.85  2113.95  1.40
1934.3  149801.70  2137.92  1.43
1937.0  149014.23  2177.53  1.46
1939.8  148127.67  2224.00  1.50
1942.5  146949.00  2269.67  1.54
1945.2  145369.95  2323.38  1.60
1947.9  144058.60  2391.28  1.66
1950.7  143003.53  2464.46  1.72
1953.4  141349.55  2533.93  1.79
1956.1  140044.67  2620.97  1.87
1958.8  138892.87  2714.25  1.95
1961.5  137484.80  2812.13  2.05
1964.2  136045.00  2912.00  2.14
1966.9  134546.35  3025.72  2.25
1969.6  133371.00  3141.00  2.36
1972.3  132031.50  3272.23  2.48
1975.0  131015.40  3407.25  2.60
1977.7  129948.85  3544.30  2.73
1980.4  128852.47  3693.69  2.87
1983.1  127795.05  3849.86  3.01
1985.8  126906.90  4010.70  3.16
1988.4  125918.00  4162.89  3.31
1991.1  125036.57  4328.18  3.46
1993.8  124200.63  4500.77  3.62
1996.5  123588.85  4684.59  3.79
1999.1  122933.98  4871.29  3.96
2001.8  122265.27  5053.38  4.13
2004.5  121610.35  5230.37  4.30
2007.1  120892.40  5409.13  4.47
2009.8  120158.73  5585.77  4.65
2012.4  119582.10  5764.55  4.82
2015.1  119045.03  5933.98  4.98
2017.8  118285.30  6086.50  5.15
2020.4  117807.07  6261.44  5.31
2023.1  117456.50  6431.83  5.48
2025.7  117216.67  6598.22  5.63
2028.3  116878.67  6754.22  5.78
2031.0  116486.92  6888.78  5.91
2033.6  116214.60  7032.50  6.05
2036.2  115962.30  7171.70  6.18
2038.9  115396.80  7284.80  6.31
2041.5  115068.72  7403.35  6.43
2044.1  114535.50  7502.30  6.55
2046.8  114170.10  7600.90  6.66
2049.4  113561.10  7687.90  6.77
2052.0  113280.07  7781.40  6.87
2054.6  112892.50  7869.17  6.97
2057.2  112345.60  7947.33  7.07
2059.8  112031.20  8043.40  7.18
2062.4  111189.80  8100.69  7.29
2065.0  110668.80  8171.49  7.38
2067.6  109803.85  8214.00  7.48
2070.2  109211.12  8289.55  7.59
2072.8  108600.95  8350.57  7.69
2075.4  108167.50  8417.50  7.78
2078.0  107569.48  8464.21  7.87
2080.6  107016.80  8521.33  7.96
2083.2  106348.43  8565.03  8.05
2085.8  105874.30  8616.45  8.14
2088.4  105222.67  8653.72  8.22
2090.9  104451.05  8681.48  8.31
2093.5  103595.70  8699.46  8.40
2096.1  102835.27  8721.85  8.48
2098.7  102097.47  8739.42  8.56
2101.2  101166.93  8736.25  8.64
2103.8  100529.40  8759.53  8.71
2106.4  99874.40  8779.91  8.79
2108.9  99245.60  8797.38  8.86
2111.5  98415.93  8797.38  8.94
2114.0  97813.33  8803.20  9.00
2116.6  97308.75  8825.83  9.07
2119.1  96775.23  8836.80  9.13
2121.7  96293.75  8852.08  9.19
2124.2  95907.33  8866.02  9.24
2126.8  95149.85  8850.67  9.30
2129.3  94767.20  8870.40  9.36
2131.9  94212.80  8870.40  9.42
2134.4  93783.45  8894.25  9.48
2136.9  93408.25  8909.98  9.54
2139.4  92896.07  8919.87  9.60
2142.0  92461.60  8943.51  9.67
2144.5  92186.20  8974.17  9.73
2147.0  91950.80  9013.73  9.80
2149.5  91459.47  9034.58  9.88
2152.1  91297.62  9094.13  9.96
2154.6  91228.80  9142.22  10.02
2157.1  90688.00  9146.92  10.09
2159.6  90288.33  9162.06  10.15
2162.1  90135.50  9194.03  10.20
2164.6  89890.27  9218.58  10.26
2167.1  89574.23  9247.62  10.32
2169.6  89254.20  9265.82  10.38
2172.1  88787.73  9273.35  10.44
2174.6  88468.87  9291.38  10.50
2177.1  88033.85  9298.81  10.56
2179.5  87641.88  9304.24  10.62
2182.0  87170.05  9303.25  10.67
2184.5  86655.08  9305.14  10.74
2187.0  86041.43  9298.12  10.81
2189.5  85378.45  9281.02  10.87
2191.9  84645.00  9249.83  10.93
2194.4  84068.65  9234.85  10.98
2196.9  83337.60  9206.40  11.05
2199.3  82698.33  9176.89  11.10
2201.8  81847.60  9123.38  11.15
2204.3  81409.62  9119.68  11.20
2206.7  80789.70  9088.27  11.25
2209.2  80331.73  9066.31  11.29
2211.6  79744.50  9032.10  11.33
2214.1  79480.60  9021.33  11.35
2216.5  78920.33  8983.05  11.38
2219.0  78562.73  8959.87  11.40
2221.4  78212.75  8925.00  11.41
2223.9  77756.58  8875.42  11.41
2226.3  77280.58  8809.31  11.40
2228.7  76734.20  8730.28  11.38
2231.1  76160.70  8632.80  11.33
2233.6  75602.60  8522.80  11.27
2236.0  75079.08  8409.33  11.20
2238.4  74593.17  8290.33  11.11
2240.9  74162.27  8175.13  11.02
2243.3  73645.73  8036.07  10.91
2245.7  73082.75  7887.03  10.79
2248.1  72617.13  7744.10  10.66
2250.5  72139.57  7600.64  10.54
2252.9  71540.73  7438.46  10.40
2255.3  71013.15  7273.45  10.24
2257.7  70570.00  7130.00  10.10
2260.1  70082.83  6979.86  9.96
2262.5  69500.00  6830.00  9.83
2264.9  68994.82  6695.49  9.70
2267.3  68400.00  6550.00  9.58
2269.7  67925.67  6421.33  9.45
2272.1  67402.15  6283.79  9.32
2274.5  66858.38  6166.37  9.22
2276.8  66390.47  6050.07  9.11
2279.2  65827.50  5939.55  9.02
2281.6  65433.33  5838.67  8.92
2284.0  64973.30  5733.43  8.82
2286.3  64529.07  5630.76  8.73
2288.7  64134.63  5526.16  8.62
2291.1  63600.17  5413.43  8.51
2293.4  63160.53  5307.87  8.40
2295.8  62562.20  5191.20  8.30
2298.2  62006.85  5068.05  8.17
2300.5  61375.50  4947.30  8.06
2302.9  60656.67  4836.00  7.97
2305.2  59956.30  4724.27  7.88
2307.6  59331.15  4614.99  7.78
2309.9  58579.67  4505.33  7.69
2312.2  58001.00  4412.33  7.61
2314.6  57411.45  4326.30  7.54
2316.9  56728.35  4229.70  7.46
2319.2  56145.87  4143.21  7.38
2321.6  55550.83  4052.96  7.30
2323.9  55010.42  3972.22  7.22
2326.2  54472.43  3891.63  7.14
2328.6  53963.80  3803.80  7.05
2330.9  53487.00  3724.00  6.96
2333.2  53033.08  3651.25  6.88
2335.5  52590.50  3577.37  6.80
2337.8  52148.20  3497.40  6.71
2340.1  51609.03  3429.10  6.64
2342.4  51187.50  3354.72  6.55
2344.8  50762.50  3289.56  6.48
2347.1  50227.33  3209.58  6.39
2349.4  49707.20  3139.75  6.32
2351.6  49156.37  3069.98  6.25
2353.9  48668.03  3004.74  6.17
2356.2  48157.40  2938.50  6.10
2358.5  47577.60  2867.20  6.03
2360.8  47028.80  2792.53  5.94
2363.1  46594.03  2733.13  5.87
2365.4  46137.90  2681.87  5.81
2367.7  45679.80  2618.20  5.73
2369.9  45158.80  2538.08  5.62
2372.2  44559.47  2472.98  5.55
2374.5  43993.95  2417.80  5.50
2376.7  43388.25  2342.69  5.40
2379.0  42799.03  2268.50  5.30
2381.3  42210.00  2193.33  5.20
2383.5  41723.73  2147.20  5.15
2385.8  41136.27  2086.62  5.07
2388.0  40615.60  2025.67  4.99
2390.3  40121.20  1958.00  4.88
2392.5  39660.00  1896.00  4.78
2394.8  39179.80  1843.23  4.70
2397.0  38717.47  1783.60  4.61
2399.3  38267.85  1734.09  4.53
2401.5  37840.25  1678.25  4.44
2403.8  37319.50  1621.70  4.35
2406.0  36840.25  1572.78  4.27
2408.2  36440.07  1525.09  4.19
2410.4  36014.42  1468.87  4.08
2412.7  35613.93  1411.66  3.96
2414.9  35268.20  1378.85  3.91
2417.1  34861.50  1341.97  3.85
2419.3  34457.60  1305.60  3.79
2421.6  34087.08  1261.53  3.70
2423.8  33713.33  1227.51  3.64
2426.0  33341.20  1181.48  3.54
2428.2  32993.33  1136.80  3.45
2430.4  32699.57  1107.19  3.39
2432.6  32453.33  1075.56  3.31
2434.8  32160.20  1033.69  3.21
2437.0  31783.27  998.54  3.14
2439.2  31453.28  973.20  3.09
2441.4  31124.90  940.70  3.02
2443.6  30894.07  902.69  2.92
2445.7  30612.75  874.65  2.86
2447.9  30352.25  848.92  2.80
2450.1  30052.95  824.27  2.74
2452.3  29715.58  795.24  2.68
2454.5  29373.68  765.90  2.61
2456.6  29004.13  741.87  2.56
2458.8  28642.90  734.07  2.56
2461.0  28314.33  701.61  2.48
2463.1  28052.40  674.15  2.40
2465.3  27788.70  648.75  2.33
2467.5  27538.25  649.00  2.36
2469.6  27297.50  616.56  2.26
2471.8  26969.93  590.66  2.19
2473.9  26652.25  578.20  2.17
2476.1  26314.17  566.22  2.15
2478.2  26018.53  553.48  2.13
2480.4  25726.60  521.90  2.03
2482.5  25392.67  510.95  2.01
2484.6  25042.42  509.05  2.03
2486.8  24774.60  502.40  2.03
2488.9  24448.38  484.02  1.98
2491.1  24101.47  460.13  1.91
2493.2  23726.47  457.71  1.93
2495.3  23360.57  454.28  1.94
2497.4  23006.90  450.80  1.96
2499.5  22689.03  431.56  1.90
2501.7  22546.53  416.31  1.85
2503.8  22483.92  406.77  1.81
2505.9  22413.33  392.92  1.75
2508.0  22386.30  379.53  1.70
2510.1  22372.05  393.43  1.76
2512.2  22442.05  403.70  1.80
2514.3  22590.17  404.98  1.79
2516.4  22773.20  433.40  1.90
