/*** Spectra Vista SIG Data ***/
name= 23_20220824_BENI_49_avg.sig
comm= Averaged Ref/Tar of files: HR.082422.0065_moc.sig,HR.082422.0066_moc.sig,HR.082422.0067_moc.sig
data=
337.3  3506.83  363.92  10.38
338.8  3655.60  333.49  9.12
340.3  3810.47  324.83  8.52
341.8  3993.32  329.22  8.24
343.2  4144.00  325.60  7.86
344.7  4293.43  329.83  7.68
346.2  4493.50  299.57  6.67
347.7  4692.78  298.87  6.37
349.2  4888.80  277.20  5.67
350.6  5165.98  279.11  5.40
352.1  5454.02  285.80  5.24
353.6  5713.93  286.85  5.02
355.1  5994.15  282.87  4.72
356.6  6292.80  284.05  4.51
358.0  6592.67  276.47  4.19
359.5  6880.40  284.28  4.13
361.0  7201.95  291.27  4.04
362.5  7572.47  300.56  3.97
364.0  7933.42  305.87  3.86
365.4  8298.87  310.97  3.75
366.9  8674.25  316.77  3.65
368.4  9037.12  320.03  3.54
369.9  9422.72  331.51  3.52
371.3  9879.00  352.44  3.57
372.8  10283.70  354.00  3.44
374.3  10714.17  365.50  3.41
375.8  11139.33  373.71  3.35
377.2  11584.93  369.43  3.19
378.7  12015.33  373.01  3.10
380.2  12427.80  373.01  3.00
381.7  12972.00  392.76  3.03
383.1  13457.03  402.45  2.99
384.6  13991.03  413.62  2.96
386.1  14467.38  421.59  2.91
387.6  14966.23  431.20  2.88
389.0  15472.53  439.52  2.84
390.5  16000.80  446.04  2.79
392.0  16575.33  458.47  2.77
393.4  17166.33  465.94  2.71
394.9  17695.80  480.24  2.71
396.4  18250.50  500.25  2.74
397.9  18825.83  515.92  2.74
399.3  19415.83  530.14  2.73
400.8  20023.08  531.73  2.66
402.2  20687.47  549.92  2.66
403.7  21282.30  561.75  2.64
405.2  21907.27  577.67  2.64
406.6  22504.00  597.01  2.65
408.1  23127.33  617.73  2.67
409.6  23764.53  632.16  2.66
411.0  24467.10  646.19  2.64
412.5  25128.83  666.40  2.65
414.0  25808.33  681.88  2.64
415.4  26539.75  704.90  2.66
416.9  27229.15  727.31  2.67
418.4  27950.25  751.98  2.69
419.8  28683.20  778.96  2.72
421.3  29435.02  805.69  2.74
422.7  30252.80  830.56  2.75
424.2  31072.50  852.75  2.74
425.7  31861.07  882.37  2.77
427.1  32641.70  909.41  2.79
428.6  33459.33  940.33  2.81
430.0  34214.57  969.18  2.83
431.5  35113.55  1002.96  2.86
432.9  36019.47  1029.41  2.86
434.4  36939.40  1058.14  2.86
435.9  37809.33  1090.13  2.88
437.3  38674.17  1120.17  2.90
438.8  39548.50  1154.78  2.92
440.2  40433.98  1185.80  2.93
441.7  41432.80  1222.08  2.95
443.1  42364.67  1252.57  2.96
444.6  43361.00  1285.55  2.96
446.0  44322.60  1325.18  2.99
447.5  45315.05  1363.16  3.01
448.9  46285.20  1403.52  3.03
450.4  47319.30  1440.04  3.04
451.8  48221.33  1476.80  3.06
453.3  49188.15  1507.98  3.07
454.7  50231.88  1547.62  3.08
456.2  51136.67  1585.24  3.10
457.6  52144.20  1628.40  3.12
459.1  53157.87  1662.96  3.13
460.5  54124.17  1694.17  3.13
462.0  55227.08  1733.00  3.14
463.4  56297.87  1770.04  3.14
464.8  57331.50  1807.45  3.15
466.3  58372.05  1845.69  3.16
467.7  59405.88  1884.17  3.17
469.2  60503.73  1923.58  3.18
470.6  61510.90  1959.51  3.19
472.0  62586.83  1993.02  3.18
473.5  63628.42  2034.00  3.20
474.9  64704.50  2076.70  3.21
476.4  65904.00  2125.44  3.23
477.8  67028.67  2165.33  3.23
479.2  68092.00  2202.07  3.23
480.7  69248.40  2244.59  3.24
482.1  70438.93  2288.88  3.25
483.6  71681.63  2342.83  3.27
485.0  72828.55  2393.20  3.29
486.4  74078.90  2444.40  3.30
487.9  75231.00  2494.05  3.32
489.3  76452.20  2548.41  3.33
490.7  77590.93  2607.31  3.36
492.2  78890.00  2671.48  3.39
493.6  80047.60  2736.62  3.42
495.0  81217.50  2806.05  3.45
496.5  82453.93  2880.21  3.49
497.9  83618.15  2958.48  3.54
499.3  84841.07  3046.53  3.59
500.7  86151.77  3144.87  3.65
502.2  87346.93  3248.99  3.72
503.6  88651.20  3371.63  3.80
505.0  89775.20  3500.37  3.90
506.5  91142.05  3656.32  4.01
507.9  92428.93  3828.80  4.14
509.3  93891.20  4029.55  4.29
510.7  95228.25  4241.25  4.45
512.2  96693.00  4494.97  4.65
513.6  98211.40  4783.33  4.87
515.0  99698.28  5103.93  5.12
516.4  101105.55  5458.32  5.40
517.8  102792.33  5859.05  5.70
519.3  104164.38  6273.70  6.02
520.7  105787.13  6736.51  6.37
522.1  107141.67  7207.37  6.73
523.5  108568.27  7698.75  7.09
524.9  110000.40  8195.16  7.45
526.3  111403.83  8678.88  7.79
527.8  112988.70  9159.48  8.11
529.2  114352.53  9633.35  8.42
530.6  116014.23  10109.22  8.71
532.0  117814.67  10565.33  8.97
533.4  119170.40  10945.07  9.18
534.8  120162.35  11251.83  9.36
536.3  122016.80  11616.88  9.52
537.7  124143.60  11990.16  9.66
539.1  125682.13  12290.49  9.78
540.5  126958.80  12543.25  9.88
541.9  128787.10  12856.73  9.98
543.3  130118.43  13115.25  10.08
544.7  131495.20  13374.48  10.17
546.1  133323.12  13677.33  10.26
547.5  134631.47  13914.88  10.34
549.0  136554.00  14201.73  10.40
550.4  138082.50  14433.00  10.45
551.8  139645.70  14631.15  10.48
553.2  141244.90  14803.27  10.48
554.6  142646.40  14909.44  10.45
556.0  144230.70  14995.08  10.40
557.4  145878.48  15042.84  10.31
558.8  147556.50  15053.04  10.20
560.2  149047.25  15007.78  10.07
561.6  150780.25  14953.62  9.92
563.0  152411.25  14850.76  9.74
564.4  154044.07  14713.73  9.55
565.8  155620.83  14539.25  9.34
567.2  157415.83  14357.70  9.12
568.6  158985.25  14128.80  8.89
570.0  160498.40  13873.86  8.64
571.4  162295.03  13638.65  8.40
572.8  164101.17  13404.88  8.17
574.2  165782.40  13183.15  7.95
575.6  167362.50  12969.00  7.75
577.0  168942.53  12779.55  7.56
578.4  170738.75  12633.83  7.40
579.8  172300.95  12492.45  7.25
581.2  174088.00  12386.79  7.12
582.5  175546.80  12274.08  6.99
583.9  177125.87  12190.19  6.88
585.3  178986.30  12142.83  6.78
586.7  180511.28  12087.53  6.70
588.1  182077.08  12052.25  6.62
589.5  183774.50  12039.30  6.55
590.9  185479.20  12041.23  6.49
592.3  187346.40  12069.75  6.44
593.7  188832.15  12088.57  6.40
595.0  190528.20  12129.03  6.37
596.4  192031.23  12155.73  6.33
597.8  193579.73  12182.41  6.29
599.2  195201.60  12203.84  6.25
600.6  197005.68  12216.36  6.20
602.0  198349.90  12184.53  6.14
603.3  200205.77  12166.09  6.08
604.7  201925.05  12121.52  6.00
606.1  203485.60  12042.80  5.92
607.5  205180.23  11956.93  5.83
608.9  206937.77  11861.95  5.73
610.2  208381.95  11738.79  5.63
611.6  210023.60  11631.90  5.54
613.0  211644.33  11525.32  5.45
614.4  213079.90  11418.84  5.36
615.8  214587.75  11323.65  5.28
617.1  216178.20  11252.36  5.21
618.5  217875.73  11198.67  5.14
619.9  219447.25  11155.94  5.08
621.3  221140.20  11145.45  5.04
622.6  222812.67  11150.80  5.00
624.0  224334.00  11165.20  4.98
625.4  225887.20  11198.22  4.96
626.8  227557.63  11247.30  4.94
628.1  228988.83  11290.44  4.93
629.5  230975.43  11373.61  4.92
630.9  232725.17  11445.02  4.92
632.2  234221.05  11497.73  4.91
633.6  235948.25  11546.82  4.89
635.0  237577.87  11569.87  4.87
636.3  239189.80  11561.01  4.83
637.7  240655.33  11506.88  4.78
639.1  242398.33  11442.67  4.72
640.4  243950.35  11349.71  4.65
641.8  245248.23  11227.37  4.58
643.2  246906.45  11115.42  4.50
644.5  248346.00  10988.93  4.42
645.9  250157.40  10883.04  4.35
647.2  252400.40  10809.17  4.28
648.6  254542.50  10751.40  4.22
650.0  256147.20  10687.68  4.17
651.3  256492.13  10606.02  4.14
652.7  257207.27  10535.39  4.10
654.0  259319.60  10521.79  4.06
655.4  260940.77  10464.35  4.01
656.8  261277.00  10354.23  3.96
658.1  262517.93  10275.53  3.91
659.5  265045.55  10252.06  3.87
660.8  267105.00  10221.00  3.83
662.2  268053.33  10139.73  3.78
663.5  269727.93  10109.26  3.75
664.9  271211.20  10089.39  3.72
666.2  272038.80  10064.00  3.70
667.6  273853.33  10087.92  3.68
668.9  275180.42  10133.25  3.68
670.3  276062.75  10173.17  3.69
671.6  277934.25  10263.05  3.69
673.0  279188.00  10363.35  3.71
674.3  280507.93  10478.35  3.74
675.7  281912.47  10610.72  3.76
677.0  283138.72  10754.07  3.80
678.4  284636.42  10930.27  3.84
679.7  285825.77  11118.22  3.89
681.1  287210.47  11334.78  3.95
682.4  288463.93  11577.45  4.01
683.8  289878.33  11857.39  4.09
685.1  290958.50  12174.65  4.18
686.4  292344.40  12580.00  4.30
687.8  293714.83  13080.03  4.45
689.1  294871.83  13717.87  4.65
690.5  296331.20  14563.26  4.91
691.8  297209.40  15630.61  5.26
693.1  298647.80  17059.98  5.71
694.5  299936.00  18864.30  6.29
695.8  301270.67  21087.73  7.00
697.1  302514.33  23760.10  7.85
698.5  303680.60  26916.15  8.86
699.8  304888.05  30553.81  10.02
701.1  306127.62  34665.54  11.32
702.5  306995.70  39143.79  12.75
703.8  308025.00  43980.00  14.28
705.1  309300.55  49134.67  15.89
706.5  310445.67  54478.65  17.55
707.8  311514.30  59975.48  19.25
709.1  312475.58  65549.18  20.98
710.5  313740.67  71240.56  22.71
711.8  314697.60  76893.37  24.43
713.1  315812.60  82566.49  26.14
714.4  316823.53  88159.33  27.83
715.8  317730.40  93657.03  29.48
717.1  319172.90  99204.20  31.08
718.4  320230.40  104518.40  32.64
719.7  321482.40  109752.92  34.14
721.0  322110.00  114624.00  35.59
722.4  322961.10  119397.74  36.97
723.7  324046.00  124058.58  38.28
725.0  325194.75  128562.90  39.53
726.3  326260.55  132811.07  40.71
727.6  326899.65  136676.10  41.81
729.0  327949.77  140487.46  42.84
730.3  328843.05  144016.77  43.79
731.6  329856.63  147406.85  44.69
732.9  330784.30  150555.11  45.51
734.2  331706.83  153530.12  46.28
735.5  332863.07  156416.16  46.99
736.8  333759.20  159001.72  47.64
738.1  334711.53  161462.03  48.24
739.5  335790.75  163822.69  48.79
740.8  336596.52  165914.39  49.29
742.1  337501.57  167921.65  49.75
743.4  338400.00  169810.00  50.18
744.7  339560.40  171713.64  50.57
746.0  340568.80  173427.80  50.92
747.3  341218.20  174842.85  51.24
748.6  342063.00  176267.33  51.53
749.9  342992.00  177607.73  51.78
751.2  343889.93  178869.49  52.01
752.5  344935.93  180142.12  52.22
753.8  345702.35  181186.48  52.41
755.1  346528.00  182208.00  52.58
756.4  347216.48  183085.65  52.73
757.7  348344.62  184124.27  52.86
759.0  350331.03  185575.09  52.97
760.3  351683.20  186633.92  53.07
761.6  353460.80  187881.12  53.15
762.9  354134.33  188523.30  53.23
764.2  354631.67  189024.51  53.30
765.5  355054.45  189452.46  53.36
766.8  355649.07  189946.67  53.41
768.1  356327.87  190470.19  53.45
769.3  357090.53  190998.83  53.49
770.6  357909.07  191561.85  53.52
771.9  358799.23  192145.99  53.55
773.2  359316.80  192529.28  53.58
774.5  360093.07  193042.37  53.61
775.8  360971.20  193571.96  53.63
777.1  361693.20  194041.83  53.65
778.4  362202.13  194361.93  53.66
779.6  363140.42  194932.59  53.68
780.9  363760.00  195332.00  53.70
782.2  364371.33  195709.43  53.71
783.5  364841.00  196017.40  53.73
784.8  365543.40  196429.23  53.74
786.0  366074.80  196764.17  53.75
787.3  366641.78  197113.24  53.76
788.6  367218.07  197459.27  53.77
789.9  367831.33  197832.51  53.78
791.2  368640.42  198316.60  53.80
792.4  369495.87  198795.28  53.80
793.7  370138.80  199166.43  53.81
795.0  370924.95  199626.13  53.82
796.2  371774.77  200097.60  53.82
797.5  372668.70  200622.53  53.83
798.8  373525.90  201097.18  53.84
800.0  374349.67  201578.02  53.85
801.3  374958.67  201948.21  53.86
802.6  375698.70  202382.43  53.87
803.8  376483.62  202831.76  53.88
805.1  377127.92  203200.08  53.88
806.4  377748.80  203545.44  53.88
807.7  378414.45  203943.15  53.89
808.9  379113.33  204342.09  53.90
810.2  379811.83  204721.35  53.90
811.4  380442.07  205087.44  53.91
812.7  381170.83  205513.75  53.92
814.0  382118.90  206068.23  53.93
815.2  382875.33  206506.63  53.94
816.5  383406.07  206820.57  53.94
817.7  383993.13  207148.33  53.95
819.0  384619.40  207488.23  53.95
820.2  384853.33  207627.20  53.95
821.5  385627.17  208104.72  53.97
822.7  386105.20  208367.62  53.97
824.0  386478.00  208612.44  53.98
825.2  387100.35  208960.29  53.98
826.5  387497.42  209188.72  53.98
827.7  388138.05  209523.47  53.98
829.0  388598.12  209777.37  53.98
830.2  388973.70  209964.70  53.98
831.5  389498.33  210275.61  53.99
832.7  389881.80  210490.00  53.99
834.0  390247.88  210693.17  53.99
835.2  390645.93  210933.40  54.00
836.4  390984.37  211137.96  54.00
837.7  391432.40  211387.23  54.00
838.9  391913.70  211656.90  54.01
840.1  392361.75  211938.84  54.02
841.4  392875.53  212237.00  54.02
842.6  393271.20  212480.51  54.03
843.8  393635.73  212710.19  54.04
845.1  394163.13  213019.02  54.04
846.3  394536.47  213258.84  54.05
847.5  394956.80  213499.16  54.06
848.8  395437.60  213753.84  54.06
850.0  395739.17  213978.99  54.07
851.2  396351.00  214317.18  54.07
852.5  396773.87  214556.24  54.08
853.7  397242.00  214855.20  54.09
854.9  397701.67  215115.84  54.09
856.1  398129.33  215391.54  54.10
857.4  398358.83  215475.50  54.09
858.6  398856.50  215762.37  54.10
859.8  399276.25  216006.00  54.10
861.0  399812.40  216300.24  54.10
862.2  400247.02  216551.31  54.10
863.5  400591.97  216758.27  54.11
864.7  401187.60  217054.64  54.10
865.9  401595.87  217293.36  54.11
867.1  401893.00  217477.01  54.11
868.3  402393.60  217723.68  54.11
869.5  402861.47  218013.21  54.12
870.8  403410.00  218341.20  54.12
872.0  404048.90  218613.24  54.11
873.2  404504.40  218861.68  54.11
874.4  404931.15  219108.24  54.11
875.6  405257.00  219317.43  54.12
876.8  405777.03  219636.83  54.13
878.0  406344.83  219932.44  54.12
879.2  406913.50  220201.64  54.12
880.4  407476.75  220513.55  54.12
881.6  408046.18  220774.58  54.11
882.8  408483.20  220996.37  54.10
884.0  409211.17  221331.87  54.09
885.2  409734.40  221647.13  54.10
886.5  410427.77  222030.23  54.10
887.7  410994.13  222313.74  54.09
888.8  411711.10  222686.66  54.09
890.0  412388.63  223026.38  54.08
891.2  413029.60  223355.81  54.08
892.4  413738.85  223688.85  54.07
893.6  414433.47  224020.17  54.05
894.8  415437.50  224564.33  54.05
896.0  416453.00  225085.77  54.05
897.2  417373.67  225545.67  54.04
898.4  418270.60  226014.80  54.04
899.6  418962.50  226350.55  54.03
900.8  419450.93  226607.52  54.02
902.0  419814.40  226748.26  54.01
903.2  420281.15  226918.54  53.99
904.3  420655.40  227173.00  54.00
905.5  421391.75  227529.19  53.99
906.7  422220.00  227938.27  53.99
907.9  422830.80  228242.65  53.98
909.1  423348.30  228458.61  53.96
910.2  423724.65  228607.62  53.95
911.4  424054.80  228800.91  53.96
912.6  424371.57  228902.96  53.94
913.8  424797.65  229083.49  53.93
915.0  425329.80  229324.90  53.92
916.2  425711.00  229485.10  53.91
917.3  425851.80  229524.87  53.90
918.5  426294.33  229704.56  53.88
919.7  426660.50  229826.62  53.87
920.8  426921.57  229884.94  53.85
922.0  427157.50  229955.37  53.83
923.2  427518.00  230084.40  53.82
924.4  427947.75  230256.00  53.80
925.5  428476.20  230410.01  53.77
926.7  429308.08  230704.45  53.74
927.9  430329.60  231205.76  53.73
929.0  431934.30  232006.50  53.71
930.2  434389.40  233195.36  53.68
931.4  437099.85  234556.83  53.66
932.5  440218.60  236014.78  53.61
933.7  441861.33  236799.44  53.59
934.9  442890.00  237157.67  53.55
936.0  442590.42  236887.08  53.52
937.2  440758.80  235711.10  53.48
938.3  439158.77  234745.46  53.45
939.5  437551.20  233789.28  53.43
940.7  438001.20  233806.92  53.38
941.8  439848.95  234578.31  53.33
943.0  441672.00  235367.20  53.29
944.2  442621.83  235764.62  53.27
945.3  442377.00  235440.40  53.22
946.5  441728.10  234887.76  53.17
947.6  442169.73  234866.12  53.12
948.8  442247.65  234589.16  53.04
949.9  442570.80  234458.56  52.98
951.1  442625.52  234079.52  52.88
952.2  442408.00  233784.00  52.84
953.4  442271.50  233391.13  52.77
954.5  442540.80  233120.16  52.68
955.7  442680.00  232821.12  52.59
956.8  442772.80  232455.72  52.50
958.0  442557.00  232072.93  52.44
959.1  442571.48  231774.43  52.37
960.3  442318.58  231508.17  52.34
961.4  442517.67  231328.85  52.28
962.6  442898.17  231374.73  52.24
963.7  443056.95  231292.41  52.20
964.9  442975.45  231244.23  52.20
966.0  443026.80  231148.89  52.17
967.2  443243.70  231184.08  52.16
968.3  443205.00  231081.66  52.14
969.5  443219.57  231078.06  52.14
970.6  443481.60  231095.49  52.11
971.8  443947.47  231235.95  52.09
972.9  444192.10  231337.91  52.08
974.0  444527.60  231606.27  52.10
975.2  444599.58  231646.62  52.10
976.3  444571.00  231654.95  52.11
977.5  444733.80  231644.79  52.09
978.6  445177.93  231791.27  52.07
979.7  445678.10  232013.11  52.06
980.9  445814.52  232136.19  52.07
982.0  446033.53  232231.81  52.07
983.2  445526.60  232232.44  52.13
984.3  445553.47  232311.36  52.14
985.4  445888.47  232510.01  52.15
986.6  446673.58  232630.55  52.08
987.7  448295.98  233496.55  52.09
988.9  448569.60  233660.64  52.09
990.0  449718.60  234319.40  52.10
993.1  361194.75  186796.53  51.72
996.9  362985.70  188286.70  51.87
1000.7  364729.40  189749.53  52.02
1004.5  365654.17  190741.59  52.16
1008.4  365682.75  191183.57  52.28
1012.2  365903.75  191752.76  52.41
1016.0  366343.20  192418.27  52.52
1019.8  367018.58  193150.65  52.63
1023.7  367730.63  193856.62  52.72
1027.5  368270.65  194447.80  52.80
1031.3  369302.68  195225.34  52.86
1035.1  369804.11  195674.59  52.91
1038.9  370139.18  196010.30  52.96
1042.7  370101.08  196164.06  53.00
1046.5  370013.17  196245.26  53.04
1050.3  370191.41  196436.96  53.06
1054.2  369979.75  196423.89  53.09
1058.0  369501.88  196222.11  53.10
1061.8  369377.37  196205.48  53.12
1065.6  369259.83  196151.04  53.12
1069.4  369786.87  196416.35  53.12
1073.2  369987.71  196489.75  53.11
1077.0  369817.93  196330.14  53.09
1080.8  369115.63  195864.12  53.06
1084.6  367495.10  194904.21  53.04
1088.4  366322.38  194169.62  53.01
1092.2  365274.00  193472.50  52.97
1096.0  364757.29  193015.60  52.92
1099.8  364413.62  192602.99  52.85
1103.6  363908.48  192150.75  52.80
1107.4  363134.52  191514.00  52.74
1111.2  363036.20  191191.56  52.66
1114.9  362393.50  190551.93  52.58
1118.7  361684.13  189812.70  52.48
1122.5  360846.20  188902.52  52.35
1126.3  359647.58  187674.67  52.18
1130.1  359111.41  186536.30  51.94
1133.9  357575.40  184592.18  51.62
1137.7  356253.40  182458.58  51.22
1141.4  354645.42  179916.99  50.73
1145.2  354074.25  177735.98  50.20
1149.0  353082.92  175420.33  49.68
1152.8  351556.00  173126.60  49.25
1156.6  349998.37  171214.35  48.92
1160.3  348356.00  169657.41  48.70
1164.1  345906.60  168033.93  48.58
1167.9  344065.63  166920.37  48.51
1171.7  342798.75  166188.75  48.48
1175.4  341775.17  165637.21  48.46
1179.2  340974.30  165167.07  48.44
1183.0  340800.00  164956.67  48.40
1186.7  340067.00  164490.10  48.37
1190.5  338623.07  163693.93  48.34
1194.3  337277.10  162973.63  48.32
1198.0  336212.25  162458.20  48.32
1201.8  334901.70  161889.68  48.34
1205.6  333615.33  161390.59  48.38
1209.3  332517.72  161059.25  48.44
1213.1  331324.05  160722.53  48.51
1216.8  330135.94  160464.96  48.61
1220.6  329026.13  160255.82  48.71
1224.3  327760.00  159965.98  48.81
1228.1  326696.00  159812.89  48.92
1231.9  325631.90  159585.93  49.01
1235.6  324354.75  159217.67  49.09
1239.4  323162.38  158871.25  49.16
1243.1  322019.69  158507.56  49.22
1246.9  320901.00  158089.63  49.26
1250.6  319984.47  157749.57  49.30
1254.3  318998.44  157341.82  49.32
1258.1  318121.77  156960.59  49.34
1261.8  316985.07  156392.65  49.34
1265.6  315520.37  155631.36  49.33
1269.3  313738.73  154683.22  49.30
1273.1  313449.08  154420.60  49.26
1276.8  313912.40  154473.42  49.21
1280.6  314338.20  154457.69  49.14
1284.3  313387.60  153726.31  49.05
1288.0  311937.45  152711.37  48.96
1291.8  310232.08  151477.00  48.83
1295.5  308453.20  150143.97  48.68
1299.2  307078.56  148933.82  48.50
1302.9  305689.21  147627.09  48.29
1306.7  304250.80  146208.38  48.06
1310.4  302897.02  144701.37  47.77
1314.1  301639.98  143134.73  47.45
1317.9  300547.08  141488.19  47.08
1321.6  299245.45  139618.17  46.66
1325.3  297648.75  137498.67  46.19
1329.0  296343.83  135389.96  45.69
1332.8  294170.80  132799.33  45.14
1336.5  292249.80  130285.73  44.58
1340.2  291791.50  128407.74  44.01
1343.9  291193.96  126472.50  43.43
1347.6  290290.05  124434.30  42.87
1351.4  290036.00  122715.22  42.31
1355.1  289885.93  121063.47  41.76
1358.8  289360.00  119210.67  41.20
1362.5  288642.88  117146.54  40.59
1366.2  286807.85  114392.24  39.88
1369.9  285369.00  111474.25  39.06
1373.6  283838.63  108030.64  38.06
1377.3  282018.30  103837.60  36.82
1381.0  280540.17  98900.48  35.25
1384.8  278265.00  92747.78  33.33
1388.4  276160.03  86146.62  31.19
1392.2  274558.58  79315.85  28.89
1395.9  272953.83  72425.88  26.53
1399.6  271279.34  65888.68  24.29
1403.3  270192.38  60182.83  22.27
1407.0  269239.30  55354.71  20.56
1410.7  268230.60  51441.87  19.18
1414.3  267282.52  48428.53  18.12
1418.1  266365.54  46225.01  17.35
1421.7  265733.01  44678.34  16.81
1425.4  265021.25  43632.19  16.46
1429.1  264327.00  42985.08  16.26
1432.8  262974.03  42533.85  16.17
1436.5  262173.18  42395.70  16.17
1440.2  261270.93  42407.06  16.23
1443.9  259888.20  42443.72  16.33
1447.6  258273.40  42514.27  16.46
1451.2  257268.18  42708.11  16.60
1454.9  256095.60  42914.90  16.76
1458.6  255139.72  43232.59  16.94
1462.3  254063.33  43660.14  17.18
1466.0  252711.16  44214.81  17.50
1469.7  251046.79  44887.80  17.88
1473.3  250015.83  45825.11  18.33
1477.0  248168.60  46725.01  18.83
1480.7  246672.31  47759.72  19.36
1484.4  244829.60  48745.78  19.91
1488.0  243320.00  49824.29  20.48
1491.7  241696.37  50856.82  21.04
1495.4  239950.45  51863.25  21.61
1499.0  238322.00  52867.00  22.18
1502.7  236995.58  53915.13  22.75
1506.4  235605.89  54912.65  23.31
1510.0  234219.77  55879.95  23.86
1513.7  232825.54  56795.08  24.39
1517.4  231555.00  57702.81  24.92
1521.0  230420.93  58601.13  25.43
1524.7  229220.33  59422.28  25.92
1528.3  227935.13  60172.50  26.40
1532.0  226685.43  60893.03  26.86
1535.7  225281.87  61512.33  27.30
1539.3  224041.47  62136.20  27.73
1543.0  223082.71  62797.80  28.15
1546.6  222404.00  63497.06  28.55
1550.3  221442.05  64080.49  28.94
1553.9  220379.47  64590.75  29.31
1557.6  219115.60  65000.55  29.66
1561.2  217871.10  65357.30  30.00
1564.9  216578.03  65673.10  30.32
1568.5  215288.85  65942.75  30.63
1572.2  214164.15  66241.07  30.93
1575.8  213094.00  66546.67  31.23
1579.5  212126.60  66843.18  31.51
1583.1  211142.41  67112.34  31.79
1586.8  209958.00  67296.45  32.05
1590.4  208998.43  67528.40  32.31
1594.0  207737.62  67640.64  32.56
1597.7  206458.48  67742.61  32.81
1601.3  204942.15  67731.30  33.05
1604.9  203483.67  67715.16  33.28
1608.6  202129.08  67697.98  33.49
1612.2  201244.73  67796.85  33.69
1615.8  200275.73  67843.96  33.88
1619.5  199244.92  67839.11  34.05
1623.1  197977.50  67719.71  34.21
1626.7  196698.13  67589.31  34.36
1630.3  195501.33  67446.35  34.50
1634.0  194306.00  67280.89  34.63
1637.6  193163.47  67107.38  34.74
1641.2  192007.30  66881.12  34.83
1644.8  190660.02  66525.49  34.89
1648.5  189518.83  66199.52  34.93
1652.1  188502.90  65856.40  34.94
1655.7  187539.40  65462.00  34.91
1659.3  186677.63  65055.97  34.85
1662.9  185257.50  64439.45  34.78
1666.6  183865.40  63825.15  34.71
1670.2  182491.23  63225.01  34.65
1673.8  181108.13  62614.26  34.57
1677.4  179994.55  62094.76  34.50
1681.0  179245.13  61657.88  34.40
1684.6  178844.25  61284.41  34.27
1688.2  178176.80  60772.68  34.11
1691.8  177520.34  60256.07  33.94
1695.4  177102.40  59800.93  33.77
1699.0  176792.23  59359.33  33.58
1702.6  176529.33  58903.63  33.37
1706.2  175968.98  58331.33  33.15
1709.8  175119.65  57654.34  32.92
1713.4  174438.11  57030.93  32.69
1717.0  173607.50  56367.94  32.47
1720.6  172837.95  55731.30  32.24
1724.2  172159.88  55126.32  32.02
1727.8  171434.55  54527.82  31.81
1731.4  170942.75  54053.39  31.62
1735.0  170700.57  53721.60  31.47
1738.6  170398.05  53354.00  31.31
1742.2  169800.74  52842.06  31.12
1745.8  169107.22  52270.19  30.91
1749.4  168130.05  51567.27  30.67
1753.0  166610.53  50693.90  30.43
1756.6  164940.42  49775.84  30.18
1760.1  163612.92  48982.21  29.94
1763.7  161889.33  48116.00  29.72
1767.3  160475.63  47372.98  29.52
1770.9  159272.05  46728.40  29.34
1774.5  157858.88  46037.54  29.16
1778.0  156717.23  45456.84  29.01
1781.6  155605.65  44928.17  28.87
1785.2  154457.00  44417.24  28.76
1788.8  153295.20  43951.07  28.67
1792.3  152074.37  43492.86  28.60
1795.9  151601.45  43276.83  28.55
1799.5  151058.00  43065.92  28.51
1803.1  149658.25  42639.80  28.49
1806.6  149152.09  42446.41  28.46
1810.2  149820.07  42589.30  28.43
1813.8  150879.25  42836.06  28.39
1817.3  151178.80  42868.09  28.36
1820.9  150789.20  42693.29  28.31
1824.5  149774.13  42331.04  28.26
1828.0  149185.67  42051.88  28.19
1831.6  148428.45  41687.48  28.09
1835.2  147659.17  41262.78  27.94
1838.7  147222.67  40845.13  27.74
1842.3  146790.00  40343.33  27.48
1845.8  146127.17  39646.20  27.13
1849.4  145774.50  38880.08  26.67
1852.9  145136.31  37855.69  26.08
1856.5  144324.75  36559.76  25.33
1860.0  143638.01  35023.10  24.38
1863.6  143367.96  33353.60  23.26
1867.1  143031.00  31388.31  21.95
1870.7  142649.60  29011.65  20.34
1874.2  141806.70  26174.40  18.46
1877.8  140993.00  23243.38  16.49
1881.3  140134.50  20301.25  14.49
1884.9  139627.49  17592.32  12.60
1888.4  138873.60  15046.43  10.83
1891.9  138254.27  12910.12  9.34
1895.5  137347.58  11210.61  8.16
1899.0  137061.25  10005.28  7.30
1901.3  163273.17  8028.00  4.92
1904.1  163217.25  7374.50  4.52
1906.8  162629.40  6852.60  4.21
1909.6  161226.80  6452.72  4.00
1912.4  159860.63  6172.49  3.86
1915.1  158872.45  5955.77  3.75
1917.9  157653.83  5819.50  3.69
1920.6  156689.80  5736.71  3.66
1923.3  155743.23  5665.80  3.64
1926.1  154561.43  5624.76  3.64
1928.8  153472.00  5622.22  3.66
1931.6  152563.63  5637.20  3.69
1934.3  151710.25  5686.70  3.75
1937.0  150885.93  5745.59  3.81
1939.8  150004.17  5822.56  3.88
1942.5  148885.00  5896.00  3.96
1945.2  147439.05  5980.88  4.06
1947.9  146255.90  6086.89  4.16
1950.7  145308.47  6211.60  4.27
1953.4  143746.60  6315.73  4.39
1956.1  142502.42  6441.00  4.52
1958.8  141389.73  6580.67  4.65
1961.5  140024.00  6731.33  4.81
1964.2  138602.10  6882.63  4.97
1966.9  137116.55  7022.80  5.12
1969.6  135927.00  7197.00  5.29
1972.3  134576.90  7363.27  5.47
1975.0  133555.35  7563.80  5.66
1977.7  132488.05  7761.61  5.86
1980.4  131377.27  7968.90  6.07
1983.1  130314.17  8179.14  6.28
1985.8  129395.10  8398.40  6.49
1988.4  128396.67  8617.56  6.71
1991.1  127488.43  8837.66  6.93
1993.8  126639.15  9064.73  7.16
1996.5  126018.75  9308.87  7.39
1999.1  125363.88  9553.01  7.62
2001.8  124673.97  9795.95  7.86
2004.5  124006.40  10028.23  8.09
2007.1  123279.80  10244.48  8.31
2009.8  122558.80  10463.60  8.54
2012.4  121986.15  10687.54  8.76
2015.1  121445.10  10901.02  8.98
2017.8  120659.47  11093.84  9.19
2020.4  120159.42  11299.32  9.40
2023.1  119787.50  11502.48  9.60
2025.7  119556.67  11714.44  9.80
2028.3  119236.00  11905.11  9.98
2031.0  118831.42  12066.94  10.15
2033.6  118546.20  12229.30  10.32
2036.2  118285.20  12391.70  10.48
2038.9  117702.30  12499.00  10.62
2041.5  117378.63  12630.45  10.76
2044.1  116832.30  12733.90  10.90
2046.8  116466.90  12847.00  11.03
2049.4  115840.50  12925.30  11.16
2052.0  115542.00  13035.96  11.28
2054.6  115158.75  13136.67  11.41
2057.2  114616.27  13222.27  11.54
2059.8  114301.87  13341.62  11.67
2062.4  113447.42  13394.61  11.81
2065.0  112930.73  13487.18  11.94
2067.6  112061.47  13534.08  12.08
2070.2  111468.73  13609.62  12.21
2072.8  110841.13  13676.45  12.34
2075.4  110407.50  13775.42  12.48
2078.0  109774.10  13836.68  12.60
2080.6  109225.60  13904.00  12.73
2083.2  108557.63  13959.45  12.86
2085.8  108078.92  14026.98  12.98
2088.4  107404.50  14074.44  13.10
2090.9  106602.32  14103.73  13.23
2093.5  105734.77  14114.33  13.35
2096.1  104969.62  14129.46  13.46
2098.7  104205.47  14155.81  13.58
2101.2  103254.20  14148.00  13.70
2103.8  102599.20  14174.20  13.82
2106.4  101944.20  14194.58  13.92
2108.9  101306.67  14220.78  14.04
2111.5  100468.27  14206.22  14.14
2114.0  99848.20  14238.24  14.26
2116.6  99338.75  14268.33  14.36
2119.1  98800.33  14280.90  14.45
2121.7  98323.75  14303.33  14.55
2124.2  97932.43  14342.27  14.65
2126.8  97152.45  14313.91  14.73
2129.3  96756.00  14335.20  14.82
2131.9  96166.40  14314.67  14.89
2134.4  95739.30  14325.20  14.96
2136.9  95362.58  14331.78  15.03
2139.4  94846.73  14313.76  15.09
2142.0  94412.27  14316.71  15.16
2144.5  94144.20  14331.97  15.22
2147.0  93898.27  14358.84  15.29
2149.5  93398.00  14349.91  15.36
2152.1  93229.03  14388.30  15.43
2154.6  93141.87  14419.02  15.48
2157.1  92613.67  14391.03  15.54
2159.6  92223.08  14394.06  15.61
2162.1  92046.50  14420.47  15.67
2164.6  91799.13  14433.71  15.72
2167.1  91475.18  14433.14  15.78
2169.6  91143.62  14427.15  15.83
2172.1  90671.33  14400.92  15.88
2174.6  90359.27  14409.67  15.95
2177.1  89946.22  14395.36  16.00
2179.5  89533.17  14381.83  16.06
2182.0  89040.05  14355.37  16.12
2184.5  88512.98  14318.97  16.18
2187.0  87909.23  14291.50  16.26
2189.5  87246.67  14243.97  16.33
2191.9  86507.00  14174.00  16.38
2194.4  85902.25  14127.63  16.45
2196.9  85180.80  14057.60  16.50
2199.3  84544.67  13997.33  16.56
2201.8  83687.20  13882.98  16.59
2204.3  83215.88  13848.04  16.64
2206.7  82572.55  13780.15  16.69
2209.2  82110.73  13744.42  16.74
2211.6  81506.70  13662.00  16.76
2214.1  81221.85  13621.55  16.77
2216.5  80668.60  13552.38  16.80
2219.0  80320.93  13496.09  16.80
2221.4  79958.08  13417.25  16.78
2223.9  79492.00  13321.39  16.76
2226.3  78996.17  13205.69  16.72
2228.7  78434.13  13069.06  16.66
2231.1  77863.50  12916.20  16.59
2233.6  77301.20  12747.78  16.49
2236.0  76774.83  12587.56  16.40
2238.4  76298.83  12418.97  16.28
2240.9  75870.80  12244.49  16.14
2243.3  75344.33  12042.51  15.98
2245.7  74784.20  11833.87  15.82
2248.1  74311.47  11637.74  15.66
2250.5  73826.75  11427.59  15.48
2252.9  73195.20  11192.57  15.29
2255.3  72654.90  10971.53  15.10
2257.7  72220.00  10766.67  14.91
2260.1  71748.37  10561.76  14.72
2262.5  71140.00  10330.00  14.52
2264.9  70622.10  10126.43  14.34
2267.3  70050.00  9926.67  14.17
2269.7  69571.13  9752.40  14.02
2272.1  69014.83  9572.59  13.87
2274.5  68465.70  9394.32  13.72
2276.8  67993.13  9235.37  13.58
2279.2  67435.50  9071.80  13.45
2281.6  67003.73  8912.36  13.30
2284.0  66559.00  8766.80  13.17
2286.3  66109.87  8630.22  13.05
2288.7  65723.23  8492.90  12.92
2291.1  65176.10  8336.76  12.79
2293.4  64731.33  8199.64  12.67
2295.8  64127.80  8040.87  12.54
2298.2  63549.00  7876.35  12.39
2300.5  62907.30  7700.40  12.24
2302.9  62196.33  7536.44  12.12
2305.2  61511.60  7378.23  11.99
2307.6  60847.70  7228.54  11.88
2309.9  60078.00  7085.22  11.79
2312.2  59499.33  6985.33  11.74
2314.6  58891.50  6882.75  11.69
2316.9  58177.35  6779.25  11.65
2319.2  57607.57  6676.13  11.59
2321.6  56994.12  6569.19  11.53
2323.9  56437.50  6454.86  11.44
2326.2  55912.23  6346.94  11.35
2328.6  55385.00  6238.65  11.26
2330.9  54883.50  6128.50  11.17
2333.2  54408.92  6014.86  11.05
2335.5  53992.20  5909.97  10.95
2337.8  53528.47  5815.81  10.86
2340.1  52967.73  5686.41  10.74
2342.4  52541.67  5579.17  10.62
2344.8  52116.17  5476.53  10.51
2347.1  51554.30  5362.70  10.40
2349.4  51029.20  5262.29  10.31
2351.6  50467.35  5155.80  10.22
2353.9  49992.03  5067.98  10.14
2356.2  49469.17  4980.27  10.07
2358.5  48876.80  4879.47  9.98
2360.8  48294.40  4778.67  9.89
2363.1  47872.73  4711.00  9.84
2365.4  47414.80  4625.47  9.76
2367.7  46956.60  4533.40  9.65
2369.9  46406.85  4431.15  9.55
2372.2  45797.87  4334.40  9.46
2374.5  45218.25  4235.00  9.37
2376.7  44584.77  4139.40  9.28
2379.0  43985.63  4040.64  9.19
2381.3  43388.33  3939.45  9.08
2383.5  42885.33  3844.62  8.96
2385.8  42277.63  3737.88  8.84
2388.0  41748.40  3650.13  8.74
2390.3  41248.53  3567.91  8.65
2392.5  40776.00  3492.00  8.56
2394.8  40329.30  3404.13  8.44
2397.0  39833.73  3312.40  8.32
2399.3  39364.35  3236.71  8.22
2401.5  38918.25  3156.42  8.11
2403.8  38391.05  3070.95  8.00
2406.0  37883.25  2996.56  7.91
2408.2  37487.27  2925.51  7.80
2410.4  37063.02  2850.36  7.69
2412.7  36631.83  2777.23  7.58
2414.9  36267.55  2719.75  7.50
2417.1  35852.10  2637.37  7.36
2419.3  35430.40  2560.00  7.23
2421.6  35068.75  2501.53  7.13
2423.8  34685.83  2446.38  7.05
2426.0  34314.95  2384.60  6.95
2428.2  33960.27  2321.51  6.84
2430.4  33665.60  2262.90  6.72
2432.6  33360.00  2204.45  6.61
2434.8  33069.13  2138.67  6.47
2437.0  32696.73  2086.65  6.38
2439.2  32345.38  2032.01  6.28
2441.4  32024.70  1972.29  6.16
2443.6  31778.33  1934.33  6.09
2445.7  31501.28  1888.13  5.99
2447.9  31215.08  1841.64  5.90
2450.1  30910.00  1784.35  5.77
2452.3  30548.47  1741.05  5.70
2454.5  30196.32  1692.54  5.61
2456.6  29803.07  1650.18  5.54
2458.8  29458.00  1606.37  5.45
2461.0  29150.50  1557.00  5.34
2463.1  28867.20  1513.20  5.24
2465.3  28578.90  1477.96  5.17
2467.5  28320.00  1450.42  5.12
2469.6  28073.17  1412.11  5.03
2471.8  27750.80  1386.54  5.00
2473.9  27436.58  1362.53  4.97
2476.1  27087.67  1324.55  4.89
2478.2  26719.27  1284.68  4.81
2480.4  26432.70  1248.47  4.72
2482.5  26073.93  1218.02  4.67
2484.6  25743.67  1189.53  4.62
2486.8  25449.70  1167.03  4.59
2488.9  25142.85  1146.92  4.56
2491.1  24815.47  1121.25  4.52
2493.2  24381.10  1101.70  4.52
2495.3  23985.87  1068.89  4.46
2497.4  23667.00  1051.87  4.44
2499.5  23336.37  1019.55  4.37
2501.7  23171.00  1018.87  4.40
2503.8  23069.00  1008.57  4.37
2505.9  23011.25  990.83  4.31
2508.0  22999.38  998.45  4.34
2510.1  22980.08  977.62  4.25
2512.2  23065.95  978.67  4.24
2514.3  23178.65  987.13  4.26
2516.4  23344.50  1011.27  4.33
