/*** Spectra Vista SIG Data ***/
name= 7_20220824_TITO_18_avg.sig
comm= Averaged Ref/Tar of files: HR.082422.0019_moc.sig,HR.082422.0020_moc.sig,HR.082422.0021_moc.sig
data=
337.3  3473.75  304.37  8.76
338.8  3559.40  295.01  8.29
340.3  3748.00  281.10  7.50
341.8  3932.35  286.54  7.29
343.2  4129.20  278.24  6.74
344.7  4307.65  272.96  6.34
346.2  4493.50  272.33  6.06
347.7  4719.00  267.41  5.67
349.2  4914.00  272.16  5.54
350.6  5178.23  269.32  5.20
352.1  5465.93  276.27  5.05
353.6  5760.20  282.23  4.90
355.1  6061.50  278.38  4.59
356.6  6358.35  270.94  4.26
358.0  6635.20  272.21  4.10
359.5  6921.60  284.28  4.11
361.0  7271.78  291.27  4.01
362.5  7670.05  304.46  3.97
364.0  8029.00  309.69  3.86
365.4  8430.00  318.47  3.78
366.9  8812.38  316.77  3.59
368.4  9164.40  330.94  3.61
369.9  9566.85  338.71  3.54
371.3  10012.50  359.56  3.59
372.8  10434.15  368.16  3.53
374.3  10911.25  376.25  3.45
375.8  11345.95  377.30  3.33
377.2  11782.20  383.77  3.26
378.7  12212.60  387.36  3.17
380.2  12643.00  405.29  3.21
381.7  13188.20  410.78  3.11
383.1  13717.55  416.83  3.04
384.6  14269.78  431.60  3.02
386.1  14782.68  443.21  3.00
387.6  15307.60  449.17  2.93
389.0  15812.00  460.96  2.92
390.5  16301.70  467.28  2.87
392.0  16954.45  483.15  2.85
393.4  17551.70  490.47  2.79
394.9  18165.60  497.64  2.74
396.4  18733.50  514.05  2.74
397.9  19346.88  529.58  2.74
399.3  19905.45  536.89  2.70
400.8  20488.35  545.03  2.66
402.2  21186.65  559.74  2.64
403.7  21811.95  568.17  2.60
405.2  22467.58  580.83  2.59
406.6  23060.80  600.11  2.60
408.1  23684.80  614.72  2.60
409.6  24342.55  623.38  2.56
411.0  25043.55  637.65  2.55
412.5  25739.70  652.52  2.54
414.0  26426.38  668.30  2.53
415.4  27169.13  683.70  2.52
416.9  27890.93  701.61  2.52
418.4  28591.43  714.63  2.50
419.8  29356.60  737.71  2.51
421.3  30124.25  755.78  2.51
422.7  30954.60  779.52  2.52
424.2  31775.63  798.75  2.51
425.7  32583.70  821.52  2.52
427.1  33374.93  835.56  2.50
428.6  34224.00  855.60  2.50
430.0  34978.38  876.10  2.50
431.5  35909.55  901.47  2.51
432.9  36844.75  927.83  2.52
434.4  37775.03  951.18  2.52
435.9  38640.00  978.13  2.53
437.3  39531.25  1002.83  2.54
438.8  40412.78  1024.46  2.53
440.2  41327.83  1052.85  2.55
441.7  42344.00  1079.15  2.55
443.1  43301.00  1105.93  2.55
444.6  44330.40  1131.84  2.55
446.0  45308.70  1159.10  2.56
447.5  46323.20  1194.27  2.58
448.9  47291.40  1222.92  2.59
450.4  48342.35  1251.83  2.59
451.8  49257.00  1274.00  2.59
453.3  50234.15  1305.76  2.60
454.7  51303.45  1338.58  2.61
456.2  52212.30  1363.06  2.61
457.6  53232.75  1394.76  2.62
459.1  54259.40  1423.11  2.62
460.5  55238.75  1451.63  2.63
462.0  56358.68  1480.54  2.63
463.4  57444.10  1512.48  2.63
464.8  58483.13  1539.20  2.63
466.3  59522.10  1572.67  2.64
467.7  60564.73  1598.92  2.64
469.2  61690.73  1630.82  2.64
470.6  62719.20  1659.77  2.65
472.0  63787.90  1690.88  2.65
473.5  64847.88  1721.37  2.65
474.9  65920.50  1753.70  2.66
476.4  67147.20  1791.36  2.67
477.8  68280.50  1827.00  2.68
479.2  69353.50  1856.00  2.68
480.7  70522.20  1889.47  2.68
482.1  71715.35  1926.67  2.69
483.6  72943.60  1963.27  2.69
485.0  74097.53  1997.55  2.70
486.4  75354.45  2040.88  2.71
487.9  76503.38  2078.70  2.72
489.3  77718.55  2116.47  2.72
490.7  78852.38  2153.78  2.73
492.2  80144.40  2205.00  2.75
493.6  81307.50  2250.24  2.77
495.0  82470.38  2299.05  2.79
496.5  83720.88  2355.83  2.81
497.9  84880.20  2412.57  2.84
499.3  86098.23  2473.23  2.87
500.7  87416.55  2547.15  2.91
502.2  88622.00  2624.11  2.96
503.6  89921.40  2713.65  3.02
505.0  91035.10  2806.94  3.08
506.5  92402.85  2917.57  3.16
507.9  93664.35  3046.04  3.25
509.3  95104.80  3192.85  3.36
510.7  96437.25  3359.85  3.48
512.2  97894.43  3551.20  3.63
513.6  99459.85  3775.01  3.80
515.0  100926.38  4028.52  3.99
516.4  102357.68  4318.65  4.22
517.8  104044.75  4651.83  4.47
519.3  105421.75  5006.95  4.75
520.7  107046.95  5404.57  5.05
522.1  108404.08  5819.19  5.37
523.5  109837.80  6260.56  5.70
524.9  111362.85  6712.74  6.03
526.3  112834.05  7161.61  6.35
527.8  114374.70  7621.02  6.66
529.2  115519.70  8065.87  6.98
530.6  117131.70  8529.35  7.28
532.0  118916.00  8984.27  7.56
533.4  120288.08  9375.80  7.79
534.8  121233.58  9708.91  8.01
536.3  122988.60  10084.36  8.20
537.7  125092.80  10473.12  8.37
539.1  126602.40  10793.41  8.53
540.5  127838.45  11074.75  8.66
541.9  129642.75  11399.77  8.79
543.3  130959.55  11679.95  8.92
544.7  132308.40  11960.88  9.04
546.1  134161.23  12283.74  9.16
547.5  135452.80  12551.47  9.27
549.0  137269.00  12849.47  9.36
550.4  138836.88  13111.25  9.44
551.8  140435.08  13347.10  9.50
553.2  142020.05  13544.87  9.54
554.6  143426.40  13685.01  9.54
556.0  145013.85  13798.62  9.52
557.4  146687.28  13874.05  9.46
558.8  148387.95  13911.78  9.38
560.2  149887.63  13888.67  9.27
561.6  151610.78  13844.40  9.13
563.0  153249.25  13752.98  8.97
564.4  154895.10  13629.19  8.80
565.8  156453.13  13465.42  8.61
567.2  158250.75  13284.13  8.39
568.6  159808.13  13061.60  8.17
570.0  161288.60  12802.70  7.94
571.4  163086.95  12558.69  7.70
572.8  164905.88  12314.63  7.47
574.2  166577.60  12078.08  7.25
575.6  168165.00  11854.50  7.05
577.0  169748.60  11651.05  6.86
578.4  171546.38  11485.72  6.70
579.8  173111.85  11326.59  6.54
581.2  174886.68  11201.51  6.41
582.5  176342.40  11072.88  6.28
583.9  177908.60  10970.85  6.17
585.3  179781.30  10901.04  6.06
586.7  181288.90  10825.71  5.97
588.1  182832.88  10762.15  5.89
589.5  184521.75  10729.37  5.81
590.9  186210.80  10708.64  5.75
592.3  188086.85  10714.35  5.70
593.7  189567.30  10716.29  5.65
595.0  191246.40  10735.38  5.61
596.4  192734.85  10748.50  5.58
597.8  194268.35  10761.60  5.54
599.2  195861.60  10776.48  5.50
600.6  197663.05  10791.47  5.46
602.0  198998.78  10763.27  5.41
603.3  200851.65  10749.67  5.35
604.7  202581.45  10701.14  5.28
606.1  204115.80  10627.84  5.21
607.5  205797.58  10540.30  5.12
608.9  207532.55  10445.71  5.03
610.2  208967.85  10323.18  4.94
611.6  210620.48  10207.04  4.85
613.0  212227.15  10091.88  4.76
614.4  213637.65  9973.54  4.67
615.8  215148.38  9867.00  4.59
617.1  216736.80  9772.56  4.51
618.5  218418.40  9694.99  4.44
619.9  219964.65  9635.58  4.38
621.3  221632.65  9599.76  4.33
622.6  223260.00  9585.13  4.29
624.0  224751.15  9583.12  4.26
625.4  226252.95  9597.28  4.24
626.8  227870.83  9627.19  4.22
628.1  229210.58  9654.96  4.21
629.5  231102.13  9718.90  4.21
630.9  232736.35  9758.58  4.19
632.2  234119.20  9786.65  4.18
633.6  235777.00  9802.35  4.16
635.0  237342.80  9781.07  4.12
636.3  238913.00  9731.83  4.07
637.7  240313.63  9644.28  4.01
639.1  242007.50  9543.33  3.94
640.4  243526.15  9412.53  3.87
641.8  244755.08  9261.87  3.78
643.2  246383.73  9115.84  3.70
644.5  247780.25  8964.40  3.62
645.9  249536.25  8833.86  3.54
647.2  251351.28  8718.55  3.47
648.6  253266.75  8640.00  3.41
650.0  254750.40  8562.24  3.36
651.3  255229.15  8484.81  3.32
652.7  256477.35  8439.37  3.29
654.0  258586.80  8421.09  3.26
655.4  260136.05  8381.20  3.22
656.8  260369.00  8290.04  3.18
658.1  261685.60  8223.45  3.14
659.5  264195.23  8193.22  3.10
660.8  266040.00  8148.00  3.06
662.2  266963.20  8058.03  3.02
663.5  268635.20  7994.67  2.98
664.9  269951.50  7938.32  2.94
666.2  270684.60  7894.32  2.92
667.6  272454.30  7888.17  2.90
668.9  273588.65  7901.77  2.89
670.3  274921.63  7917.77  2.88
671.6  276451.88  7962.05  2.88
673.0  277646.63  8012.20  2.89
674.3  278968.30  8082.71  2.90
675.7  280330.43  8173.64  2.92
677.0  281479.50  8269.65  2.94
678.4  282867.08  8387.12  2.97
679.7  284012.38  8522.21  3.00
681.1  285341.45  8674.00  3.04
682.4  286548.60  8860.63  3.09
683.8  287852.50  9084.57  3.16
685.1  288864.00  9342.65  3.23
686.4  290220.60  9694.00  3.34
687.8  291541.75  10131.17  3.48
689.1  292632.00  10727.47  3.67
690.5  294036.60  11565.38  3.93
691.8  294849.53  12684.89  4.30
693.1  296262.00  14236.28  4.81
694.5  297456.25  16216.20  5.45
695.8  298730.25  18700.50  6.26
697.1  299981.50  21676.20  7.23
698.5  301070.10  25157.65  8.36
699.8  302235.08  29114.70  9.63
701.1  303391.50  33516.67  11.05
702.5  304222.05  38205.71  12.56
703.8  305212.50  43185.00  14.15
705.1  306437.63  48372.22  15.79
706.5  307522.00  53688.07  17.46
707.8  308564.10  59060.62  19.14
709.1  309491.48  64450.79  20.82
710.5  310674.70  69912.97  22.50
711.8  311531.00  75308.59  24.17
713.1  312579.10  80728.97  25.83
714.4  313538.00  86083.95  27.46
715.8  314407.70  91373.51  29.06
717.1  315805.50  96745.70  30.63
718.4  316758.40  101922.99  32.18
719.7  317931.35  107040.93  33.67
721.0  318442.50  111858.00  35.13
722.4  319262.90  116610.56  36.52
723.7  320248.35  121289.24  37.87
725.0  321354.23  125844.99  39.16
726.3  322334.65  130172.50  40.38
727.6  322905.28  134159.26  41.55
729.0  323861.48  138106.31  42.64
730.3  324652.50  141791.02  43.67
731.6  325604.75  145329.53  44.63
732.9  326408.60  148631.05  45.54
734.2  327250.00  151750.50  46.37
735.5  328314.90  154788.23  47.15
736.8  329121.90  157529.16  47.86
738.1  330011.20  160133.19  48.52
739.5  331004.10  162633.28  49.13
740.8  331734.15  164847.28  49.69
742.1  332505.28  166966.98  50.21
743.4  333250.00  168950.00  50.70
744.7  334273.65  170934.89  51.14
746.0  335152.35  172738.28  51.54
747.3  335704.80  174243.86  51.90
748.6  336475.25  175745.47  52.23
749.9  337220.00  177153.60  52.53
751.2  337962.60  178472.01  52.81
752.5  338877.85  179814.37  53.06
753.8  339522.58  180922.26  53.29
755.1  340262.00  181975.73  53.48
756.4  340895.90  182919.41  53.66
757.7  341921.48  184006.06  53.82
759.0  343809.75  185505.16  53.96
760.3  344995.20  186605.76  54.09
761.6  346624.60  187891.76  54.21
762.9  347188.25  188555.40  54.31
764.2  347601.80  189092.65  54.40
765.5  347892.83  189535.33  54.48
766.8  348323.20  190048.21  54.56
768.1  348884.20  190590.75  54.63
769.3  349496.00  191142.61  54.69
770.6  350185.55  191710.91  54.75
771.9  350947.80  192318.79  54.80
773.2  351364.80  192707.25  54.85
774.5  351980.20  193210.16  54.89
775.8  352720.10  193745.06  54.93
777.1  353268.85  194216.73  54.98
778.4  353629.65  194538.48  55.01
779.6  354440.90  195106.97  55.05
780.9  354930.00  195492.00  55.08
782.2  355407.25  195874.80  55.11
783.5  355752.00  196167.87  55.14
784.8  356275.35  196573.08  55.17
786.0  356729.80  196901.23  55.20
787.3  357146.83  197218.15  55.22
788.6  357617.53  197561.11  55.24
789.9  358096.20  197914.08  55.27
791.2  358748.48  198373.06  55.30
792.4  359460.48  198848.04  55.32
793.7  359951.80  199202.05  55.34
795.0  360608.33  199639.66  55.36
796.2  361313.33  200097.60  55.38
797.5  362042.85  200571.60  55.40
798.8  362747.05  201040.82  55.42
800.0  363421.23  201501.91  55.45
801.3  363924.10  201856.76  55.47
802.6  364549.50  202269.96  55.48
803.8  365244.38  202712.80  55.50
805.1  365790.25  203064.63  55.51
806.4  366255.30  203398.12  55.53
807.7  366820.65  203789.25  55.56
808.9  367415.35  204170.71  55.57
810.2  367933.65  204557.87  55.60
811.4  368519.00  204911.00  55.60
812.7  369159.38  205345.83  55.63
814.0  370020.80  205876.19  55.64
815.2  370698.25  206311.80  55.65
816.5  371132.23  206628.93  55.68
817.7  371638.05  206982.64  55.69
819.0  372149.25  207337.61  55.71
820.2  372328.00  207504.00  55.73
821.5  373095.40  207979.70  55.74
822.7  373473.48  208252.93  55.76
824.0  373855.50  208508.40  55.77
825.2  374323.28  208879.56  55.80
826.5  374701.65  209125.69  55.81
827.7  375267.35  209504.26  55.83
829.0  375669.75  209796.86  55.85
830.2  375968.35  210037.23  55.87
831.5  376526.20  210382.59  55.87
832.7  376845.00  210639.38  55.90
834.0  377230.43  210893.17  55.91
835.2  377602.23  211164.51  55.92
836.4  377931.40  211415.38  55.94
837.7  378261.80  211734.11  55.98
838.9  378750.78  212060.78  55.99
840.1  379177.20  212364.63  56.01
841.4  379636.80  212684.61  56.02
842.6  379977.20  212981.44  56.05
843.8  380431.20  213272.75  56.06
845.1  380967.65  213660.00  56.08
846.3  381394.60  213947.99  56.10
847.5  381843.00  214246.20  56.11
848.8  382233.00  214536.64  56.13
850.0  382603.55  214822.67  56.15
851.2  383174.55  215205.48  56.16
852.5  383613.80  215499.31  56.18
853.7  384192.00  215847.00  56.18
854.9  384635.90  216191.07  56.21
856.1  385163.35  216498.45  56.21
857.4  385381.65  216660.18  56.22
858.6  385881.65  216998.07  56.23
859.8  386280.00  217301.00  56.25
861.0  386872.20  217620.00  56.25
862.2  387358.75  217944.38  56.26
863.5  387711.35  218194.77  56.28
864.7  388264.80  218564.72  56.29
865.9  388799.80  218839.65  56.29
867.1  389139.20  219058.87  56.29
868.3  389669.10  219370.38  56.30
869.5  390202.70  219707.77  56.31
870.8  390762.00  220024.20  56.31
872.0  391341.83  220365.94  56.31
873.2  391765.95  220643.50  56.32
874.4  392268.83  220929.93  56.32
875.6  392732.33  221178.85  56.32
876.8  393249.40  221507.91  56.33
878.0  393797.95  221826.72  56.33
879.2  394240.50  222163.20  56.35
880.4  394877.25  222487.10  56.34
881.6  395388.13  222770.55  56.34
882.8  395814.40  223005.12  56.34
884.0  396513.50  223398.13  56.34
885.2  397105.60  223693.47  56.33
886.5  397781.45  224091.55  56.34
887.7  398270.60  224414.32  56.35
888.8  398963.03  224804.24  56.35
890.0  399568.90  225134.24  56.34
891.2  400192.70  225492.17  56.35
892.4  401005.50  225868.09  56.33
893.6  401683.15  226191.26  56.31
894.8  402534.50  226753.93  56.33
896.0  403451.25  227242.80  56.32
897.2  404309.75  227721.87  56.32
898.4  405005.70  228210.84  56.35
899.6  405735.75  228538.85  56.33
900.8  406202.53  228772.25  56.32
902.0  406516.95  228944.30  56.32
903.2  406968.75  229146.92  56.31
904.3  407259.90  229330.96  56.31
905.5  407866.98  229705.08  56.32
906.7  408486.50  230072.07  56.32
907.9  409012.80  230392.12  56.33
909.1  409529.93  230607.27  56.31
910.2  409750.50  230707.69  56.30
911.4  410023.58  230863.62  56.30
912.6  410231.25  230993.62  56.31
913.8  410462.48  231137.24  56.31
915.0  410960.55  231407.40  56.31
916.2  411303.75  231530.00  56.29
917.3  411376.95  231546.21  56.29
918.5  411636.40  231630.04  56.27
919.7  411883.05  231791.10  56.28
920.8  411978.43  231853.71  56.28
922.0  412200.25  231877.80  56.25
923.2  412503.00  231995.40  56.24
924.4  412772.63  232119.45  56.23
925.5  413183.50  232243.27  56.21
926.7  413741.75  232602.78  56.22
927.9  414712.80  233037.36  56.19
929.0  416287.35  233850.78  56.18
930.2  418628.90  235016.57  56.14
931.4  421215.53  236375.10  56.12
932.5  423937.40  237830.76  56.10
933.7  425397.75  238626.36  56.09
934.9  426055.00  238970.67  56.09
936.0  425740.25  238659.63  56.06
937.2  423552.00  237365.60  56.04
938.3  422053.75  236283.24  55.98
939.5  420462.00  235323.36  55.97
940.7  420639.30  235388.40  55.96
941.8  422247.98  236192.22  55.94
943.0  423747.00  236825.10  55.89
944.2  424843.90  237177.11  55.83
945.3  424222.50  236823.60  55.83
946.5  423526.05  236238.84  55.78
947.6  423735.40  236239.16  55.75
948.8  423556.58  236012.01  55.72
949.9  423817.80  235879.84  55.66
951.1  423709.33  235443.09  55.57
952.2  423708.00  235035.20  55.47
953.4  423204.50  234634.63  55.44
954.5  423306.00  234383.76  55.37
955.7  423045.00  234077.76  55.33
956.8  422943.90  233705.01  55.26
958.0  422622.00  233283.80  55.20
959.1  422557.20  233008.39  55.14
960.3  422234.10  232550.72  55.08
961.4  421955.45  232423.41  55.08
962.6  422199.75  232365.70  55.04
963.7  422204.33  232142.87  54.98
964.9  421973.03  232047.51  54.99
966.0  421767.00  231971.85  55.00
967.2  422111.70  231923.70  54.94
968.3  421677.90  231805.26  54.97
969.5  421319.53  231674.48  54.99
970.6  421538.50  231595.95  54.94
971.8  421590.40  231754.95  54.97
972.9  421503.75  231670.95  54.96
974.0  421714.60  231866.99  54.98
975.2  421289.38  231828.55  55.03
976.3  421266.88  231702.76  55.00
977.5  421286.95  231644.79  54.99
978.6  420905.20  231631.23  55.03
979.7  420902.48  231560.07  55.02
980.9  420713.03  231595.08  55.05
982.0  420436.20  231591.87  55.08
983.2  419980.35  231619.33  55.15
984.3  419813.60  231513.79  55.15
985.4  419466.88  231661.43  55.23
986.6  419447.38  231484.18  55.19
987.7  420032.90  231931.21  55.22
988.9  419844.60  231822.24  55.22
990.0  421338.30  232378.87  55.15
993.1  374572.33  205874.89  54.96
996.9  374701.63  206680.93  55.16
1000.7  375449.32  207728.16  55.33
1004.5  375846.42  208490.06  55.47
1008.4  375450.92  208849.41  55.63
1012.2  375205.58  209291.25  55.78
1016.0  375015.60  209763.07  55.93
1019.8  374861.03  210210.00  56.08
1023.7  374560.13  210508.80  56.20
1027.5  373976.10  210603.27  56.31
1031.3  374039.53  210938.57  56.39
1035.1  373775.79  211045.23  56.46
1038.9  373683.38  211215.36  56.52
1042.7  373504.83  211306.24  56.57
1046.5  373326.33  211399.34  56.63
1050.3  373342.24  211567.96  56.67
1054.2  373009.58  211538.70  56.71
1058.0  372510.66  211370.67  56.74
1061.8  372346.54  211381.26  56.77
1065.6  372022.90  211234.44  56.78
1069.4  371913.27  211248.65  56.80
1073.2  371351.99  210969.61  56.81
1077.0  370748.70  210642.05  56.82
1080.8  370233.33  210337.27  56.81
1084.6  369217.45  209723.81  56.80
1088.4  368653.93  209321.38  56.78
1092.2  367877.25  208767.00  56.75
1096.0  367357.54  208302.49  56.70
1099.8  366797.82  207841.69  56.66
1103.6  366093.78  207273.53  56.62
1107.4  365133.12  206552.84  56.57
1111.2  364864.40  206204.95  56.52
1114.9  364175.58  205588.45  56.45
1118.7  363562.65  204949.80  56.37
1122.5  362861.20  204156.82  56.26
1126.3  361780.24  202976.55  56.10
1130.1  361275.53  201902.11  55.89
1133.9  359673.30  199919.22  55.58
1137.7  358232.30  197712.96  55.19
1141.4  356437.58  195039.55  54.72
1145.2  355652.93  192776.54  54.20
1149.0  354496.04  190400.00  53.71
1152.8  352832.60  188020.27  53.29
1156.6  351168.77  186012.32  52.97
1160.3  349475.33  184311.48  52.74
1164.1  347094.03  182541.62  52.59
1167.9  345311.46  181306.02  52.51
1171.7  343980.00  180453.00  52.46
1175.4  342735.93  179712.84  52.43
1179.2  341630.20  179019.06  52.40
1183.0  341273.33  178699.11  52.36
1186.7  340750.43  178294.92  52.32
1190.5  339809.67  177643.58  52.28
1194.3  338659.10  176936.95  52.25
1198.0  337399.15  176254.65  52.24
1201.8  335870.28  175534.82  52.26
1205.6  334642.67  175073.48  52.32
1209.3  333728.63  174871.05  52.40
1213.1  332841.30  174714.95  52.49
1216.8  332004.20  174608.68  52.59
1220.6  330956.27  174451.20  52.71
1224.3  329768.33  174193.91  52.82
1228.1  328519.60  173949.02  52.95
1231.9  327249.03  173634.84  53.06
1235.6  325766.63  173160.72  53.15
1239.4  324373.00  172719.97  53.25
1243.1  323086.41  172289.05  53.33
1246.9  321846.97  171834.44  53.39
1250.6  320845.27  171450.64  53.44
1254.3  319741.49  170980.13  53.47
1258.1  318685.50  170521.50  53.51
1261.8  317351.87  169884.68  53.53
1265.6  315898.40  169148.91  53.55
1269.3  314517.28  168347.33  53.53
1273.1  314512.01  168242.42  53.49
1276.8  314699.60  168209.33  53.45
1280.6  314403.67  167889.27  53.40
1284.3  312895.60  166875.47  53.33
1288.0  311385.23  165776.89  53.24
1291.8  310183.35  164741.03  53.11
1295.5  308904.93  163599.17  52.96
1299.2  307683.08  162406.41  52.78
1302.9  306219.89  161005.16  52.58
1306.7  304654.23  159445.82  52.34
1310.4  303128.14  157781.33  52.05
1314.1  301746.50  156062.13  51.72
1317.9  300486.25  154283.47  51.34
1321.6  299032.77  152271.14  50.92
1325.3  297374.70  150023.77  50.45
1329.0  296022.88  147840.78  49.94
1332.8  293955.20  145177.51  49.39
1336.5  292142.93  142594.06  48.81
1340.2  291776.33  140716.33  48.23
1343.9  291315.63  138798.01  47.65
1347.6  290660.85  136818.33  47.07
1351.4  290857.50  135256.44  46.50
1355.1  291163.03  133764.40  45.94
1358.8  291328.00  132117.33  45.35
1362.5  290842.68  130021.84  44.71
1366.2  289181.90  127104.09  43.95
1369.9  287305.75  123722.69  43.06
1373.6  285198.14  119679.62  41.96
1377.3  283338.00  114935.80  40.56
1381.0  282156.83  109462.70  38.79
1384.8  280215.00  102606.11  36.62
1388.4  277838.28  95012.04  34.20
1392.2  275957.83  87182.39  31.59
1395.9  274380.05  79416.34  28.94
1399.6  272777.86  72098.84  26.43
1403.3  271610.63  65715.75  24.19
1407.0  270495.30  60308.93  22.30
1410.7  269312.18  55928.40  20.77
1414.3  268110.97  52523.05  19.59
1418.1  266916.04  49993.56  18.73
1421.7  265993.82  48169.43  18.11
1425.4  265021.25  46880.67  17.69
1429.1  264096.38  46012.25  17.42
1432.8  262604.23  45368.98  17.28
1436.5  261782.97  45076.87  17.22
1440.2  261006.30  44973.83  17.23
1443.9  259764.27  44925.83  17.29
1447.6  258211.80  44906.40  17.39
1451.2  257131.23  45024.43  17.51
1454.9  255838.05  45173.93  17.66
1458.6  254747.33  45459.45  17.84
1462.3  253582.27  45901.78  18.10
1466.0  252234.09  46514.00  18.44
1469.7  250542.18  47259.17  18.86
1473.3  249511.50  48303.92  19.36
1477.0  247622.23  49310.82  19.91
1480.7  246067.90  50459.09  20.51
1484.4  244166.23  51572.90  21.12
1488.0  242630.67  52793.48  21.76
1491.7  241025.15  53998.89  22.40
1495.4  239324.44  55182.55  23.06
1499.0  237756.50  56372.78  23.71
1502.7  236462.17  57615.41  24.37
1506.4  235074.63  58798.97  25.01
1510.0  233673.83  59947.31  25.65
1513.7  232211.00  61041.30  26.29
1517.4  230895.67  62120.66  26.90
1521.0  229693.33  63191.82  27.51
1524.7  228473.92  64201.22  28.10
1528.3  227200.63  65144.50  28.67
1532.0  225979.60  66050.32  29.23
1535.7  224590.56  66845.28  29.76
1539.3  223319.39  67635.93  30.29
1543.0  222354.28  68457.17  30.79
1546.6  221657.58  69324.43  31.28
1550.3  220683.35  70050.18  31.74
1553.9  219607.63  70693.70  32.19
1557.6  218335.33  71221.01  32.62
1561.2  217089.90  71687.50  33.02
1564.9  215788.11  72100.29  33.41
1568.5  214483.62  72464.83  33.79
1572.2  213335.20  72850.81  34.15
1575.8  212268.00  73229.33  34.50
1579.5  211254.05  73595.82  34.84
1583.1  210252.28  73933.61  35.16
1586.8  209020.00  74159.56  35.48
1590.4  207945.93  74404.73  35.78
1594.0  206616.48  74544.09  36.08
1597.7  205496.47  74739.91  36.37
1601.3  204261.75  74847.15  36.64
1604.9  203046.83  74923.83  36.90
1608.6  201765.52  74928.91  37.14
1612.2  200711.78  74983.88  37.36
1615.8  199563.00  74971.22  37.57
1619.5  198423.83  74939.70  37.77
1623.1  197097.60  74808.57  37.96
1626.7  195845.65  74682.40  38.13
1630.3  194652.42  74537.67  38.29
1634.0  193452.00  74368.00  38.44
1637.6  192319.47  74190.73  38.58
1641.2  191136.20  73956.08  38.69
1644.8  189813.52  73623.55  38.79
1648.5  188687.42  73326.77  38.86
1652.1  187699.20  73012.93  38.90
1655.7  186786.80  72669.29  38.90
1659.3  185927.23  72320.77  38.90
1662.9  184535.00  71724.26  38.87
1666.6  183148.00  71105.44  38.82
1670.2  181802.37  70444.75  38.75
1673.8  180422.54  69725.14  38.65
1677.4  179320.15  69057.31  38.51
1681.0  178541.38  68442.03  38.33
1684.6  178126.00  67884.80  38.11
1688.2  177426.85  67121.31  37.83
1691.8  176799.12  66365.27  37.54
1695.4  176378.20  65686.05  37.24
1699.0  176037.87  65058.98  36.96
1702.6  175741.00  64407.63  36.65
1706.2  175162.11  63591.98  36.30
1709.8  174282.03  62664.00  35.96
1713.4  173576.22  61893.89  35.66
1717.0  172737.25  61189.56  35.42
1720.6  171921.90  60607.05  35.25
1724.2  171219.60  60098.00  35.10
1727.8  170486.40  59624.76  34.97
1731.4  169989.88  59253.03  34.86
1735.0  169757.13  58969.65  34.74
1738.6  169517.40  58613.87  34.58
1742.2  168963.29  58066.64  34.37
1745.8  168358.82  57415.45  34.10
1749.4  167424.68  56614.62  33.81
1753.0  165927.07  55626.59  33.52
1756.6  164291.17  54612.57  33.24
1760.1  162961.57  53758.78  32.99
1763.7  161276.00  52821.63  32.75
1767.3  159838.28  52013.16  32.54
1770.9  158607.28  51284.40  32.33
1774.5  157161.60  50521.04  32.15
1778.0  156018.42  49902.94  31.99
1781.6  154923.90  49385.63  31.88
1785.2  153780.88  48928.08  31.82
1788.8  152615.70  48524.69  31.80
1792.3  151404.10  48117.02  31.78
1795.9  150888.83  47972.53  31.79
1799.5  150384.33  47832.07  31.81
1803.1  149891.00  47680.99  31.81
1806.6  150591.29  47860.06  31.78
1810.2  151898.13  48216.21  31.74
1813.8  152844.00  48472.87  31.71
1817.3  152800.20  48430.58  31.70
1820.9  151917.23  48123.59  31.68
1824.5  150637.08  47659.83  31.64
1828.0  149650.88  47247.44  31.57
1831.6  148784.00  46826.24  31.47
1835.2  148055.83  46356.48  31.31
1838.7  147644.13  45883.35  31.08
1842.3  147300.00  45310.00  30.76
1845.8  146524.75  44454.57  30.34
1849.4  145991.15  43488.19  29.79
1852.9  145326.01  42257.43  29.08
1856.5  144469.80  40699.96  28.17
1860.0  143702.44  38864.04  27.04
1863.6  143401.24  36859.44  25.70
1867.1  143185.35  34536.29  24.12
1870.7  143152.90  31791.78  22.21
1874.2  142452.45  28495.00  20.00
1877.8  141196.13  25016.18  17.72
1881.3  139650.25  21518.08  15.41
1884.9  138544.36  18340.20  13.24
1888.4  137427.00  15443.79  11.24
1891.9  136225.47  13032.22  9.57
1895.5  134965.83  11155.16  8.27
1899.0  134150.88  9844.97  7.34
1901.3  169257.00  7854.56  4.64
1904.1  169054.50  7084.25  4.19
1906.8  168184.80  6476.60  3.85
1909.6  166321.05  5988.85  3.60
1912.4  164540.13  5637.68  3.43
1915.1  163166.30  5399.53  3.31
1917.9  161665.33  5223.11  3.23
1920.6  160392.80  5101.91  3.18
1923.3  159172.53  5030.74  3.16
1926.1  157659.20  4965.76  3.15
1928.8  156214.67  4928.00  3.15
1931.6  155023.00  4927.94  3.18
1934.3  153891.45  4950.98  3.22
1937.0  152794.33  4987.12  3.26
1939.8  151637.42  5034.89  3.32
1942.5  150216.00  5100.33  3.40
1945.2  148463.15  5162.30  3.48
1947.9  147058.57  5254.12  3.57
1950.7  145953.07  5368.41  3.68
1953.4  144243.20  5472.15  3.79
1956.1  142916.75  5587.22  3.91
1958.8  141743.77  5723.54  4.04
1961.5  140309.20  5866.53  4.18
1964.2  138820.50  6018.13  4.34
1966.9  137297.55  6172.10  4.50
1969.6  136107.00  6351.00  4.67
1972.3  134763.80  6532.60  4.85
1975.0  133723.50  6734.85  5.04
1977.7  132629.12  6941.65  5.23
1980.4  131500.00  7159.44  5.44
1983.1  130427.48  7380.11  5.66
1985.8  129525.60  7624.10  5.89
1988.4  128518.00  7852.00  6.11
1991.1  127609.30  8086.56  6.34
1993.8  126751.17  8329.45  6.57
1996.5  126113.53  8596.56  6.82
1999.1  125441.43  8860.81  7.06
2001.8  124777.57  9128.31  7.32
2004.5  124118.85  9385.25  7.56
2007.1  123400.90  9641.87  7.81
2009.8  122671.03  9896.68  8.07
2012.4  122098.17  10159.05  8.32
2015.1  121565.97  10411.80  8.56
2017.8  120797.60  10644.90  8.81
2020.4  120314.52  10902.95  9.06
2023.1  119960.17  11148.51  9.29
2025.7  119738.67  11405.33  9.53
2028.3  119418.00  11650.89  9.76
2031.0  119022.45  11878.80  9.98
2033.6  118755.00  12098.80  10.19
2036.2  118511.40  12313.40  10.39
2038.9  117928.50  12481.60  10.58
2041.5  117579.12  12674.03  10.78
2044.1  117041.10  12826.70  10.96
2046.8  116675.70  13000.70  11.14
2049.4  116058.00  13137.00  11.32
2052.0  115786.53  13300.87  11.49
2054.6  115403.75  13463.33  11.67
2057.2  114834.60  13603.62  11.85
2059.8  114502.73  13784.11  12.04
2062.4  113656.62  13888.55  12.22
2065.0  113140.33  14040.29  12.41
2067.6  112261.95  14144.25  12.60
2070.2  111669.22  14274.99  12.78
2072.8  111050.33  14405.74  12.97
2075.4  110626.25  14554.17  13.16
2078.0  110011.25  14682.81  13.35
2080.6  109454.40  14810.40  13.53
2083.2  108768.03  14915.02  13.71
2085.8  108280.93  15040.00  13.89
2088.4  107625.33  15140.33  14.07
2090.9  106840.37  15223.44  14.25
2093.5  105980.23  15286.15  14.42
2096.1  105224.33  15364.98  14.60
2098.7  104451.40  15438.17  14.78
2101.2  103507.47  15472.56  14.95
2103.8  102843.73  15539.51  15.11
2106.4  102197.47  15615.20  15.28
2108.9  101559.93  15679.25  15.44
2111.5  100730.27  15717.09  15.60
2114.0  100110.20  15781.13  15.76
2116.6  99592.50  15857.92  15.92
2119.1  99045.80  15914.42  16.07
2121.7  98560.00  15983.33  16.22
2124.2  98169.13  16060.53  16.36
2126.8  97372.03  16067.64  16.50
2129.3  96993.60  16127.47  16.63
2131.9  96421.60  16142.13  16.74
2134.4  95987.10  16177.80  16.85
2136.9  95602.43  16218.01  16.96
2139.4  95077.27  16217.13  17.06
2142.0  94642.80  16223.04  17.14
2144.5  94393.40  16260.30  17.23
2147.0  94166.27  16300.36  17.31
2149.5  93674.93  16285.47  17.39
2152.1  93507.52  16319.72  17.45
2154.6  93441.07  16365.33  17.51
2157.1  92931.58  16325.78  17.57
2159.6  92541.00  16307.61  17.62
2162.1  92374.10  16325.40  17.67
2164.6  92127.93  16327.36  17.72
2167.1  91824.15  16315.72  17.77
2169.6  91503.07  16301.21  17.81
2172.1  91049.90  16278.37  17.88
2174.6  90729.93  16269.18  17.93
2177.1  90298.98  16245.83  17.99
2179.5  89887.20  16226.53  18.05
2182.0  89414.05  16200.43  18.12
2184.5  88888.32  16167.48  18.19
2187.0  88296.00  16115.28  18.25
2189.5  87635.48  16052.12  18.32
2191.9  86868.00  15972.67  18.39
2194.4  86255.60  15907.12  18.44
2196.9  85507.20  15827.20  18.51
2199.3  84854.00  15750.22  18.56
2201.8  83979.20  15628.49  18.61
2204.3  83530.02  15569.23  18.64
2206.7  82907.45  15484.20  18.68
2209.2  82446.77  15421.29  18.70
2211.6  81843.30  15328.50  18.73
2214.1  81550.20  15279.88  18.74
2216.5  80976.53  15184.76  18.75
2219.0  80638.80  15128.47  18.76
2221.4  80265.50  15046.89  18.75
2223.9  79809.33  14931.19  18.71
2226.3  79313.50  14795.67  18.65
2228.7  78750.40  14643.81  18.60
2231.1  78150.60  14463.90  18.51
2233.6  77589.27  14284.13  18.41
2236.0  77042.58  14084.97  18.28
2238.4  76556.67  13889.95  18.14
2240.9  76109.20  13684.82  17.98
2243.3  75582.73  13453.05  17.80
2245.7  75032.95  13203.65  17.60
2248.1  74560.63  12966.63  17.39
2250.5  74056.37  12722.10  17.18
2252.9  73424.43  12448.37  16.95
2255.3  72883.75  12178.80  16.71
2257.7  72430.00  11930.00  16.47
2260.1  71949.03  11675.46  16.23
2262.5  71340.00  11410.00  15.99
2264.9  70811.78  11164.70  15.77
2267.3  70210.00  10920.00  15.55
2269.7  69721.63  10695.53  15.34
2272.1  69195.13  10480.77  15.15
2274.5  68635.42  10272.85  14.97
2276.8  68173.43  10080.10  14.79
2279.2  67586.25  9875.80  14.61
2281.6  67174.87  9700.91  14.44
2284.0  66740.80  9510.83  14.25
2286.3  66261.87  9339.55  14.09
2288.7  65855.62  9161.61  13.91
2291.1  65309.13  8974.64  13.74
2293.4  64885.33  8798.53  13.56
2295.8  64292.60  8603.93  13.38
2298.2  63704.25  8407.65  13.20
2300.5  63031.50  8211.00  13.03
2302.9  62289.33  8025.56  12.88
2305.2  61583.70  7845.17  12.74
2307.6  60909.60  7689.36  12.62
2309.9  60150.33  7533.00  12.52
2312.2  59551.00  7419.33  12.46
2314.6  58963.95  7307.10  12.39
2316.9  58260.15  7176.00  12.32
2319.2  57700.87  7052.79  12.22
2321.6  57066.80  6915.30  12.12
2323.9  56520.83  6791.67  12.02
2326.2  55985.27  6677.33  11.93
2328.6  55447.70  6566.08  11.84
2330.9  54946.50  6440.00  11.72
2333.2  54472.42  6321.78  11.61
2335.5  54045.70  6213.13  11.50
2337.8  53593.17  6103.37  11.39
2340.1  53032.43  5970.37  11.26
2342.4  52595.83  5860.83  11.14
2344.8  52170.75  5753.08  11.03
2347.1  51609.13  5636.87  10.92
2349.4  51062.25  5512.01  10.79
2351.6  50478.37  5405.51  10.71
2353.9  50014.10  5303.35  10.60
2356.2  49480.28  5202.60  10.51
2358.5  48899.20  5099.73  10.43
2360.8  48316.80  4991.47  10.33
2363.1  47872.73  4905.42  10.25
2365.4  47414.80  4817.57  10.16
2367.7  46945.20  4723.40  10.06
2369.9  46418.30  4625.80  9.97
2372.2  45820.80  4529.33  9.88
2374.5  45229.80  4419.80  9.77
2376.7  44596.38  4317.53  9.68
2379.0  43974.00  4207.39  9.57
2381.3  43365.00  4102.78  9.46
2383.5  42861.87  4001.06  9.33
2385.8  42254.10  3894.77  9.22
2388.0  41724.80  3787.80  9.08
2390.3  41248.53  3702.40  8.98
2392.5  40764.00  3612.00  8.86
2394.8  40280.90  3525.13  8.75
2397.0  39809.47  3433.73  8.63
2399.3  39339.98  3338.23  8.49
2401.5  38906.00  3266.67  8.40
2403.8  38366.42  3177.70  8.28
2406.0  37883.25  3087.61  8.15
2408.2  37487.27  3004.46  8.01
2410.4  37063.02  2929.42  7.90
2412.7  36644.40  2852.63  7.78
2414.9  36280.20  2783.00  7.67
2417.1  35890.20  2713.57  7.56
2419.3  35468.80  2641.07  7.45
2421.6  35094.58  2566.11  7.31
2423.8  34724.73  2502.56  7.21
2426.0  34353.90  2440.87  7.11
2428.2  33986.40  2378.13  7.00
2430.4  33665.60  2320.24  6.89
2432.6  33413.33  2248.89  6.73
2434.8  33122.60  2192.13  6.62
2437.0  32750.47  2131.42  6.51
2439.2  32385.93  2072.56  6.40
2441.4  32065.60  2013.19  6.28
2443.6  31833.60  1961.97  6.16
2445.7  31556.82  1906.65  6.04
2447.9  31284.67  1855.56  5.93
2450.1  30966.20  1812.45  5.85
2452.3  30619.05  1759.88  5.75
2454.5  30281.42  1697.27  5.60
2456.6  29888.67  1650.18  5.52
2458.8  29529.50  1606.37  5.44
2461.0  29237.00  1566.61  5.36
2463.1  28925.40  1518.05  5.25
2465.3  28652.07  1473.09  5.14
2467.5  28408.50  1440.58  5.07
2469.6  28162.67  1412.11  5.01
2471.8  27855.92  1361.51  4.89
2473.9  27542.17  1342.42  4.87
2476.1  27178.67  1314.44  4.84
2478.2  26841.13  1284.68  4.79
2480.4  26540.15  1248.47  4.70
2482.5  26166.83  1212.86  4.64
2484.6  25837.17  1194.72  4.62
2486.8  25559.60  1172.27  4.59
2488.9  25237.55  1152.18  4.57
2491.1  24863.07  1115.95  4.49
2493.2  24492.87  1085.73  4.43
2495.3  24114.13  1052.86  4.37
2497.4  23779.70  1035.77  4.36
2499.5  23449.65  1019.55  4.35
2501.7  23318.90  996.96  4.28
2503.8  23219.45  975.14  4.20
2505.9  23130.83  973.75  4.21
2508.0  23122.00  975.10  4.22
2510.1  23123.15  965.70  4.18
2512.2  23212.75  960.32  4.14
2514.3  23368.48  961.82  4.12
2516.4  23580.90  971.87  4.12
