/*** Spectra Vista SIG Data ***/
name= 39_20220825_BENI_59_avg.sig
comm= Averaged Ref/Tar of files: HR.082522.0035_moc.sig,HR.082522.0036_moc.sig,HR.082522.0037_moc.sig
data=
337.3  3275.25  295.86  9.03
338.8  3415.10  269.36  7.89
340.3  3607.45  262.36  7.27
341.8  3795.18  268.25  7.07
343.2  3996.00  278.24  6.96
344.7  4179.70  265.65  6.36
346.2  4330.10  267.66  6.18
347.7  4522.38  257.67  5.70
349.2  4725.00  252.72  5.35
350.6  4994.60  258.82  5.18
352.1  5323.03  264.71  4.97
353.6  5552.00  260.42  4.69
355.1  5859.45  257.21  4.39
356.6  6161.70  269.69  4.38
358.0  6443.80  267.96  4.16
359.5  6736.20  269.57  4.00
361.0  7062.30  278.73  3.95
362.5  7435.85  280.48  3.77
364.0  7799.60  284.02  3.64
365.4  8177.10  297.59  3.64
366.9  8563.75  316.24  3.69
368.4  8918.93  322.10  3.61
369.9  9323.63  332.54  3.57
371.3  9718.80  343.29  3.53
372.8  10142.10  354.51  3.50
374.3  10588.75  363.96  3.44
375.8  11022.55  368.57  3.34
377.2  11459.40  377.62  3.30
378.7  11889.80  390.95  3.29
380.2  12293.30  391.97  3.19
381.7  12836.88  401.00  3.12
383.1  13340.25  402.45  3.02
384.6  13865.15  411.56  2.97
386.1  14350.28  422.10  2.94
387.6  14822.50  436.85  2.95
389.0  15302.80  447.69  2.93
390.5  15823.80  455.65  2.88
392.0  16399.00  458.47  2.80
393.4  16999.93  474.45  2.79
394.9  17539.20  485.71  2.77
396.4  18112.50  496.80  2.74
397.9  18655.00  510.55  2.74
399.3  19221.68  526.28  2.74
400.8  19815.38  532.68  2.69
402.2  20474.70  550.39  2.69
403.7  21113.78  560.37  2.65
405.2  21733.65  579.02  2.66
406.6  22341.60  592.59  2.65
408.1  22939.00  603.96  2.63
409.6  23552.35  618.36  2.63
411.0  24253.60  635.62  2.62
412.5  24948.35  659.66  2.64
414.0  25611.38  672.18  2.62
415.4  26314.50  696.19  2.65
416.9  27023.55  716.30  2.65
418.4  27732.38  731.35  2.64
419.8  28483.00  747.41  2.62
421.3  29233.00  774.11  2.65
422.7  30032.40  796.75  2.65
424.2  30830.63  817.07  2.65
425.7  31605.70  835.18  2.64
427.1  32393.78  861.78  2.66
428.6  33216.50  880.70  2.65
430.0  33992.00  900.09  2.65
431.5  34894.65  923.93  2.65
432.9  35789.95  946.81  2.65
434.4  36714.98  970.01  2.64
435.9  37562.00  997.60  2.66
437.3  38445.00  1022.21  2.66
438.8  39326.78  1047.47  2.66
440.2  40209.40  1071.58  2.67
441.7  41218.40  1099.06  2.67
443.1  42135.00  1128.40  2.68
444.6  43138.30  1160.29  2.69
446.0  44115.00  1189.99  2.70
447.5  45108.25  1223.57  2.71
448.9  46091.70  1258.79  2.73
450.4  47125.05  1288.34  2.73
451.8  48022.00  1318.32  2.75
453.3  48992.03  1346.10  2.75
454.7  50038.65  1379.23  2.76
456.2  50942.70  1409.66  2.77
457.6  51945.08  1441.03  2.77
459.1  52966.88  1473.62  2.78
460.5  53941.38  1501.06  2.78
462.0  55046.75  1533.35  2.79
463.4  56128.90  1570.67  2.80
464.8  57151.13  1602.10  2.80
466.3  58175.70  1637.85  2.82
467.7  59185.38  1673.18  2.83
469.2  60297.30  1709.64  2.84
470.6  61300.15  1746.21  2.85
472.0  62380.40  1783.91  2.86
473.5  63449.50  1826.30  2.88
474.9  64524.00  1865.26  2.89
476.4  65721.60  1910.40  2.91
477.8  66830.50  1950.18  2.92
479.2  67874.50  1994.37  2.94
480.7  69031.28  2043.04  2.96
482.1  70227.00  2095.94  2.98
483.6  71484.15  2150.71  3.01
485.0  72621.08  2205.16  3.04
486.4  73870.35  2265.64  3.07
487.9  75011.63  2335.82  3.11
489.3  76216.60  2407.61  3.16
490.7  77350.43  2488.10  3.22
492.2  78630.30  2581.60  3.28
493.6  79798.55  2675.79  3.35
495.0  80964.00  2787.11  3.44
496.5  82209.35  2915.15  3.55
497.9  83354.00  3058.27  3.67
499.3  84572.03  3225.43  3.81
500.7  85892.95  3416.38  3.98
502.2  87089.00  3631.09  4.17
503.6  88403.00  3880.82  4.39
505.0  89540.80  4161.44  4.65
506.5  90910.58  4498.92  4.95
507.9  92152.20  4876.72  5.29
509.3  93565.60  5307.98  5.67
510.7  94843.13  5775.06  6.09
512.2  96302.18  6297.59  6.54
513.6  97852.65  6866.13  7.02
515.0  99347.40  7476.39  7.53
516.4  100784.25  8105.67  8.04
517.8  102462.75  8778.75  8.57
519.3  103831.28  9429.71  9.08
520.7  105459.30  10093.25  9.57
522.1  106796.95  10718.43  10.04
523.5  108197.60  11316.72  10.46
524.9  109633.05  11879.55  10.84
526.3  111054.65  12399.22  11.16
527.8  112652.10  12903.94  11.45
529.2  113940.30  13354.66  11.72
530.6  115527.75  13809.25  11.95
532.0  117306.00  14244.27  12.14
533.4  118672.65  14596.87  12.30
534.8  119620.13  14874.47  12.43
536.3  121337.40  15234.29  12.56
537.7  123391.80  15633.12  12.67
539.1  124889.23  15960.05  12.78
540.5  126139.40  16259.24  12.89
541.9  127982.48  16636.62  13.00
543.3  129304.33  16947.12  13.11
544.7  130712.40  17270.89  13.21
546.1  132571.45  17649.78  13.31
547.5  133828.80  17938.35  13.40
549.0  135652.00  18284.30  13.48
550.4  137158.13  18572.90  13.54
551.8  138751.08  18831.33  13.57
553.2  140323.10  19049.34  13.58
554.6  141710.40  19193.45  13.54
556.0  143275.05  19308.57  13.48
557.4  144932.03  19375.21  13.37
558.8  146618.10  19389.20  13.22
560.2  148113.50  19312.72  13.04
561.6  149838.53  19203.45  12.82
563.0  151478.98  19023.60  12.56
564.4  153112.15  18792.46  12.27
565.8  154678.75  18510.57  11.97
567.2  156487.75  18232.82  11.65
568.6  158024.63  17908.33  11.33
570.0  159510.65  17583.00  11.02
571.4  161274.75  17290.41  10.72
572.8  163092.50  17029.30  10.44
574.2  164774.40  16779.31  10.18
575.6  166365.00  16555.50  9.95
577.0  167940.60  16366.70  9.75
578.4  169715.00  16233.53  9.57
579.8  171275.85  16109.81  9.41
581.2  173034.68  16037.44  9.27
582.5  174505.50  15963.48  9.15
583.9  176079.60  15926.18  9.04
585.3  177921.00  15942.02  8.96
586.7  179449.08  15950.88  8.89
588.1  180989.88  15983.06  8.83
589.5  182684.25  16041.90  8.78
590.9  184363.20  16103.47  8.73
592.3  186216.90  16182.33  8.69
593.7  187716.75  16223.03  8.64
595.0  189386.78  16255.26  8.58
596.4  190870.05  16241.27  8.51
597.8  192411.70  16188.84  8.41
599.2  193987.20  16096.71  8.30
600.6  195810.88  15976.29  8.16
602.0  197159.55  15777.83  8.00
603.3  199008.85  15587.15  7.83
604.7  200721.65  15358.46  7.65
606.1  202252.80  15097.73  7.46
607.5  203945.55  14837.42  7.28
608.9  205677.95  14584.44  7.09
610.2  207125.10  14323.23  6.92
611.6  208772.55  14093.62  6.75
613.0  210377.55  13885.21  6.60
614.4  211804.35  13694.18  6.47
615.8  213291.00  13541.64  6.35
617.1  214884.60  13429.64  6.25
618.5  216568.40  13361.16  6.17
619.9  218158.73  13324.47  6.11
621.3  219853.80  13324.00  6.06
622.6  221521.50  13362.78  6.03
624.0  223036.20  13416.78  6.02
625.4  224575.73  13500.50  6.01
626.8  226230.55  13609.66  6.02
628.1  227604.30  13715.22  6.03
629.5  229532.25  13852.99  6.04
630.9  231159.50  13961.27  6.04
632.2  232557.50  14015.21  6.03
633.6  234218.63  14043.48  6.00
635.0  235794.80  14002.77  5.94
636.3  237390.60  13882.84  5.85
637.7  238836.75  13668.00  5.72
639.1  240572.50  13395.67  5.57
640.4  242112.15  13049.54  5.39
641.8  243400.38  12643.19  5.19
643.2  245031.85  12246.01  5.00
644.5  246448.00  11834.00  4.80
645.9  248226.30  11461.49  4.62
647.2  250035.10  11137.62  4.45
648.6  251970.75  10862.87  4.31
650.0  253540.80  10600.05  4.18
651.3  254110.73  10322.55  4.06
652.7  255278.75  10081.41  3.95
654.0  257441.80  9887.57  3.84
655.4  258997.30  9684.80  3.74
656.8  259347.50  9466.55  3.65
658.1  260505.20  9302.68  3.57
659.5  262931.03  9202.43  3.50
660.8  264757.50  9116.57  3.44
662.2  265664.00  9048.75  3.41
663.5  267394.80  9039.73  3.38
664.9  268780.20  9071.10  3.37
666.2  269641.20  9135.41  3.39
667.6  271516.65  9270.19  3.41
668.9  272710.18  9435.19  3.46
670.3  273847.63  9624.66  3.51
671.6  275544.75  9884.19  3.59
673.0  276783.75  10180.45  3.68
674.3  278106.40  10519.18  3.78
675.7  279491.58  10914.30  3.91
677.0  280708.63  11370.77  4.05
678.4  282140.25  11931.68  4.23
679.7  283307.58  12600.40  4.45
681.1  284701.28  13431.27  4.72
682.4  285907.70  14450.45  5.05
683.8  287211.60  15737.30  5.48
685.1  288266.63  17312.29  6.01
686.4  289643.40  19286.09  6.66
687.8  290985.50  21685.91  7.45
689.1  292098.00  24558.49  8.41
690.5  293589.60  27994.55  9.54
691.8  294467.45  31974.86  10.86
693.1  295854.30  36563.57  12.36
694.5  297092.25  41524.60  13.98
695.8  298366.25  46764.90  15.67
697.1  299640.25  52185.03  17.42
698.5  300775.00  57718.53  19.19
699.8  301962.98  63284.85  20.96
701.1  303164.75  68817.11  22.70
702.5  304019.10  74134.52  24.38
703.8  305077.50  79284.00  25.99
705.1  306303.08  84250.51  27.51
706.5  307454.88  88925.07  28.92
707.8  308519.40  93335.73  30.25
709.1  309491.48  97433.53  31.48
710.5  310719.35  101356.35  32.62
711.8  311664.80  104928.93  33.67
713.1  312757.50  108350.39  34.64
714.4  313761.00  111506.80  35.54
715.8  314653.00  114444.45  36.37
717.1  316073.70  117379.22  37.14
718.4  317094.40  119999.57  37.84
719.7  318313.43  122512.30  38.49
721.0  318915.00  124658.57  39.09
722.4  319759.00  126749.90  39.64
723.7  320814.60  128793.08  40.15
725.0  321967.80  130745.80  40.61
726.3  323019.40  132554.99  41.04
727.6  323612.85  134087.09  41.43
729.0  324595.08  135679.32  41.80
730.3  325458.38  137125.50  42.13
731.6  326438.15  138542.39  42.44
732.9  327362.88  139843.29  42.72
734.2  328278.50  141072.35  42.97
735.5  329420.58  142327.59  43.21
736.8  330306.90  143406.22  43.42
738.1  331254.00  144443.86  43.61
739.5  332309.55  145479.62  43.78
740.8  333080.28  146341.39  43.94
742.1  333867.90  147167.75  44.08
743.4  334650.00  147936.67  44.21
744.7  335708.63  148783.29  44.32
746.0  336698.70  149545.69  44.42
747.3  337363.93  150138.05  44.50
748.6  338200.50  150763.55  44.58
749.9  339040.00  151348.72  44.64
751.2  339793.10  151876.21  44.70
752.5  340708.35  152472.93  44.75
753.8  341373.90  152936.58  44.80
755.1  342186.00  153429.22  44.84
756.4  342895.98  153858.09  44.87
757.7  344033.55  154459.36  44.90
759.0  345986.43  155420.34  44.92
760.3  347318.40  156076.30  44.94
761.6  349045.20  156902.51  44.95
762.9  349676.00  157239.56  44.97
764.2  350130.40  157483.36  44.98
765.5  350514.25  157691.13  44.99
766.8  351070.40  157962.06  44.99
768.1  351679.00  158264.49  45.00
769.3  352399.25  158596.19  45.00
770.6  353176.20  158957.77  45.01
771.9  353990.70  159351.36  45.02
773.2  354517.20  159586.36  45.02
774.5  355212.00  159935.56  45.03
775.8  356037.85  160313.68  45.03
777.1  356708.55  160639.82  45.03
778.4  357131.23  160842.09  45.04
779.6  358037.63  161260.67  45.04
780.9  358590.00  161544.57  45.05
782.2  359158.25  161815.60  45.05
783.5  359625.50  162035.75  45.06
784.8  360282.60  162337.37  45.06
786.0  360779.30  162579.27  45.06
787.3  361270.05  162819.28  45.07
788.6  361818.43  163088.88  45.07
789.9  362378.80  163371.15  45.08
791.2  363146.10  163735.60  45.09
792.4  363978.05  164118.15  45.09
793.7  364527.60  164403.71  45.10
795.0  365276.18  164749.01  45.10
796.2  366070.60  165116.39  45.11
797.5  366939.08  165511.26  45.11
798.8  367713.78  165884.92  45.11
800.0  368487.08  166250.94  45.12
801.3  369086.40  166533.08  45.12
802.6  369794.03  166871.25  45.13
803.8  370523.23  167228.02  45.13
805.1  371133.00  167516.53  45.14
806.4  371703.60  167785.14  45.14
807.7  372322.58  168091.78  45.15
808.9  373024.15  168401.99  45.15
810.2  373628.85  168698.45  45.15
811.4  374213.20  168979.11  45.16
812.7  374968.75  169318.81  45.16
814.0  375905.25  169756.68  45.16
815.2  376626.75  170087.11  45.16
816.5  377093.00  170315.91  45.17
817.7  377637.05  170581.36  45.17
819.0  378188.80  170870.23  45.18
820.2  378444.00  170983.16  45.18
821.5  379257.10  171343.74  45.18
822.7  379676.15  171524.12  45.18
824.0  380052.00  171699.22  45.18
825.2  380564.33  171952.24  45.18
826.5  380941.95  172140.43  45.19
827.7  381606.65  172424.39  45.18
829.0  382004.00  172625.71  45.19
830.2  382396.85  172773.59  45.18
831.5  382895.25  172999.35  45.18
832.7  383210.63  173154.70  45.19
834.0  383540.88  173305.35  45.19
835.2  383957.75  173490.58  45.18
836.4  384280.05  173642.56  45.19
837.7  384711.60  173862.24  45.19
838.9  385139.48  174068.47  45.20
840.1  385564.05  174260.16  45.20
841.4  385952.70  174475.99  45.21
842.6  386393.00  174622.06  45.19
843.8  386642.80  174788.73  45.21
845.1  387199.40  175059.89  45.21
846.3  387584.90  175229.85  45.21
847.5  387993.90  175451.16  45.22
848.8  388413.00  175632.07  45.22
850.0  388743.25  175779.19  45.22
851.2  389265.75  176038.10  45.22
852.5  389593.70  176243.24  45.24
853.7  390064.50  176460.86  45.24
854.9  390518.80  176675.86  45.24
856.1  390988.00  176876.80  45.24
857.4  391146.78  176963.82  45.24
858.6  391648.25  177161.46  45.23
859.8  392038.13  177334.39  45.23
861.0  392418.00  177561.87  45.25
862.2  392902.60  177767.37  45.24
863.5  393170.05  177944.04  45.26
864.7  393709.80  178172.85  45.25
865.9  394158.00  178336.83  45.25
867.1  394403.85  178479.76  45.25
868.3  394758.90  178651.98  45.26
869.5  395271.25  178878.39  45.25
870.8  395887.50  179123.66  45.25
872.0  396367.95  179363.07  45.25
873.2  396767.55  179542.55  45.25
874.4  397165.28  179724.54  45.25
875.6  397518.83  179914.66  45.26
876.8  398007.75  180101.44  45.25
878.0  398533.65  180357.85  45.26
879.2  399116.85  180567.42  45.24
880.4  399560.25  180784.51  45.25
881.6  400124.33  180987.28  45.23
882.8  400522.40  181167.10  45.23
884.0  401015.40  181415.03  45.24
885.2  401578.30  181657.60  45.24
886.5  402223.95  181934.34  45.23
887.7  402771.85  182154.01  45.23
888.8  403435.50  182457.86  45.23
890.0  404006.50  182711.14  45.22
891.2  404690.30  182952.37  45.21
892.4  405281.63  183244.40  45.21
893.6  405826.20  183481.60  45.21
894.8  406835.50  183905.92  45.20
896.0  407818.25  184298.74  45.19
897.2  408642.00  184664.20  45.19
898.4  409404.60  185011.01  45.19
899.6  409994.63  185269.47  45.19
900.8  410524.95  185435.55  45.17
902.0  410688.00  185567.42  45.18
903.2  411092.70  185693.51  45.17
904.3  411443.70  185819.44  45.16
905.5  412002.65  186123.47  45.18
906.7  412686.00  186373.49  45.16
907.9  413273.35  186626.35  45.16
909.1  413850.60  186768.82  45.13
910.2  414013.80  186838.56  45.13
911.4  414340.88  186929.95  45.12
912.6  414485.50  186985.57  45.11
913.8  414775.35  187123.62  45.11
915.0  415333.80  187327.42  45.10
916.2  415613.25  187401.69  45.09
917.3  415745.10  187426.67  45.08
918.5  415929.70  187524.90  45.09
919.7  416224.20  187592.81  45.07
920.8  416368.25  187590.59  45.05
922.0  416512.25  187669.53  45.06
923.2  416871.00  187777.20  45.04
924.4  417200.63  187813.09  45.02
925.5  417532.80  187929.85  45.01
926.7  418297.75  188157.38  44.98
927.9  419195.40  188552.89  44.98
929.0  420701.85  189206.87  44.97
930.2  423131.90  190186.71  44.95
931.4  425659.05  191315.28  44.95
932.5  428633.90  192481.95  44.91
933.7  430018.18  193053.34  44.89
934.9  430911.25  193315.75  44.86
936.0  430335.75  193092.28  44.87
937.2  428350.05  192120.54  44.85
938.3  426733.95  191296.01  44.83
939.5  425368.80  190493.42  44.78
940.7  425624.40  190497.94  44.76
941.8  427335.30  191116.35  44.72
943.0  428766.00  191753.11  44.72
944.2  429775.45  192060.82  44.69
945.3  429409.50  191802.56  44.67
946.5  428780.25  191342.24  44.62
947.6  429075.00  191292.08  44.58
948.8  429183.30  191086.91  44.52
949.9  429345.00  190970.40  44.48
951.1  428922.98  190701.18  44.46
952.2  428808.00  190462.17  44.42
953.4  428593.00  190176.55  44.37
954.5  428781.60  190001.31  44.31
955.7  428828.40  189809.76  44.26
956.8  429045.10  189460.94  44.16
958.0  428381.00  189165.22  44.16
959.1  428426.05  188964.07  44.11
960.3  427983.48  188702.15  44.09
961.4  428053.75  188605.01  44.06
962.6  428433.25  188575.93  44.02
963.7  428337.45  188409.60  43.99
964.9  428499.68  188378.72  43.96
966.0  428196.38  188281.49  43.97
967.2  428187.15  188306.25  43.98
968.3  428190.30  188167.01  43.94
969.5  428029.33  188161.96  43.96
970.6  428467.90  188248.70  43.94
971.8  428477.18  188352.58  43.96
972.9  428684.93  188351.96  43.94
974.0  428884.40  188388.82  43.93
975.2  429135.25  188359.48  43.89
976.3  429154.43  188345.13  43.89
977.5  429228.63  188504.03  43.92
978.6  429707.40  188534.74  43.88
979.7  429821.70  188642.62  43.89
980.9  429731.53  188606.90  43.89
982.0  429555.25  188698.06  43.93
983.2  429177.00  188536.19  43.93
984.3  429058.20  188496.62  43.93
985.4  429302.65  188505.25  43.91
986.6  429273.38  188436.95  43.90
987.7  430468.50  188971.32  43.90
988.9  430185.60  188711.76  43.87
990.0  430070.70  189160.42  43.98
993.1  369772.14  161722.62  43.74
996.9  370958.08  162527.51  43.81
1000.7  372296.40  163438.19  43.90
1004.5  373024.83  164063.15  43.98
1008.4  372853.00  164321.94  44.07
1012.2  373069.96  164660.08  44.14
1016.0  373307.40  165007.11  44.20
1019.8  373729.13  165413.33  44.26
1023.7  374066.89  165707.52  44.30
1027.5  374083.75  165909.16  44.35
1031.3  374657.38  166294.82  44.39
1035.1  374718.23  166464.50  44.42
1038.9  374897.60  166638.34  44.45
1042.7  374866.33  166705.02  44.47
1046.5  374741.67  166729.03  44.49
1050.3  374886.15  166814.12  44.50
1054.2  374648.17  166786.58  44.52
1058.0  374182.20  166594.09  44.52
1061.8  374056.07  166586.57  44.54
1065.6  373915.00  166500.51  44.53
1069.4  374098.73  166559.56  44.52
1073.2  373932.27  166446.80  44.51
1077.0  373571.05  166235.56  44.50
1080.8  373012.50  165895.54  44.47
1084.6  371785.87  165242.00  44.45
1088.4  370985.48  164818.38  44.43
1092.2  370100.25  164313.96  44.40
1096.0  369524.42  163964.34  44.37
1099.8  369125.25  163633.97  44.33
1103.6  368531.23  163237.11  44.29
1107.4  367714.64  162699.52  44.25
1111.2  367523.60  162452.59  44.20
1114.9  366889.83  161973.75  44.15
1118.7  366257.93  161452.03  44.08
1122.5  365521.00  160820.03  44.00
1126.3  364392.76  159953.81  43.90
1130.1  363914.69  159179.45  43.74
1133.9  362341.00  157708.80  43.52
1137.7  360956.50  156145.85  43.26
1141.4  359239.40  154262.64  42.94
1145.2  358584.75  152709.06  42.59
1149.0  357520.63  151083.96  42.26
1152.8  355950.45  149397.27  41.97
1156.6  354314.22  147978.97  41.76
1160.3  352590.00  146792.57  41.63
1164.1  350123.20  145514.24  41.56
1167.9  348330.21  144629.61  41.52
1171.7  347051.25  144034.88  41.50
1175.4  345922.87  143555.95  41.50
1179.2  344956.55  143110.02  41.49
1183.0  344705.00  142933.14  41.47
1186.7  344120.47  142608.63  41.44
1190.5  342950.67  142059.62  41.42
1194.3  341699.50  141503.64  41.41
1198.0  340549.00  141022.63  41.41
1201.8  339113.88  140469.12  41.42
1205.6  337881.00  140045.95  41.45
1209.3  336899.03  139790.11  41.49
1213.1  335854.13  139528.17  41.54
1216.8  334817.08  139321.69  41.61
1220.6  333707.73  139086.93  41.68
1224.3  332439.42  138787.31  41.75
1228.1  331216.20  138521.54  41.82
1231.9  330045.70  138219.34  41.88
1235.6  328628.03  137782.86  41.93
1239.4  327315.75  137399.28  41.98
1243.1  326084.25  136991.64  42.01
1246.9  324884.98  136554.44  42.03
1250.6  323929.80  136198.54  42.05
1254.3  322890.61  135786.07  42.05
1258.1  321926.97  135394.15  42.06
1261.8  320670.53  134860.13  42.06
1265.6  319197.60  134204.29  42.04
1269.3  317648.40  133477.81  42.02
1273.1  317534.73  133322.21  41.99
1276.8  317897.60  133339.03  41.94
1280.6  317971.60  133215.31  41.90
1284.3  316733.20  132528.40  41.84
1288.0  315250.75  131685.11  41.77
1291.8  313805.24  130794.14  41.68
1295.5  312276.80  129847.98  41.58
1299.2  310976.10  128957.50  41.47
1302.9  309560.08  127948.20  41.33
1306.7  308036.87  126833.23  41.17
1310.4  306595.02  125650.56  40.98
1314.1  305246.33  124450.59  40.77
1317.9  304045.00  123198.36  40.52
1321.6  302663.58  121785.08  40.24
1325.3  301043.93  120170.93  39.92
1329.0  299675.60  118609.58  39.58
1332.8  297528.00  116652.80  39.21
1336.5  295684.80  114794.43  38.82
1340.2  295295.00  113479.17  38.43
1343.9  294813.54  112126.70  38.03
1347.6  294090.75  110677.18  37.63
1351.4  294190.00  109578.36  37.25
1355.1  294458.27  108553.50  36.87
1358.8  294432.00  107366.86  36.47
1362.5  293899.75  105863.06  36.02
1366.2  292088.90  103712.99  35.51
1369.9  290306.13  101327.86  34.90
1373.6  288407.23  98540.12  34.17
1377.3  286565.70  95256.90  33.24
1381.0  285293.17  91464.07  32.06
1384.8  283140.00  86624.11  30.59
1388.4  280827.17  81259.27  28.94
1392.2  279013.67  75674.38  27.12
1395.9  277408.78  69985.75  25.23
1399.6  275727.07  64513.65  23.40
1403.3  274541.68  59647.54  21.73
1407.0  273462.60  55465.86  20.28
1410.7  272321.78  52043.24  19.11
1414.3  271163.96  49402.36  18.22
1418.1  270020.25  47474.07  17.58
1421.7  269184.88  46149.93  17.14
1425.4  268320.65  45286.01  16.88
1429.1  267494.25  44789.57  16.74
1432.8  266024.88  44464.05  16.71
1436.5  265232.41  44436.92  16.75
1440.2  264337.57  44551.80  16.85
1443.9  263002.03  44666.90  16.98
1447.6  261353.40  44792.00  17.14
1451.2  260296.30  45021.77  17.30
1454.9  259034.70  45233.57  17.46
1458.6  257992.04  45566.05  17.66
1462.3  256844.50  45991.26  17.91
1466.0  255484.11  46526.78  18.21
1469.7  253792.50  47168.94  18.59
1473.3  252789.67  48055.76  19.01
1477.0  250885.67  48877.67  19.48
1480.7  249296.33  49791.03  19.97
1484.4  247379.91  50629.20  20.47
1488.0  245842.67  51565.91  20.98
1491.7  244206.13  52448.70  21.48
1495.4  242469.04  53291.82  21.98
1499.0  240845.00  54109.86  22.47
1502.7  239532.92  54981.05  22.95
1506.4  238104.24  55773.92  23.42
1510.0  236705.20  56536.94  23.88
1513.7  235226.54  57229.96  24.33
1517.4  233920.00  57914.86  24.76
1521.0  232703.60  58574.86  25.17
1524.7  231487.75  59170.12  25.56
1528.3  230195.13  59702.34  25.94
1532.0  228972.33  60209.60  26.30
1535.7  227581.53  60613.43  26.63
1539.3  226320.96  61016.35  26.96
1543.0  225352.06  61464.56  27.27
1546.6  224643.25  61948.56  27.58
1550.3  223676.00  62315.76  27.86
1553.9  222596.73  62624.75  28.13
1557.6  221317.07  62853.27  28.40
1561.2  220061.25  63032.08  28.64
1564.9  218739.93  63180.14  28.88
1568.5  217413.00  63298.08  29.11
1572.2  216271.65  63439.76  29.33
1575.8  215180.00  63590.00  29.55
1579.5  214176.40  63733.74  29.76
1583.1  213186.93  63867.07  29.96
1586.8  211988.00  63906.00  30.15
1590.4  210963.10  63983.98  30.33
1594.0  209653.49  63955.76  30.51
1597.7  208439.93  63952.02  30.68
1601.3  207068.40  63888.75  30.85
1604.9  205696.06  63797.00  31.02
1608.6  204338.45  63684.10  31.17
1612.2  203334.45  63651.46  31.30
1615.8  202246.20  63572.27  31.43
1619.5  201165.42  63481.87  31.56
1623.1  199876.97  63294.94  31.67
1626.7  198626.68  63103.11  31.77
1630.3  197407.92  62907.31  31.87
1634.0  196280.00  62722.00  31.96
1637.6  195273.47  62552.46  32.03
1641.2  194241.25  62343.86  32.10
1644.8  193016.11  62028.30  32.14
1648.5  191928.50  61727.54  32.16
1652.1  190956.30  61419.60  32.16
1655.7  190010.20  61076.23  32.14
1659.3  189127.02  60731.16  32.11
1662.9  187665.83  60177.98  32.07
1666.6  186214.53  59610.51  32.01
1670.2  184782.73  59049.02  31.96
1673.8  183318.82  58461.18  31.89
1677.4  182144.20  57954.24  31.82
1681.0  181342.30  57522.52  31.72
1684.6  180956.75  57180.34  31.60
1688.2  180299.30  56684.90  31.44
1691.8  179641.59  56231.31  31.30
1695.4  179218.20  55820.20  31.15
1699.0  178856.07  55418.50  30.98
1702.6  178507.33  55005.19  30.81
1706.2  177914.10  54467.62  30.61
1709.8  176997.07  53834.41  30.42
1713.4  176278.76  53274.50  30.22
1717.0  175407.00  52710.18  30.05
1720.6  174610.95  52185.30  29.89
1724.2  173935.95  51708.73  29.73
1727.8  173225.50  51258.15  29.59
1731.4  172742.63  50895.63  29.46
1735.0  172496.13  50634.55  29.35
1738.6  172221.15  50318.44  29.22
1742.2  171599.71  49863.72  29.06
1745.8  170900.26  49352.08  28.88
1749.4  169869.98  48715.66  28.68
1753.0  168334.73  47926.99  28.47
1756.6  166640.83  47114.79  28.27
1760.1  165287.82  46414.23  28.08
1763.7  163591.33  45638.57  27.90
1767.3  162144.88  44978.70  27.74
1770.9  160918.86  44388.29  27.58
1774.5  159465.67  43757.78  27.44
1778.0  158312.36  43239.82  27.31
1781.6  157196.40  42768.45  27.21
1785.2  156034.63  42314.69  27.12
1788.8  154880.70  41902.50  27.05
1792.3  153658.63  41497.78  27.01
1795.9  153181.60  41309.64  26.97
1799.5  152656.00  41116.05  26.93
1803.1  151768.52  40855.38  26.92
1806.6  151940.54  40880.14  26.91
1810.2  152965.63  41120.10  26.88
1813.8  153968.65  41354.60  26.86
1817.3  154073.20  41344.74  26.83
1820.9  153412.53  41109.51  26.80
1824.5  152271.45  40734.23  26.75
1828.0  151498.42  40429.45  26.69
1831.6  150739.53  40099.01  26.60
1835.2  150025.00  39727.38  26.48
1838.7  149620.67  39358.34  26.31
1842.3  149235.00  38925.00  26.08
1845.8  148466.79  38290.33  25.79
1849.4  148018.38  37599.83  25.40
1852.9  147365.28  36713.73  24.91
1856.5  146500.50  35571.79  24.28
1860.0  145764.31  34230.21  23.48
1863.6  145514.73  32776.95  22.52
1867.1  145329.10  31083.15  21.39
1870.7  145202.05  29019.36  19.99
1874.2  144445.05  26441.49  18.31
1877.8  143301.33  23661.08  16.51
1881.3  141978.38  20782.84  14.64
1884.9  141155.48  18078.93  12.81
1888.4  140259.93  15499.29  11.05
1891.9  139374.33  13259.65  9.51
1895.5  138391.02  11432.40  8.26
1899.0  137956.75  10092.15  7.32
1901.3  168625.17  8498.78  5.04
1904.1  168635.25  7686.25  4.56
1906.8  167902.80  7059.40  4.20
1909.6  166271.35  6601.82  3.97
1912.4  164718.40  6246.76  3.79
1915.1  163552.95  6003.25  3.67
1917.9  162249.17  5869.72  3.62
1920.6  161151.03  5777.85  3.59
1923.3  160133.40  5726.54  3.58
1926.1  158826.70  5702.59  3.59
1928.8  157564.00  5720.00  3.63
1931.6  156570.47  5779.97  3.69
1934.3  155670.17  5872.79  3.77
1937.0  154788.37  5982.10  3.86
1939.8  153826.67  6112.14  3.97
1942.5  152592.00  6244.33  4.09
1945.2  150971.15  6374.50  4.22
1947.9  149677.27  6521.66  4.36
1950.7  148648.67  6696.68  4.51
1953.4  146974.50  6856.90  4.67
1956.1  145666.42  7053.08  4.84
1958.8  144501.50  7257.69  5.02
1961.5  143060.00  7464.27  5.22
1964.2  141568.70  7668.27  5.42
1966.9  140012.55  7876.52  5.63
1969.6  138798.00  8100.00  5.84
1972.3  137398.20  8327.43  6.06
1975.0  136351.95  8581.55  6.29
1977.7  135238.85  8837.24  6.53
1980.4  134094.93  9091.03  6.78
1983.1  132998.90  9352.98  7.03
1985.8  132092.10  9616.40  7.28
1988.4  131066.00  9885.78  7.54
1991.1  130130.23  10152.80  7.80
1993.8  129250.00  10417.55  8.06
1996.5  128612.37  10707.64  8.33
1999.1  127931.65  10986.25  8.59
2001.8  127229.43  11260.75  8.85
2004.5  126540.85  11518.92  9.10
2007.1  125814.25  11764.00  9.35
2009.8  125062.47  11991.70  9.59
2012.4  124476.37  12241.41  9.83
2015.1  123914.23  12472.29  10.07
2017.8  123119.97  12667.98  10.29
2020.4  122597.93  12870.43  10.50
2023.1  122230.73  13079.50  10.70
2025.7  122000.67  13291.78  10.89
2028.3  121654.00  13479.56  11.08
2031.0  121254.07  13641.52  11.25
2033.6  120982.20  13821.40  11.42
2036.2  120721.20  13980.90  11.58
2038.9  120112.20  14088.20  11.73
2041.5  119767.00  14216.88  11.87
2044.1  119198.70  14311.50  12.01
2046.8  118833.30  14424.60  12.14
2049.4  118206.90  14497.10  12.26
2052.0  117934.93  14607.96  12.39
2054.6  117521.25  14694.17  12.50
2057.2  116956.80  14776.80  12.63
2059.8  116624.93  14881.60  12.76
2062.4  115739.90  14917.12  12.89
2065.0  115201.40  14989.31  13.01
2067.6  114319.08  15007.19  13.13
2070.2  113700.20  15062.40  13.25
2072.8  113046.45  15108.89  13.37
2075.4  112603.75  15187.08  13.49
2078.0  111978.72  15233.23  13.60
2080.6  111408.00  15288.53  13.72
2083.2  110723.00  15315.37  13.83
2085.8  110222.05  15364.98  13.94
2088.4  109542.17  15399.45  14.06
2090.9  108744.77  15408.60  14.17
2093.5  107856.30  15394.26  14.27
2096.1  107077.62  15397.18  14.38
2098.7  106322.25  15400.11  14.48
2101.2  105358.93  15367.76  14.59
2103.8  104669.00  15379.40  14.69
2106.4  103996.53  15396.86  14.81
2108.9  103341.53  15405.60  14.91
2111.5  102485.67  15388.13  15.01
2114.0  101865.60  15396.87  15.11
2116.6  101342.50  15414.58  15.21
2119.1  100790.37  15429.33  15.31
2121.7  100283.75  15452.50  15.41
2124.2  99878.63  15473.16  15.49
2126.8  99084.78  15438.17  15.58
2129.3  98692.00  15458.67  15.66
2131.9  98084.80  15438.13  15.74
2134.4  97642.05  15431.45  15.80
2136.9  97245.85  15430.35  15.87
2139.4  96717.60  15416.18  15.94
2142.0  96256.53  15395.49  15.99
2144.5  95977.60  15411.83  16.06
2147.0  95729.60  15433.82  16.12
2149.5  95229.33  15404.05  16.18
2152.1  95052.65  15427.38  16.23
2154.6  94973.33  15458.67  16.28
2157.1  94421.25  15414.42  16.33
2159.6  94003.42  15396.25  16.38
2162.1  93821.00  15412.37  16.43
2164.6  93561.87  15407.93  16.47
2167.1  93247.57  15391.27  16.51
2169.6  92913.22  15370.33  16.54
2172.1  92444.13  15330.41  16.58
2174.6  92110.67  15323.98  16.64
2177.1  91672.92  15289.65  16.68
2179.5  91256.75  15263.81  16.73
2182.0  90779.15  15218.68  16.76
2184.5  90230.13  15172.85  16.82
2187.0  89607.23  15096.48  16.85
2189.5  88934.70  15021.60  16.89
2191.9  88179.00  14937.17  16.94
2194.4  87563.95  14869.35  16.98
2196.9  86812.80  14780.80  17.03
2199.3  86149.33  14699.78  17.06
2201.8  85264.00  14577.29  17.10
2204.3  84796.37  14522.12  17.13
2206.7  84158.40  14436.82  17.15
2209.2  83682.18  14383.54  17.19
2211.6  83051.10  14292.30  17.21
2214.1  82734.25  14251.72  17.23
2216.5  82168.53  14155.00  17.23
2219.0  81820.87  14088.78  17.22
2221.4  81455.50  14025.47  17.22
2223.9  80989.42  13919.70  17.19
2226.3  80473.75  13797.39  17.15
2228.7  79906.75  13665.36  17.10
2231.1  79318.80  13510.20  17.03
2233.6  78731.60  13337.16  16.94
2236.0  78192.92  13169.33  16.84
2238.4  77687.17  12997.45  16.73
2240.9  77251.53  12820.62  16.60
2243.3  76725.07  12625.27  16.46
2245.7  76167.25  12417.60  16.30
2248.1  75676.90  12222.46  16.15
2250.5  75184.48  12013.28  15.98
2252.9  74550.67  11783.92  15.81
2255.3  73998.15  11561.90  15.62
2257.7  73540.00  11356.67  15.44
2260.1  73052.70  11150.38  15.26
2262.5  72440.00  10936.67  15.10
2264.9  71919.93  10738.74  14.93
2267.3  71310.00  10526.67  14.76
2269.7  70815.27  10344.37  14.61
2272.1  70266.92  10160.24  14.46
2274.5  69703.63  9980.01  14.32
2276.8  69235.20  9823.01  14.19
2279.2  68651.55  9644.65  14.05
2281.6  68211.73  9506.29  13.94
2284.0  67750.80  9352.60  13.80
2286.3  67275.20  9204.44  13.68
2288.7  66863.77  9063.17  13.55
2291.1  66312.00  8906.41  13.43
2293.4  65860.67  8771.15  13.32
2295.8  65260.80  8600.50  13.18
2298.2  64677.15  8431.80  13.04
2300.5  64014.75  8259.30  12.90
2302.9  63271.00  8091.00  12.79
2305.2  62551.90  7920.70  12.66
2307.6  61889.68  7775.33  12.56
2309.9  61121.67  7639.78  12.50
2312.2  60522.33  7529.55  12.44
2314.6  59916.15  7410.60  12.37
2316.9  59202.00  7293.30  12.32
2319.2  58613.13  7191.01  12.27
2321.6  57959.77  7064.13  12.19
2323.9  57395.83  6947.92  12.11
2326.2  56861.67  6840.79  12.03
2328.6  56346.40  6722.83  11.93
2330.9  55839.00  6618.50  11.85
2333.2  55361.42  6505.22  11.75
2335.5  54912.40  6398.60  11.65
2337.8  54445.05  6286.68  11.55
2340.1  53873.53  6175.26  11.46
2342.4  53430.00  6066.67  11.35
2344.8  53000.42  5960.50  11.25
2347.1  52431.63  5845.23  11.15
2349.4  51888.50  5743.35  11.07
2351.6  51304.62  5644.20  11.00
2353.9  50819.53  5557.12  10.94
2356.2  50291.80  5454.58  10.85
2358.5  49705.60  5357.33  10.78
2360.8  49123.20  5252.80  10.69
2363.1  48680.33  5163.40  10.61
2365.4  48205.80  5069.93  10.52
2367.7  47731.80  4985.60  10.45
2369.9  47185.45  4889.15  10.36
2372.2  46554.67  4777.78  10.26
2374.5  45957.45  4677.75  10.18
2376.7  45339.85  4565.35  10.07
2379.0  44706.90  4463.32  9.98
2381.3  44088.33  4340.00  9.84
2383.5  43565.87  4247.47  9.75
2385.8  42948.33  4145.79  9.65
2388.0  42432.80  4031.67  9.50
2390.3  41913.07  3943.69  9.41
2392.5  41412.00  3848.00  9.29
2394.8  40946.40  3763.10  9.19
2397.0  40452.53  3672.35  9.08
2399.3  39985.70  3573.78  8.94
2401.5  39518.50  3487.17  8.82
2403.8  38982.25  3399.40  8.72
2406.0  38466.83  3319.39  8.63
2408.2  38048.27  3249.64  8.54
2410.4  37637.25  3149.96  8.37
2412.7  37209.90  3057.89  8.22
2414.9  36836.80  2993.83  8.13
2417.1  36410.90  2912.53  8.00
2419.3  35993.60  2824.53  7.85
2421.6  35611.25  2755.55  7.74
2423.8  35230.43  2684.10  7.62
2426.0  34847.27  2605.32  7.48
2428.2  34482.93  2534.94  7.35
2430.4  34181.70  2474.63  7.24
2432.6  33906.67  2417.78  7.13
2434.8  33577.07  2352.53  7.01
2437.0  33207.20  2279.19  6.86
2439.2  32872.53  2221.24  6.76
2441.4  32542.77  2163.15  6.65
2443.6  32275.73  2100.13  6.51
2445.7  31987.20  2040.85  6.38
2447.9  31716.08  1994.72  6.29
2450.1  31387.70  1943.58  6.19
2452.3  31014.32  1877.52  6.05
2454.5  30678.55  1810.74  5.90
2456.6  30302.40  1759.56  5.81
2458.8  29929.90  1701.70  5.69
2461.0  29626.25  1653.11  5.58
2463.1  29318.25  1615.05  5.51
2465.3  29017.90  1570.64  5.41
2467.5  28777.25  1538.92  5.35
2469.6  28505.75  1496.64  5.25
2471.8  28201.30  1461.62  5.18
2473.9  27858.92  1412.80  5.07
2476.1  27497.17  1380.17  5.02
2478.2  27145.80  1350.69  4.98
2480.4  26847.15  1314.98  4.90
2482.5  26507.47  1279.96  4.83
2484.6  26148.83  1251.86  4.79
2486.8  25889.30  1214.13  4.69
2488.9  25584.78  1194.27  4.67
2491.1  25196.27  1152.98  4.58
2493.2  24796.23  1117.67  4.51
2495.3  24370.67  1090.27  4.47
2497.4  24037.30  1062.60  4.42
2499.5  23708.58  1030.34  4.35
2501.7  23565.40  1018.87  4.32
2503.8  23453.48  1014.15  4.32
2505.9  23370.00  996.53  4.26
2508.0  23349.72  986.77  4.23
2510.1  23337.75  989.55  4.24
2512.2  23451.30  984.78  4.20
2514.3  23596.28  974.48  4.13
2516.4  23777.90  1004.70  4.23
