/*** Spectra Vista SIG Data ***/
name= 3_20220720_CECA_30_avg.sig
comm= Averaged Ref/Tar of files: 1_20220720_CECA_30_1_avg.sig,2_20220720_CECA_30_2_avg.sig,3_20220720_CECA_30_3_avg.sig
data=
337.3  3137.40  253.95  8.09
338.8  3254.77  248.90  7.65
340.3  3388.82  252.25  7.44
341.8  3597.03  254.61  7.08
343.2  3813.47  252.30  6.62
344.7  3952.23  246.96  6.25
346.2  4134.93  242.51  5.86
347.7  4282.05  234.70  5.48
349.2  4481.40  240.24  5.36
350.6  4721.21  240.40  5.09
352.1  5005.47  243.61  4.87
353.6  5251.27  242.35  4.62
355.1  5518.96  251.23  4.55
356.6  5804.82  253.88  4.37
358.0  6064.54  262.69  4.33
359.5  6327.63  264.66  4.18
361.0  6620.08  270.56  4.09
362.5  6967.45  277.32  3.98
364.0  7305.76  282.38  3.87
365.4  7640.08  292.24  3.83
366.9  7992.83  304.14  3.81
368.4  8318.88  316.56  3.81
369.9  8648.00  328.25  3.80
371.3  9039.43  339.39  3.75
372.8  9440.00  348.61  3.69
374.3  9830.28  352.02  3.58
375.8  10223.03  358.31  3.50
377.2  10601.59  371.65  3.51
378.7  10969.22  378.48  3.45
380.2  11351.80  386.50  3.40
381.7  11821.94  390.70  3.30
383.1  12256.26  398.52  3.25
384.6  12720.21  409.33  3.22
386.1  13143.16  420.56  3.20
387.6  13564.83  429.83  3.17
389.0  13989.60  442.24  3.16
390.5  14434.35  446.38  3.09
392.0  14947.19  453.43  3.03
393.4  15467.22  467.28  3.02
394.9  15973.20  480.57  3.01
396.4  16476.63  489.90  2.97
397.9  16969.45  503.23  2.97
399.3  17485.51  509.72  2.92
400.8  17993.08  523.19  2.91
402.2  18589.80  535.11  2.88
403.7  19155.68  550.59  2.87
405.2  19708.12  563.39  2.86
406.6  20248.44  574.92  2.84
408.1  20807.07  587.03  2.82
409.6  21376.86  603.17  2.82
411.0  22004.73  617.32  2.81
412.5  22618.26  634.40  2.80
414.0  23234.29  654.98  2.82
415.4  23883.13  676.25  2.83
416.9  24509.23  695.49  2.84
418.4  25171.83  714.04  2.84
419.8  25846.02  739.33  2.86
421.3  26515.68  763.70  2.88
422.7  27244.53  790.90  2.90
424.2  27978.75  820.82  2.93
425.7  28693.43  850.29  2.96
427.1  29402.85  878.36  2.99
428.6  30144.05  902.64  2.99
430.0  30838.97  933.53  3.03
431.5  31655.93  963.63  3.04
432.9  32475.79  997.22  3.07
434.4  33316.77  1030.40  3.09
435.9  34093.11  1060.09  3.11
437.3  34885.28  1088.91  3.12
438.8  35669.07  1117.37  3.13
440.2  36484.31  1150.55  3.15
441.7  37390.47  1185.15  3.17
443.1  38233.61  1215.38  3.18
444.6  39136.98  1251.44  3.20
446.0  40019.23  1285.55  3.21
447.5  40914.81  1322.21  3.23
448.9  41790.27  1355.61  3.24
450.4  42726.37  1390.62  3.25
451.8  43531.22  1421.01  3.26
453.3  44396.89  1453.19  3.27
454.7  45335.18  1486.56  3.28
456.2  46152.31  1518.82  3.29
457.6  47064.30  1552.04  3.30
459.1  47981.85  1584.53  3.30
460.5  48846.99  1610.44  3.30
462.0  49830.61  1644.04  3.30
463.4  50795.03  1674.09  3.30
464.8  51716.75  1701.91  3.29
466.3  52637.38  1734.91  3.30
467.7  53558.50  1765.23  3.30
469.2  54557.83  1797.13  3.29
470.6  55470.96  1824.54  3.29
472.0  56434.49  1856.11  3.29
473.5  57374.18  1886.92  3.29
474.9  58328.42  1917.64  3.29
476.4  59404.80  1954.56  3.29
477.8  60408.61  1988.66  3.29
479.2  61364.00  2022.18  3.30
480.7  62385.64  2057.75  3.30
482.1  63437.11  2097.32  3.31
483.6  64541.73  2138.51  3.31
485.0  65544.41  2177.59  3.32
486.4  66643.85  2222.50  3.33
487.9  67661.75  2265.34  3.35
489.3  68747.75  2313.74  3.37
490.7  69747.42  2361.80  3.39
492.2  70886.67  2418.73  3.41
493.6  71913.59  2475.62  3.44
495.0  72939.75  2533.79  3.47
496.5  74030.48  2600.22  3.51
497.9  75051.21  2665.82  3.55
499.3  76122.49  2744.55  3.61
500.7  77290.14  2833.17  3.67
502.2  78356.58  2925.37  3.73
503.6  79513.22  3036.15  3.82
505.0  80482.22  3151.38  3.92
506.5  81697.54  3289.90  4.03
507.9  82795.98  3442.04  4.16
509.3  84070.58  3620.69  4.31
510.7  85236.13  3816.24  4.48
512.2  86525.12  4042.98  4.67
513.6  87890.56  4304.63  4.90
515.0  89206.56  4595.44  5.15
516.4  90474.30  4917.69  5.44
517.8  91971.02  5284.54  5.75
519.3  93190.58  5666.10  6.08
520.7  94628.31  6087.08  6.43
522.1  95821.92  6513.24  6.80
523.5  97079.15  6954.76  7.16
524.9  98380.05  7400.41  7.52
526.3  99679.88  7838.56  7.86
527.8  101130.15  8277.53  8.19
529.2  102164.33  8674.54  8.49
530.6  103410.62  9065.98  8.77
532.0  105012.44  9457.87  9.01
533.4  106304.32  9788.05  9.21
534.8  107110.75  10040.00  9.37
536.3  108630.90  10329.26  9.51
537.7  110461.40  10624.72  9.62
539.1  111841.16  10862.59  9.71
540.5  112996.87  11067.64  9.79
541.9  114676.73  11318.43  9.87
543.3  115852.89  11512.09  9.94
544.7  117161.60  11717.75  10.00
546.1  118797.16  11952.72  10.06
547.5  119904.71  12126.36  10.11
549.0  121473.00  12332.85  10.15
550.4  122803.75  12504.71  10.18
551.8  124192.66  12650.51  10.19
553.2  125617.36  12769.99  10.17
554.6  126868.45  12832.81  10.12
556.0  128268.70  12870.87  10.03
557.4  129730.18  12874.91  9.92
558.8  131223.05  12845.37  9.79
560.2  132551.00  12758.81  9.63
561.6  134063.18  12657.01  9.44
563.0  135517.41  12514.27  9.23
564.4  136962.44  12338.88  9.01
565.8  138335.14  12128.62  8.77
567.2  139936.33  11913.39  8.51
568.6  141296.46  11661.45  8.25
570.0  142578.67  11391.56  7.99
571.4  144154.62  11146.12  7.73
572.8  145756.04  10913.52  7.49
574.2  147255.11  10689.64  7.26
575.6  148688.75  10482.86  7.05
577.0  150050.19  10297.93  6.86
578.4  151623.69  10149.17  6.69
579.8  153002.55  10007.95  6.54
581.2  154572.55  9899.46  6.40
582.5  155859.60  9787.29  6.28
583.9  157248.11  9701.02  6.17
585.3  158884.73  9641.31  6.07
586.7  160223.77  9575.33  5.98
588.1  161575.05  9523.78  5.89
589.5  163069.28  9494.41  5.82
590.9  164550.76  9474.54  5.76
592.3  166206.62  9479.99  5.70
593.7  167514.21  9472.69  5.65
595.0  168993.60  9481.87  5.61
596.4  170314.08  9483.10  5.57
597.8  171655.87  9482.24  5.52
599.2  173066.67  9478.27  5.48
600.6  174662.62  9474.12  5.42
602.0  175831.70  9436.62  5.37
603.3  177465.86  9407.57  5.30
604.7  178975.36  9359.60  5.23
606.1  180326.13  9290.42  5.15
607.5  181814.08  9215.70  5.07
608.9  183349.38  9135.44  4.98
610.2  184601.03  9034.29  4.89
611.6  186054.69  8946.53  4.81
613.0  187455.03  8856.06  4.72
614.4  188721.58  8767.97  4.65
615.8  190034.00  8688.83  4.57
617.1  191428.30  8625.87  4.51
618.5  192903.20  8577.42  4.45
619.9  194268.78  8540.51  4.40
621.3  195728.78  8523.36  4.35
622.6  197163.86  8516.96  4.32
624.0  198475.85  8518.20  4.29
625.4  199783.10  8533.27  4.27
626.8  201192.91  8559.86  4.25
628.1  202379.83  8588.95  4.24
629.5  204037.85  8640.53  4.23
630.9  205462.07  8681.14  4.23
632.2  206708.35  8703.81  4.21
633.6  208169.60  8721.14  4.19
635.0  209539.96  8713.90  4.16
636.3  210915.83  8683.28  4.12
637.7  212121.72  8621.64  4.06
639.1  213606.95  8546.89  4.00
640.4  214947.64  8452.58  3.93
641.8  216011.27  8338.48  3.86
643.2  217437.58  8232.33  3.79
644.5  218655.28  8121.77  3.71
645.9  220143.35  8027.80  3.65
647.2  221359.02  7943.68  3.59
648.6  223002.00  7892.74  3.54
650.0  224287.20  7846.63  3.50
651.3  224724.81  7784.85  3.46
652.7  226051.35  7754.02  3.43
654.0  227778.67  7743.69  3.40
655.4  229308.82  7728.61  3.37
656.8  229491.96  7666.98  3.34
658.1  230576.51  7630.80  3.31
659.5  232703.10  7614.44  3.27
660.8  234245.00  7594.86  3.24
662.2  235120.36  7560.39  3.22
663.5  236729.35  7555.89  3.19
664.9  237847.57  7546.13  3.17
666.2  238632.73  7543.77  3.16
667.6  240313.74  7590.92  3.16
668.9  241265.28  7636.76  3.17
670.3  242574.83  7705.38  3.18
671.6  243775.71  7796.43  3.20
673.0  244835.25  7900.66  3.23
674.3  245941.08  8017.60  3.26
675.7  247136.98  8153.03  3.30
677.0  248121.42  8296.22  3.34
678.4  249357.26  8468.37  3.40
679.7  250360.62  8647.50  3.45
681.1  251556.89  8860.69  3.52
682.4  252595.63  9086.54  3.60
683.8  253685.90  9340.51  3.68
685.1  254609.58  9623.46  3.78
686.4  255785.93  9964.77  3.90
687.8  256952.89  10373.44  4.04
689.1  257887.39  10882.72  4.22
690.5  259026.57  11561.97  4.46
691.8  259786.03  12454.15  4.79
693.1  261000.98  13657.59  5.23
694.5  262029.44  15198.30  5.80
695.8  263111.33  17125.62  6.51
697.1  264210.92  19479.63  7.37
698.5  265130.95  22276.55  8.40
699.8  266123.88  25520.39  9.59
701.1  267184.57  29187.83  10.92
702.5  267906.53  33179.28  12.38
703.8  268790.00  37475.00  13.94
705.1  269827.57  42017.33  15.57
706.5  270754.91  46701.38  17.25
707.8  271644.38  51489.01  18.95
709.1  272454.30  56306.63  20.67
710.5  273501.09  61199.13  22.38
711.8  274250.35  66026.69  24.08
713.1  275144.83  70853.82  25.75
714.4  275964.98  75604.51  27.40
715.8  276713.27  80261.17  29.01
717.1  277899.90  84955.68  30.57
718.4  278765.51  89440.28  32.08
719.7  279756.31  93854.60  33.55
721.0  280245.00  97965.57  34.96
722.4  280920.38  101994.58  36.31
723.7  281801.23  105931.96  37.59
725.0  282752.03  109740.83  38.81
726.3  283620.92  113348.08  39.96
727.6  284087.56  116628.36  41.05
729.0  284911.90  119855.54  42.07
730.3  285609.78  122871.34  43.02
731.6  286437.52  125768.88  43.91
732.9  287154.02  128454.65  44.73
734.2  287886.50  130988.16  45.50
735.5  288832.11  133463.82  46.21
736.8  289545.53  135679.87  46.86
738.1  290284.09  137762.18  47.46
739.5  291134.16  139759.28  48.01
740.8  291766.48  141519.11  48.50
742.1  292430.34  143192.10  48.97
743.4  293097.22  144746.19  49.39
744.7  293979.66  146300.48  49.77
746.0  294761.35  147703.26  50.11
747.3  295250.51  148851.27  50.42
748.6  295919.00  149997.43  50.69
749.9  296596.44  151052.08  50.93
751.2  297247.05  152021.82  51.14
752.5  298060.61  153014.69  51.34
753.8  298628.28  153824.12  51.51
755.1  299239.78  154587.42  51.66
756.4  299768.82  155247.71  51.79
757.7  300662.13  156041.90  51.90
759.0  302286.83  157174.33  52.00
760.3  303362.40  157980.62  52.08
761.6  304776.89  158941.33  52.15
762.9  305288.83  159373.44  52.20
764.2  305628.83  159701.63  52.25
765.5  305865.95  159954.20  52.30
766.8  306229.69  160254.63  52.33
768.1  306697.33  160580.87  52.36
769.3  307231.44  160934.59  52.38
770.6  307813.35  161293.68  52.40
771.9  308481.82  161686.22  52.41
773.2  308850.00  161913.72  52.42
774.5  309413.87  162225.19  52.43
775.8  309993.25  162558.85  52.44
777.1  310502.56  162852.63  52.45
778.4  310783.58  163021.41  52.45
779.6  311478.37  163404.84  52.46
780.9  311906.67  163639.62  52.46
782.2  312337.97  163869.92  52.47
783.5  312614.83  164028.61  52.47
784.8  313103.23  164280.22  52.47
786.0  313438.22  164467.26  52.47
787.3  313781.27  164648.03  52.47
788.6  314151.65  164850.67  52.47
789.9  314554.64  165066.40  52.48
791.2  315137.79  165379.03  52.48
792.4  315753.94  165694.04  52.48
793.7  316182.96  165915.51  52.47
795.0  316737.30  166208.32  52.48
796.2  317341.81  166522.77  52.47
797.5  317980.68  166848.88  52.47
798.8  318594.47  167174.72  52.47
800.0  319184.23  167479.74  52.47
801.3  319601.32  167701.80  52.47
802.6  320152.38  167983.84  52.47
803.8  320721.12  168283.79  52.47
805.1  321167.00  168511.50  52.47
806.4  321619.03  168741.88  52.47
807.7  322099.88  168978.54  52.46
808.9  322596.88  169231.69  52.46
810.2  323066.37  169466.35  52.46
811.4  323522.34  169700.91  52.45
812.7  324106.25  170005.95  52.45
814.0  324847.24  170394.18  52.45
815.2  325422.70  170692.29  52.45
816.5  325813.43  170883.33  52.45
817.7  326221.81  171092.30  52.45
819.0  326695.72  171345.83  52.45
820.2  326841.78  171426.52  52.45
821.5  327477.98  171756.50  52.45
822.7  327811.12  171921.39  52.45
824.0  328103.40  172066.13  52.44
825.2  328550.40  172297.93  52.44
826.5  328823.89  172435.19  52.44
827.7  329296.75  172687.23  52.44
829.0  329651.69  172871.35  52.44
830.2  329957.87  173022.88  52.44
831.5  330410.49  173240.07  52.43
832.7  330684.32  173382.65  52.43
834.0  330971.03  173527.36  52.43
835.2  331298.52  173698.01  52.43
836.4  331552.47  173850.55  52.44
837.7  331920.80  174040.84  52.43
838.9  332298.07  174258.00  52.44
840.1  332626.65  174434.46  52.44
841.4  333016.73  174640.73  52.44
842.6  333377.56  174844.45  52.45
843.8  333700.96  174998.20  52.44
845.1  334147.10  175258.10  52.45
846.3  334516.60  175452.70  52.45
847.5  334875.57  175653.00  52.45
848.8  335223.80  175855.33  52.46
850.0  335532.52  176022.24  52.46
851.2  336052.35  176284.65  52.46
852.5  336410.45  176466.55  52.46
853.7  336835.00  176707.36  52.46
854.9  337227.51  176905.84  52.46
856.1  337636.29  177124.19  52.46
857.4  337866.47  177229.95  52.46
858.6  338276.69  177450.01  52.46
859.8  338611.67  177622.46  52.46
861.0  339050.40  177826.63  52.45
862.2  339446.30  178050.32  52.45
863.5  339772.15  178223.14  52.45
864.7  340235.87  178467.39  52.45
865.9  340616.78  178643.48  52.45
867.1  340875.79  178776.36  52.45
868.3  341299.37  178973.24  52.44
869.5  341744.67  179182.91  52.43
870.8  342227.00  179430.63  52.43
872.0  342687.22  179659.61  52.43
873.2  343087.18  179834.31  52.42
874.4  343453.50  180018.37  52.41
875.6  343794.79  180185.13  52.41
876.8  344232.12  180392.80  52.40
878.0  344617.43  180594.25  52.40
879.2  345100.48  180827.18  52.40
880.4  345575.67  181046.27  52.39
881.6  346043.31  181241.81  52.38
882.8  346423.20  181411.67  52.37
884.0  346934.88  181646.45  52.36
885.2  347379.70  181853.05  52.35
886.5  347936.60  182119.37  52.34
887.7  348386.75  182327.78  52.33
888.8  349015.32  182631.71  52.33
890.0  349502.09  182847.32  52.32
891.2  350021.56  183084.45  52.31
892.4  350515.55  183346.97  52.31
893.6  351077.99  183573.36  52.29
894.8  351856.56  183971.71  52.29
896.0  352668.33  184335.29  52.27
897.2  353431.00  184676.99  52.25
898.4  354071.67  184984.38  52.24
899.6  354606.17  185219.35  52.23
900.8  354895.69  185388.02  52.24
902.0  355109.65  185447.90  52.22
903.2  355443.49  185580.51  52.21
904.3  355745.33  185706.19  52.20
905.5  356301.44  185941.79  52.19
906.7  356907.05  186193.32  52.17
907.9  357336.04  186412.86  52.17
909.1  357655.88  186527.12  52.15
910.2  357801.40  186581.41  52.15
911.4  358042.75  186661.93  52.13
912.6  358234.86  186703.12  52.12
913.8  358461.53  186783.28  52.11
915.0  358856.40  186946.62  52.10
916.2  359054.58  186963.90  52.07
917.3  359001.98  186929.90  52.07
918.5  359249.47  186986.33  52.05
919.7  359467.68  187046.56  52.03
920.8  359522.23  187030.62  52.02
922.0  359707.64  187043.27  52.00
923.2  359905.00  187071.73  51.98
924.4  360036.38  187116.39  51.97
925.5  360305.99  187151.29  51.94
926.7  360888.99  187363.69  51.92
927.9  361596.40  187683.46  51.90
929.0  362986.35  188252.97  51.86
930.2  364876.42  189176.51  51.85
931.4  366990.90  190195.52  51.83
932.5  369475.39  191340.88  51.79
933.7  370749.28  191894.06  51.76
934.9  371431.18  192108.11  51.72
936.0  370995.45  191812.63  51.70
937.2  369155.72  190742.32  51.67
938.3  367637.14  189824.03  51.63
939.5  366261.60  189036.69  51.61
940.7  366471.70  189009.23  51.58
941.8  367866.23  189535.85  51.52
943.0  369175.33  190084.67  51.49
944.2  369967.72  190327.10  51.44
945.3  369512.00  190004.16  51.42
946.5  368773.95  189481.23  51.38
947.6  369046.88  189414.14  51.33
948.8  368970.88  189156.51  51.27
949.9  369072.20  188986.37  51.21
951.1  368720.92  188591.53  51.15
952.2  368628.00  188283.58  51.08
953.4  368306.28  187900.09  51.02
954.5  368316.00  187659.98  50.95
955.7  368328.80  187365.84  50.87
956.8  368178.37  187078.56  50.81
958.0  367886.89  186683.01  50.74
959.1  367731.10  186394.39  50.69
960.3  367423.39  186070.95  50.64
961.4  367201.06  185852.95  50.61
962.6  367456.83  185826.80  50.57
963.7  367333.30  185587.19  50.52
964.9  367249.58  185484.36  50.51
966.0  367045.88  185298.26  50.48
967.2  366992.40  185314.22  50.50
968.3  366744.60  185110.66  50.47
969.5  366522.83  185002.32  50.47
970.6  366520.35  184996.65  50.47
971.8  366862.17  185021.84  50.43
972.9  366621.53  184928.39  50.44
974.0  366927.19  184984.98  50.41
975.2  366709.38  184852.93  50.41
976.3  366571.89  184898.74  50.44
977.5  366367.54  184820.73  50.45
978.6  366313.78  184815.72  50.45
979.7  366301.72  184867.29  50.47
980.9  366201.20  184718.92  50.44
982.0  366255.18  184642.10  50.41
983.2  365935.84  184575.31  50.44
984.3  365554.44  184484.58  50.47
985.4  365787.97  184541.55  50.45
986.6  365677.32  184448.06  50.44
987.7  366333.04  184904.75  50.47
988.9  366301.20  184837.99  50.46
990.0  366841.65  185140.74  50.47
993.1  326544.19  163382.64  50.03
996.9  325989.26  163547.58  50.17
1000.7  326326.87  164089.80  50.28
1004.5  326535.89  164532.04  50.39
1008.4  326177.10  164705.44  50.50
1012.2  326054.57  164949.35  50.59
1016.0  325886.60  165163.54  50.68
1019.8  325650.33  165328.63  50.77
1023.7  325020.96  165237.77  50.84
1027.5  324038.46  164948.85  50.90
1031.3  323581.78  164862.98  50.95
1035.1  323007.80  164667.79  50.98
1038.9  322708.16  164605.27  51.01
1042.7  322448.58  164534.65  51.03
1046.5  322299.28  164500.33  51.04
1050.3  322256.73  164502.01  51.05
1054.2  321914.64  164366.25  51.06
1058.0  321432.40  164117.90  51.06
1061.8  321370.71  164082.98  51.06
1065.6  320986.26  163837.56  51.04
1069.4  320594.18  163590.76  51.03
1073.2  319795.92  163143.43  51.01
1077.0  319205.79  162765.53  50.99
1080.8  319020.14  162559.67  50.96
1084.6  318654.90  162241.92  50.91
1088.4  318545.53  162082.58  50.88
1092.2  318006.00  161661.96  50.84
1096.0  317480.90  161229.26  50.78
1099.8  316937.76  160764.55  50.72
1103.6  316168.08  160180.62  50.66
1107.4  315223.63  159478.24  50.59
1111.2  314893.60  159092.97  50.52
1114.9  314204.14  158507.50  50.45
1118.7  313650.15  157915.37  50.35
1122.5  313104.13  157248.04  50.22
1126.3  312195.74  156323.20  50.07
1130.1  311817.54  155480.85  49.86
1133.9  310489.20  153943.43  49.58
1137.7  309248.10  152245.58  49.23
1141.4  307645.44  150192.72  48.82
1145.2  306931.17  148458.69  48.37
1149.0  305912.64  146687.57  47.95
1152.8  304518.20  144947.88  47.60
1156.6  303084.83  143505.21  47.35
1160.3  301611.67  142324.51  47.19
1164.1  299620.94  141132.63  47.10
1167.9  298161.46  140331.94  47.07
1171.7  297076.50  139771.13  47.05
1175.4  295900.51  139206.27  47.04
1179.2  294764.59  138641.42  47.03
1183.0  294397.56  138398.16  47.01
1186.7  294096.29  138182.59  46.99
1190.5  293547.78  137839.49  46.96
1194.3  292730.63  137411.38  46.94
1198.0  291612.20  136902.18  46.95
1201.8  290212.10  136283.76  46.96
1205.6  289172.00  135880.25  46.99
1209.3  288499.06  135700.25  47.04
1213.1  287930.70  135554.42  47.08
1216.8  287312.94  135442.23  47.14
1220.6  286412.62  135181.69  47.20
1224.3  285377.47  134858.63  47.26
1228.1  284197.07  134467.86  47.32
1231.9  282946.15  134015.73  47.36
1235.6  281527.88  133454.91  47.40
1239.4  280219.34  132974.52  47.45
1243.1  279075.15  132511.08  47.48
1246.9  277986.86  132048.11  47.50
1250.6  277141.73  131659.70  47.51
1254.3  276196.41  131217.41  47.51
1258.1  275260.42  130767.68  47.51
1261.8  274092.76  130183.22  47.50
1265.6  272928.61  129570.52  47.47
1269.3  272012.96  129028.14  47.43
1273.1  272127.54  128946.31  47.38
1276.8  272152.53  128786.07  47.32
1280.6  271517.55  128311.55  47.26
1284.3  269965.87  127374.11  47.18
1288.0  268740.03  126544.24  47.09
1291.8  267971.26  125848.17  46.96
1295.5  267141.11  125073.28  46.82
1299.2  266130.51  124175.91  46.66
1302.9  264810.98  123056.85  46.47
1306.7  263343.69  121811.01  46.26
1310.4  261951.94  120490.97  46.00
1314.1  260651.36  119150.12  45.71
1317.9  259515.00  117768.99  45.38
1321.6  258258.34  116244.46  45.01
1325.3  256810.23  114535.50  44.60
1329.0  255613.75  112881.25  44.16
1332.8  253853.60  110879.27  43.68
1336.5  252332.56  108971.29  43.19
1340.2  251968.89  107559.84  42.69
1343.9  251419.10  106071.61  42.19
1347.6  250501.15  104429.49  41.69
1351.4  250268.17  103116.33  41.20
1355.1  250064.59  101837.65  40.72
1358.8  250048.00  100572.19  40.22
1362.5  249601.82  98994.85  39.66
1366.2  248500.05  96907.69  39.00
1369.9  247041.46  94379.14  38.20
1373.6  245129.29  91260.76  37.23
1377.3  243291.20  87564.33  35.99
1381.0  242241.33  83386.90  34.42
1384.8  240825.00  78271.61  32.50
1388.4  238940.18  72560.53  30.37
1392.2  237314.95  66617.93  28.07
1395.9  235984.15  60721.01  25.73
1399.6  234719.79  55221.94  23.53
1403.3  233822.15  50432.67  21.57
1407.0  232930.43  46409.20  19.92
1410.7  232010.90  43201.79  18.62
1414.3  231060.84  40756.23  17.64
1418.1  230088.61  38993.02  16.95
1421.7  229281.21  37770.45  16.47
1425.4  228417.26  36961.14  16.18
1429.1  227555.13  36468.04  16.03
1432.8  226266.24  36146.48  15.98
1436.5  225597.65  36084.98  16.00
1440.2  225016.17  36157.66  16.07
1443.9  224040.48  36236.49  16.17
1447.6  222791.80  36325.67  16.30
1451.2  221884.36  36486.67  16.44
1454.9  220786.00  36649.29  16.60
1458.6  219774.91  36923.56  16.80
1462.3  218709.94  37314.17  17.06
1466.0  217492.71  37834.51  17.40
1469.7  216010.57  38475.96  17.81
1473.3  215068.50  39335.88  18.29
1477.0  213393.10  40157.60  18.82
1480.7  212004.82  41076.60  19.38
1484.4  210353.75  41947.77  19.94
1488.0  209019.55  42900.00  20.52
1491.7  207639.42  43819.47  21.10
1495.4  206209.09  44723.20  21.69
1499.0  204846.33  45597.67  22.26
1502.7  203750.75  46526.02  22.83
1506.4  202543.44  47378.40  23.39
1510.0  201310.52  48198.11  23.94
1513.7  200030.93  48961.21  24.48
1517.4  198851.11  49712.78  25.00
1521.0  197802.58  50455.08  25.51
1524.7  196739.47  51133.23  25.99
1528.3  195640.67  51774.18  26.46
1532.0  194598.25  52380.23  26.92
1535.7  193382.92  52883.41  27.35
1539.3  192274.88  53389.05  27.77
1543.0  191433.21  53932.75  28.17
1546.6  190810.39  54501.16  28.56
1550.3  189979.42  54960.92  28.93
1553.9  189033.68  55358.83  29.29
1557.6  187946.73  55674.95  29.62
1561.2  186850.95  55936.84  29.94
1564.9  185738.62  56169.14  30.24
1568.5  184592.80  56355.10  30.53
1572.2  183605.40  56562.62  30.81
1575.8  182695.33  56776.00  31.08
1579.5  181822.80  56968.35  31.33
1583.1  180938.14  57146.69  31.58
1586.8  179839.33  57228.00  31.82
1590.4  178836.12  57320.82  32.05
1594.0  177693.86  57346.50  32.27
1597.7  176856.38  57460.00  32.49
1601.3  175930.65  57521.48  32.70
1604.9  174980.92  57547.01  32.89
1608.6  173817.49  57475.50  33.07
1612.2  172769.30  57412.34  33.23
1615.8  171678.22  57309.48  33.38
1619.5  170632.25  57201.48  33.52
1623.1  169508.78  57045.19  33.65
1626.7  168463.97  56893.56  33.77
1630.3  167436.06  56726.32  33.88
1634.0  166488.00  56552.67  33.97
1637.6  165630.31  56375.19  34.04
1641.2  164773.72  56145.81  34.07
1644.8  163731.91  55805.85  34.08
1648.5  162819.81  55470.17  34.07
1652.1  161994.90  55128.31  34.03
1655.7  161203.13  54791.71  33.99
1659.3  160494.15  54510.94  33.96
1662.9  159290.00  54091.03  33.96
1666.6  158048.38  53679.74  33.96
1670.2  156825.40  53262.34  33.96
1673.8  155578.01  52806.55  33.94
1677.4  154596.83  52414.53  33.90
1681.0  153900.74  52074.15  33.84
1684.6  153569.36  51809.90  33.74
1688.2  152994.52  51403.58  33.60
1691.8  152437.74  51007.64  33.46
1695.4  152067.80  50645.99  33.30
1699.0  151751.06  50289.08  33.14
1702.6  151450.78  49913.45  32.96
1706.2  150917.69  49441.17  32.76
1709.8  150125.94  48888.48  32.56
1713.4  149491.94  48405.75  32.38
1717.0  148734.08  47903.78  32.21
1720.6  148030.73  47422.82  32.04
1724.2  147414.23  46961.16  31.86
1727.8  146797.70  46507.37  31.68
1731.4  146394.88  46127.65  31.51
1735.0  146232.17  45836.95  31.35
1738.6  146007.65  45500.99  31.16
1742.2  145509.52  45038.42  30.95
1745.8  144940.13  44528.32  30.72
1749.4  144115.95  43911.65  30.47
1753.0  142834.18  43154.56  30.21
1756.6  141417.99  42376.45  29.97
1760.1  140262.54  41696.00  29.73
1763.7  138771.78  40932.70  29.50
1767.3  137531.03  40274.45  29.28
1770.9  136463.50  39680.96  29.08
1774.5  135207.28  39066.64  28.89
1778.0  134203.18  38549.94  28.73
1781.6  133239.20  38086.38  28.58
1785.2  132240.04  37646.21  28.47
1788.8  131219.00  37243.07  28.38
1792.3  130112.98  36834.92  28.31
1795.9  129598.12  36616.40  28.25
1799.5  129129.89  36427.98  28.21
1803.1  129062.46  36358.50  28.17
1806.6  130122.67  36586.09  28.12
1810.2  131321.48  36848.07  28.06
1813.8  131814.40  36923.75  28.01
1817.3  131418.27  36752.37  27.97
1820.9  130235.38  36364.40  27.92
1824.5  128871.56  35910.18  27.87
1828.0  127715.19  35478.62  27.78
1831.6  126744.46  35065.96  27.67
1835.2  126003.05  34658.41  27.51
1838.7  125630.98  34269.60  27.28
1842.3  125415.00  33855.00  26.99
1845.8  124841.17  33228.79  26.62
1849.4  124382.89  32496.03  26.13
1852.9  123921.53  31603.87  25.50
1856.5  123233.41  30443.62  24.70
1860.0  122573.68  29068.64  23.72
1863.6  122127.65  27532.45  22.54
1867.1  121724.98  25752.77  21.16
1870.7  121666.78  23686.77  19.47
1874.2  121351.80  21253.52  17.51
1877.8  120501.16  18662.76  15.49
1881.3  119212.42  16025.48  13.44
1884.9  118151.79  13599.95  11.51
1888.4  117107.63  11398.68  9.73
1891.9  115874.07  9564.34  8.25
1895.5  114558.40  8142.24  7.11
1899.0  113570.96  7148.60  6.29
1901.3  149233.46  5965.25  4.00
1904.1  148922.44  5337.38  3.58
1906.8  148092.30  4859.80  3.28
1909.6  146441.05  4481.28  3.06
1912.4  144836.10  4209.70  2.91
1915.1  143594.69  4032.69  2.81
1917.9  142267.00  3917.34  2.75
1920.6  141212.14  3839.66  2.72
1923.3  140199.56  3791.01  2.70
1926.1  138986.99  3777.52  2.72
1928.8  137859.33  3788.89  2.75
1931.6  136950.80  3821.46  2.79
1934.3  136075.07  3866.87  2.84
1937.0  135208.92  3936.08  2.91
1939.8  134245.04  4014.59  2.99
1942.5  133064.25  4093.83  3.08
1945.2  131565.50  4173.04  3.17
1947.9  130333.00  4267.52  3.27
1950.7  129344.85  4382.79  3.39
1953.4  127836.30  4494.87  3.52
1956.1  126661.23  4620.45  3.65
1958.8  125625.93  4760.81  3.79
1961.5  124384.00  4903.60  3.94
1964.2  123104.80  5054.29  4.11
1966.9  121774.54  5199.98  4.27
1969.6  120721.50  5369.25  4.45
1972.3  119509.20  5538.03  4.63
1975.0  118607.70  5728.16  4.83
1977.7  117651.81  5921.13  5.03
1980.4  116666.80  6121.32  5.25
1983.1  115729.01  6328.30  5.47
1985.8  114924.83  6540.23  5.69
1988.4  114031.67  6749.17  5.92
1991.1  113215.38  6968.54  6.16
1993.8  112451.81  7188.45  6.39
1996.5  111896.03  7423.26  6.63
1999.1  111310.10  7655.91  6.88
2001.8  110709.55  7886.55  7.12
2004.5  110118.83  8114.42  7.37
2007.1  109485.22  8334.28  7.61
2009.8  108844.75  8549.16  7.85
2012.4  108361.05  8773.20  8.10
2015.1  107895.08  8985.86  8.33
2017.8  107210.89  9173.64  8.56
2020.4  106775.58  9376.37  8.78
2023.1  106477.06  9581.57  9.00
2025.7  106255.50  9784.67  9.21
2028.3  105971.67  9974.61  9.41
2031.0  105643.60  10150.09  9.61
2033.6  105407.03  10326.90  9.80
2036.2  105176.48  10490.03  9.97
2038.9  104663.18  10619.08  10.15
2041.5  104373.37  10761.45  10.31
2044.1  103897.58  10875.00  10.47
2046.8  103582.20  10998.25  10.62
2049.4  103027.58  11090.33  10.76
2052.0  102754.22  11207.78  10.91
2054.6  102396.87  11314.48  11.05
2057.2  101915.82  11408.64  11.19
2059.8  101653.82  11535.28  11.35
2062.4  100897.60  11602.61  11.50
2065.0  100452.98  11704.12  11.65
2067.6  99681.62  11760.96  11.80
2070.2  99158.62  11841.59  11.94
2072.8  98609.47  11921.49  12.09
2075.4  98227.50  12013.75  12.23
2078.0  97668.47  12077.82  12.37
2080.6  97187.20  12151.33  12.50
2083.2  96595.52  12204.66  12.63
2085.8  96177.50  12272.51  12.76
2088.4  95603.17  12319.56  12.89
2090.9  94915.83  12344.07  13.01
2093.5  94149.62  12354.43  13.12
2096.1  93476.63  12374.99  13.24
2098.7  92795.92  12388.16  13.35
2101.2  91972.92  12378.77  13.46
2103.8  91398.70  12405.70  13.57
2106.4  90822.30  12420.98  13.68
2108.9  90259.00  12431.90  13.77
2111.5  89512.30  12415.89  13.87
2114.0  88959.92  12420.26  13.96
2116.6  88512.81  12435.94  14.05
2119.1  88039.25  12436.98  14.13
2121.7  87624.69  12442.50  14.20
2124.2  87280.94  12458.90  14.27
2126.8  86601.47  12424.03  14.35
2129.3  86253.20  12436.60  14.42
2131.9  85736.20  12413.13  14.48
2134.4  85364.89  12419.50  14.55
2136.9  85035.71  12424.83  14.61
2139.4  84590.22  12411.12  14.67
2142.0  84208.95  12415.55  14.74
2144.5  83967.05  12441.46  14.82
2147.0  83772.33  12469.44  14.88
2149.5  83352.47  12464.98  14.95
2152.1  83208.12  12495.07  15.02
2154.6  83120.93  12526.35  15.07
2157.1  82662.88  12507.75  15.13
2159.6  82324.52  12503.97  15.19
2162.1  82179.83  12520.08  15.23
2164.6  81964.82  12527.13  15.28
2167.1  81697.23  12524.54  15.33
2169.6  81408.52  12516.23  15.37
2172.1  80997.11  12495.78  15.43
2174.6  80728.88  12493.79  15.48
2177.1  80365.82  12478.35  15.53
2179.5  80006.88  12467.25  15.58
2182.0  79584.86  12447.19  15.64
2184.5  79113.23  12416.50  15.69
2187.0  78579.67  12375.75  15.75
2189.5  77981.45  12328.33  15.81
2191.9  77320.50  12268.46  15.87
2194.4  76784.39  12226.39  15.92
2196.9  76135.20  12167.20  15.98
2199.3  75557.08  12109.92  16.03
2201.8  74786.07  12018.23  16.07
2204.3  74375.98  11985.33  16.11
2206.7  73823.29  11929.17  16.16
2209.2  73425.76  11897.07  16.20
2211.6  72881.33  11832.15  16.23
2214.1  72610.13  11808.16  16.26
2216.5  72116.00  11742.85  16.28
2219.0  71825.45  11703.95  16.29
2221.4  71494.21  11652.08  16.30
2223.9  71072.75  11580.19  16.29
2226.3  70633.94  11491.76  16.27
2228.7  70144.49  11384.78  16.23
2231.1  69606.90  11264.55  16.18
2233.6  69086.33  11135.27  16.12
2236.0  68618.37  11002.54  16.03
2238.4  68184.52  10866.19  15.94
2240.9  67790.03  10725.52  15.82
2243.3  67323.17  10565.75  15.69
2245.7  66826.69  10401.07  15.56
2248.1  66405.41  10238.26  15.42
2250.5  65964.88  10069.02  15.26
2252.9  65413.73  9880.29  15.10
2255.3  64918.77  9703.74  14.95
2257.7  64515.00  9534.17  14.78
2260.1  64095.44  9371.14  14.62
2262.5  63572.50  9198.33  14.47
2264.9  63114.64  9039.08  14.32
2267.3  62570.00  8876.67  14.19
2269.7  62136.44  8730.68  14.05
2272.1  61657.59  8581.78  13.92
2274.5  61180.37  8436.75  13.79
2276.8  60766.11  8306.32  13.67
2279.2  60259.80  8166.46  13.55
2281.6  59881.57  8044.95  13.43
2284.0  59471.33  7911.67  13.30
2286.3  59062.13  7781.56  13.18
2288.7  58717.10  7656.17  13.04
2291.1  58245.58  7515.53  12.90
2293.4  57855.23  7385.16  12.76
2295.8  57314.35  7237.47  12.63
2298.2  56790.45  7090.61  12.49
2300.5  56216.03  6937.96  12.34
2302.9  55564.92  6774.36  12.19
2305.2  54932.48  6626.33  12.06
2307.6  54343.04  6489.18  11.94
2309.9  53648.08  6352.41  11.84
2312.2  53103.00  6237.03  11.75
2314.6  52562.48  6131.51  11.67
2316.9  51938.89  6014.21  11.58
2319.2  51426.45  5910.73  11.49
2321.6  50854.97  5800.82  11.41
2323.9  50359.38  5691.84  11.30
2326.2  49892.20  5586.18  11.20
2328.6  49449.40  5488.86  11.10
2330.9  48998.25  5390.88  11.00
2333.2  48574.86  5292.55  10.90
2335.5  48195.48  5193.07  10.78
2337.8  47805.22  5098.72  10.67
2340.1  47293.01  4989.99  10.55
2342.4  46913.75  4898.47  10.44
2344.8  46545.94  4810.61  10.34
2347.1  46032.59  4712.01  10.24
2349.4  45540.15  4619.66  10.14
2351.6  45036.13  4521.43  10.04
2353.9  44605.01  4435.40  9.94
2356.2  44144.28  4352.18  9.86
2358.5  43618.40  4259.73  9.77
2360.8  43103.20  4166.40  9.67
2363.1  42713.07  4084.74  9.56
2365.4  42295.90  4006.79  9.47
2367.7  41883.60  3925.40  9.37
2369.9  41397.47  3835.75  9.27
2372.2  40850.00  3739.09  9.15
2374.5  40341.26  3646.92  9.04
2376.7  39798.70  3559.54  8.94
2379.0  39245.05  3468.67  8.84
2381.3  38704.17  3371.67  8.71
2383.5  38253.60  3293.15  8.61
2385.8  37712.17  3202.50  8.49
2388.0  37246.70  3115.20  8.36
2390.3  36795.57  3031.93  8.24
2392.5  36366.00  2957.00  8.13
2394.8  35955.15  2876.78  8.00
2397.0  35532.47  2799.77  7.88
2399.3  35112.37  2730.08  7.78
2401.5  34725.69  2659.27  7.66
2403.8  34255.73  2576.24  7.52
2406.0  33798.17  2499.89  7.40
2408.2  33435.60  2441.39  7.30
2410.4  33065.23  2373.92  7.18
2412.7  32701.61  2302.84  7.04
2414.9  32371.35  2238.00  6.91
2417.1  32013.53  2178.05  6.80
2419.3  31648.00  2115.20  6.68
2421.6  31306.77  2056.98  6.57
2423.8  30964.40  2002.27  6.47
2426.0  30650.41  1938.85  6.33
2428.2  30327.73  1888.13  6.23
2430.4  30039.67  1832.82  6.10
2432.6  29796.67  1785.55  5.99
2434.8  29520.29  1734.33  5.88
2437.0  29197.35  1681.41  5.76
2439.2  28891.88  1633.26  5.65
2441.4  28623.19  1584.88  5.54
2443.6  28400.16  1538.26  5.42
2445.7  28158.87  1490.15  5.29
2447.9  27913.35  1450.81  5.20
2450.1  27646.89  1412.03  5.11
2452.3  27322.81  1366.97  5.00
2454.5  27012.16  1328.51  4.92
2456.6  26689.37  1282.81  4.81
2458.8  26372.78  1241.72  4.71
2461.0  26083.36  1201.39  4.61
2463.1  25804.43  1170.06  4.53
2465.3  25579.07  1135.30  4.44
2467.5  25362.63  1107.48  4.37
2469.6  25134.58  1082.70  4.31
2471.8  24852.59  1052.42  4.23
2473.9  24574.52  1018.13  4.14
2476.1  24259.09  989.63  4.08
2478.2  23946.80  960.97  4.01
2480.4  23673.54  941.47  3.98
2482.5  23364.35  913.52  3.91
2484.6  23063.33  889.55  3.86
2486.8  22823.88  873.97  3.83
2488.9  22534.66  848.36  3.76
2491.1  22225.23  818.46  3.68
2493.2  21882.32  801.00  3.66
2495.3  21540.79  782.96  3.63
2497.4  21227.85  759.38  3.58
2499.5  20925.05  744.44  3.56
2501.7  20808.71  732.66  3.52
2503.8  20720.31  727.17  3.51
2505.9  20662.29  717.50  3.47
2508.0  20652.15  715.26  3.46
2510.1  20650.78  704.90  3.41
2512.2  20735.50  704.95  3.40
2514.3  20853.19  702.38  3.37
2516.4  21014.98  710.84  3.38
