/*** Spectra Vista SIG Data ***/
name= 28_20220825_QUPA_23_avg.sig
comm= Averaged Ref/Tar of files: HR.082522.0005_moc.sig,HR.082522.0006_moc.sig,HR.082522.0007_moc.sig
data=
337.3  3424.13  259.94  7.59
338.8  3559.40  251.95  7.08
340.3  3748.00  249.87  6.67
341.8  3932.35  248.22  6.31
343.2  4129.20  249.48  6.04
344.7  4307.65  243.71  5.66
346.2  4534.35  233.43  5.15
347.7  4679.68  232.20  4.96
349.2  4876.20  216.00  4.43
350.6  5141.50  220.35  4.29
352.1  5465.93  221.15  4.05
353.6  5760.20  221.42  3.84
355.1  6061.50  218.09  3.60
356.6  6358.35  224.74  3.53
358.0  6635.20  233.94  3.53
359.5  6921.60  229.54  3.32
361.0  7241.85  230.85  3.19
362.5  7640.78  231.41  3.03
364.0  8000.33  240.32  3.00
365.4  8401.90  251.56  2.99
366.9  8784.75  252.57  2.88
368.4  9137.13  262.36  2.87
369.9  9512.80  267.67  2.81
371.3  9959.10  274.63  2.76
372.8  10381.05  290.79  2.80
374.3  10830.63  294.34  2.72
375.8  11265.10  300.30  2.67
377.2  11701.50  299.74  2.56
378.7  12131.90  304.87  2.51
380.2  12562.30  304.87  2.43
381.7  13080.10  311.43  2.38
383.1  13582.80  318.27  2.34
384.6  14134.90  331.41  2.34
386.1  14620.53  342.32  2.34
387.6  15092.00  341.37  2.26
389.0  15597.60  342.02  2.19
390.5  16115.85  348.94  2.17
392.0  16716.40  360.22  2.15
393.4  17288.95  375.36  2.17
394.9  17878.50  392.74  2.20
396.4  18423.00  394.29  2.14
397.9  19013.75  402.68  2.12
399.3  19576.23  407.61  2.08
400.8  20164.33  417.79  2.07
402.2  20842.95  430.21  2.06
403.7  21450.83  444.81  2.07
405.2  22112.45  455.46  2.06
406.6  22689.60  470.63  2.07
408.1  23345.80  479.98  2.06
409.6  23947.45  491.26  2.05
411.0  24659.25  506.30  2.05
412.5  25323.20  519.63  2.05
414.0  26018.88  533.63  2.05
415.4  26771.63  552.71  2.06
416.9  27466.88  565.40  2.06
418.4  28180.58  583.37  2.07
419.8  28919.80  601.47  2.08
421.3  29660.80  619.63  2.09
422.7  30484.80  638.00  2.09
424.2  31320.00  658.93  2.10
425.7  32111.00  676.84  2.11
427.1  32900.18  693.29  2.11
428.6  33712.50  714.48  2.12
430.0  34492.78  731.29  2.12
431.5  35387.18  751.94  2.12
432.9  36302.70  770.17  2.12
434.4  37230.68  792.65  2.13
435.9  38108.00  810.67  2.13
437.3  38995.00  835.48  2.14
438.8  39856.20  855.87  2.15
440.2  40748.40  877.80  2.15
441.7  41754.40  898.44  2.15
443.1  42691.50  926.24  2.17
444.6  43701.60  953.18  2.18
446.0  44672.93  978.69  2.19
447.5  45676.95  1008.15  2.21
448.9  46659.30  1033.23  2.21
450.4  47694.85  1060.67  2.22
451.8  48594.00  1087.05  2.24
453.3  49554.25  1115.73  2.25
454.7  50592.00  1146.85  2.27
456.2  51511.38  1172.62  2.28
457.6  52542.45  1199.81  2.28
459.1  53539.85  1223.36  2.28
460.5  54516.50  1248.33  2.29
462.0  55601.28  1275.22  2.29
463.4  56676.90  1306.07  2.30
464.8  57720.00  1334.64  2.31
466.3  58764.75  1359.76  2.31
467.7  59804.68  1388.73  2.32
469.2  60902.53  1415.54  2.32
470.6  61904.30  1439.79  2.33
472.0  62985.63  1471.84  2.34
473.5  64028.63  1499.94  2.34
474.9  65094.00  1529.50  2.35
476.4  66297.60  1564.80  2.36
477.8  67425.00  1590.86  2.36
479.2  68498.00  1625.38  2.37
480.7  69639.23  1659.80  2.38
482.1  70833.90  1691.34  2.39
483.6  72062.15  1727.12  2.40
485.0  73200.08  1764.57  2.41
486.4  74452.35  1802.82  2.42
487.9  75582.00  1838.57  2.43
489.3  76790.88  1883.40  2.45
490.7  77924.70  1931.08  2.48
492.2  79203.60  1986.60  2.51
493.6  80355.25  2039.84  2.54
495.0  81505.13  2097.64  2.57
496.5  82737.65  2160.72  2.61
497.9  83896.98  2230.60  2.66
499.3  85100.33  2307.47  2.71
500.7  86405.70  2401.20  2.78
502.2  87600.00  2502.86  2.86
503.6  88884.80  2623.83  2.95
505.0  90009.60  2754.20  3.06
506.5  91368.60  2908.57  3.18
507.9  92626.60  3087.84  3.33
509.3  94068.80  3298.29  3.51
510.7  95369.63  3533.68  3.71
512.2  96823.28  3810.37  3.94
513.6  98354.90  4125.97  4.19
515.0  99831.05  4480.20  4.49
516.4  101252.03  4878.90  4.82
517.8  102928.88  5331.18  5.18
519.3  104295.75  5810.96  5.57
520.7  105922.95  6339.90  5.99
522.1  107258.13  6882.35  6.42
523.5  108684.10  7450.40  6.86
524.9  110149.20  8023.24  7.28
526.3  111571.25  8581.30  7.69
527.8  113171.85  9150.43  8.09
529.2  114432.00  9694.93  8.47
530.6  116019.05  10241.61  8.83
532.0  117796.00  10768.00  9.14
533.4  119161.35  11219.41  9.42
534.8  120083.00  11597.70  9.66
536.3  121827.60  12031.40  9.88
537.7  123883.20  12470.40  10.07
539.1  125394.55  12839.13  10.24
540.5  126657.55  13160.89  10.39
541.9  128500.58  13541.25  10.54
543.3  129813.63  13863.54  10.68
544.7  131214.00  14192.46  10.82
546.1  133045.00  14565.15  10.95
547.5  134310.40  14866.13  11.07
549.0  136147.00  15216.67  11.18
550.4  137689.38  15505.42  11.26
551.8  139287.85  15772.46  11.32
553.2  140888.75  15992.83  11.35
554.6  142282.40  16141.79  11.34
556.0  143865.00  16249.50  11.29
557.4  145530.88  16313.50  11.21
558.8  147218.40  16334.27  11.10
560.2  148736.00  16292.70  10.95
561.6  150453.60  16236.19  10.79
563.0  152097.00  16135.49  10.61
564.4  153745.15  16004.85  10.41
565.8  155316.25  15830.24  10.19
567.2  157122.00  15641.76  9.96
568.6  158688.00  15391.75  9.70
570.0  160169.15  15093.24  9.42
571.4  161970.90  14801.74  9.14
572.8  163793.38  14504.88  8.86
574.2  165491.20  14214.40  8.59
575.6  167085.00  13931.79  8.34
577.0  168652.50  13677.31  8.11
578.4  170443.00  13465.83  7.90
579.8  171998.78  13259.64  7.71
581.2  173787.05  13096.29  7.54
582.5  175266.00  12934.63  7.38
583.9  176834.80  12801.31  7.24
585.3  178696.13  12712.05  7.11
586.7  180218.68  12617.09  7.00
588.1  181778.00  12544.18  6.90
589.5  183480.50  12502.00  6.81
590.9  185169.20  12480.30  6.74
592.3  187045.20  12497.41  6.68
593.7  188540.63  12510.83  6.64
595.0  190207.58  12541.63  6.59
596.4  191711.80  12571.37  6.56
597.8  193235.43  12599.32  6.52
599.2  194845.20  12617.94  6.48
600.6  196663.68  12630.83  6.42
602.0  198018.75  12590.09  6.36
603.3  199862.50  12546.01  6.28
604.7  201583.18  12461.18  6.18
606.1  203122.20  12326.68  6.07
607.5  204822.83  12175.76  5.94
608.9  206577.15  12006.73  5.81
610.2  208018.13  11805.75  5.68
611.6  209660.70  11614.16  5.54
613.0  211259.00  11414.12  5.40
614.4  212691.90  11214.59  5.27
615.8  214197.75  11030.04  5.15
617.1  215796.00  10875.20  5.04
618.5  217486.00  10753.26  4.94
619.9  219054.23  10655.03  4.86
621.3  220713.08  10589.83  4.80
622.6  222345.00  10547.19  4.74
624.0  223855.05  10523.66  4.70
625.4  225359.48  10514.19  4.67
626.8  226994.95  10536.28  4.64
628.1  228366.88  10563.25  4.63
629.5  230275.88  10627.93  4.62
630.9  231931.15  10688.07  4.61
632.2  233338.35  10734.67  4.60
633.6  235006.38  10770.81  4.58
635.0  236586.00  10772.11  4.55
636.3  238169.10  10735.89  4.51
637.7  239601.25  10659.98  4.45
639.1  241307.50  10556.67  4.37
640.4  242836.83  10413.10  4.29
641.8  244077.73  10226.46  4.19
643.2  245716.80  10045.93  4.09
644.5  247123.25  9848.05  3.99
645.9  248890.50  9664.29  3.88
647.2  250645.50  9490.27  3.79
648.6  252578.25  9349.71  3.70
650.0  254167.20  9207.77  3.62
651.3  254704.18  9058.26  3.56
652.7  256016.35  8925.84  3.49
654.0  258128.80  8811.05  3.41
655.4  259657.78  8663.17  3.34
656.8  259869.60  8463.86  3.26
658.1  261050.00  8275.77  3.17
659.5  263517.98  8114.10  3.08
660.8  265365.00  7943.57  2.99
662.2  266313.60  7754.67  2.91
663.5  268081.45  7600.62  2.84
664.9  269399.00  7469.80  2.77
666.2  270196.20  7351.37  2.72
667.6  272052.45  7288.58  2.68
668.9  273205.73  7248.76  2.65
670.3  274429.38  7236.71  2.64
671.6  276053.63  7257.00  2.63
673.0  277270.50  7307.57  2.64
674.3  278570.50  7375.09  2.65
675.7  279933.08  7459.25  2.66
677.0  281105.08  7564.01  2.69
678.4  282536.70  7704.56  2.73
679.7  283682.00  7868.17  2.77
681.1  285032.40  8064.73  2.83
682.4  286239.20  8303.29  2.90
683.8  287543.10  8600.05  2.99
685.1  288576.38  8957.47  3.10
686.4  289932.00  9425.49  3.25
687.8  291274.75  10046.40  3.45
689.1  292342.75  10855.88  3.71
690.5  293768.40  11951.93  4.07
691.8  294624.78  13377.98  4.54
693.1  296058.15  15251.00  5.15
694.5  297274.25  17567.33  5.91
695.8  298571.00  20362.33  6.82
697.1  299822.25  23603.67  7.87
698.5  300956.60  27259.46  9.06
699.8  302099.03  31285.02  10.36
701.1  303300.80  35599.75  11.74
702.5  304131.85  40068.13  13.17
703.8  305167.50  44676.43  14.64
705.1  306392.78  49343.54  16.10
706.5  307499.63  54019.64  17.57
707.8  308541.75  58663.43  19.01
709.1  309469.15  63218.02  20.43
710.5  310674.70  67765.94  21.81
711.8  311575.60  72184.04  23.17
713.1  312646.00  76563.33  24.49
714.4  313627.20  80834.31  25.77
715.8  314496.90  85003.35  27.03
717.1  315872.55  89210.56  28.24
718.4  316870.40  93207.47  29.42
719.7  318043.73  97134.81  30.54
721.0  318645.00  100757.14  31.62
722.4  319443.30  104314.15  32.65
723.7  320474.85  107801.06  33.64
725.0  321581.48  111157.71  34.57
726.3  322562.90  114329.34  35.44
727.6  323156.35  117203.11  36.27
729.0  324113.65  120046.22  37.04
730.3  324951.83  122679.39  37.75
731.6  325905.70  125215.04  38.42
732.9  326757.73  127571.38  39.04
734.2  327624.00  129789.13  39.62
735.5  328691.30  131948.36  40.14
736.8  329524.80  133889.20  40.63
738.1  330417.50  135715.58  41.07
739.5  331439.25  137477.47  41.48
740.8  332199.18  139018.00  41.85
742.1  332976.00  140490.77  42.19
743.4  333750.00  141864.28  42.51
744.7  334777.15  143248.15  42.79
746.0  335710.05  144495.00  43.04
747.3  336291.88  145507.09  43.27
748.6  337067.50  146537.12  43.47
749.9  337844.00  147504.19  43.66
751.2  338616.35  148404.99  43.83
752.5  339583.90  149333.93  43.98
753.8  340278.75  150082.73  44.11
755.1  341016.00  150800.00  44.22
756.4  341623.20  151424.35  44.32
757.7  342703.73  152201.02  44.41
759.0  344570.28  153311.35  44.49
760.3  345813.60  154110.63  44.56
761.6  347475.80  155060.27  44.62
762.9  348071.00  155509.21  44.68
764.2  348489.50  155858.60  44.72
765.5  348811.68  156147.88  44.77
766.8  349302.40  156485.49  44.80
768.1  349843.20  156850.65  44.83
769.3  350491.40  157236.33  44.86
770.6  351191.75  157640.66  44.89
771.9  351962.10  158064.43  44.91
773.2  352415.60  158325.94  44.93
774.5  353095.60  158691.87  44.94
775.8  353845.25  159078.90  44.96
777.1  354434.85  159406.08  44.97
778.4  354806.65  159629.22  44.99
779.6  355629.90  160047.89  45.00
780.9  356160.00  160328.57  45.02
782.2  356677.75  160604.45  45.03
783.5  357033.00  160796.00  45.04
784.8  357631.65  161085.58  45.04
786.0  358069.25  161318.43  45.05
787.3  358500.25  161538.69  45.06
788.6  358954.18  161789.21  45.07
789.9  359480.80  162051.87  45.08
791.2  360181.78  162387.93  45.08
792.4  360944.35  162745.76  45.09
793.7  361454.80  163007.90  45.10
795.0  362130.45  163329.65  45.10
796.2  362853.45  163673.73  45.11
797.5  363640.20  164034.28  45.11
798.8  364367.40  164386.69  45.12
800.0  365097.95  164743.75  45.12
801.3  365620.80  164990.75  45.13
802.6  366273.23  165309.94  45.13
803.8  366991.60  165630.56  45.13
805.1  367521.00  165883.25  45.14
806.4  368046.00  166134.14  45.14
807.7  368628.98  166413.54  45.14
808.9  369246.00  166702.29  45.15
810.2  369832.05  166976.33  45.15
811.4  370403.70  167236.10  45.15
812.7  371109.38  167560.71  45.15
814.0  371954.85  167974.30  45.16
815.2  372660.50  168300.21  45.16
816.5  373119.15  168520.23  45.17
817.7  373652.00  168767.79  45.17
819.0  374191.40  169041.19  45.18
820.2  374396.00  169144.38  45.18
821.5  375149.30  169508.41  45.18
822.7  375601.40  169703.64  45.18
824.0  375921.00  169869.34  45.19
825.2  376465.73  170136.26  45.19
826.5  376876.30  170316.07  45.19
827.7  377428.48  170598.52  45.20
829.0  377911.10  170806.65  45.20
830.2  378243.05  170983.97  45.20
831.5  378732.80  171240.76  45.21
832.7  379136.63  171403.85  45.21
834.0  379506.33  171574.29  45.21
835.2  379913.33  171781.76  45.22
836.4  380225.45  171959.75  45.23
837.7  380646.60  172195.98  45.24
838.9  381119.00  172442.45  45.25
840.1  381586.28  172637.04  45.24
841.4  382083.50  172878.46  45.25
842.6  382462.60  173091.73  45.26
843.8  382951.00  173305.31  45.26
845.1  383460.35  173590.27  45.27
846.3  383918.80  173820.65  45.28
847.5  384339.90  174029.00  45.28
848.8  384828.60  174258.34  45.28
850.0  385172.20  174459.37  45.29
851.2  385839.45  174759.43  45.29
852.5  386314.40  174987.86  45.30
853.7  386802.00  175261.50  45.31
854.9  387346.00  175504.94  45.31
856.1  387908.30  175740.56  45.30
857.4  388094.65  175860.54  45.31
858.6  388627.65  176116.67  45.32
859.8  389055.00  176351.25  45.33
861.0  389610.00  176616.52  45.33
862.2  390201.75  176881.98  45.33
863.5  390584.35  177065.73  45.33
864.7  391168.80  177337.60  45.34
865.9  391662.40  177544.11  45.33
867.1  391956.90  177719.89  45.34
868.3  392513.40  177950.53  45.34
869.5  393077.40  178245.81  45.35
870.8  393745.50  178529.14  45.34
872.0  394357.50  178782.76  45.34
873.2  394813.80  179008.16  45.34
874.4  395269.88  179235.64  45.35
875.6  395763.78  179417.77  45.33
876.8  396314.10  179688.20  45.34
878.0  396900.65  179948.82  45.34
879.2  397463.85  180224.23  45.34
880.4  398055.00  180470.72  45.34
881.6  398601.98  180684.42  45.33
882.8  399067.20  180901.33  45.33
884.0  399716.78  181205.60  45.33
885.2  400350.50  181488.89  45.33
886.5  401068.90  181787.10  45.33
887.7  401601.53  182047.70  45.33
888.8  402340.20  182376.14  45.33
890.0  402989.55  182663.59  45.33
891.2  403659.60  182911.32  45.31
892.4  404331.38  183199.15  45.31
893.6  405055.40  183477.93  45.30
894.8  405955.75  183918.95  45.31
896.0  406925.00  184359.24  45.31
897.2  407936.75  184765.90  45.29
898.4  408688.50  185124.03  45.30
899.6  409371.38  185431.71  45.30
900.8  409892.40  185618.28  45.28
902.0  410153.25  185736.50  45.28
903.2  410441.55  185898.16  45.29
904.3  410893.20  186058.51  45.28
905.5  411555.55  186387.47  45.29
906.7  412345.50  186648.05  45.26
907.9  413043.05  186948.77  45.26
909.1  413500.28  187095.80  45.25
910.2  413658.53  187224.28  45.26
911.4  413861.18  187357.11  45.27
912.6  414242.40  187430.10  45.25
913.8  414652.13  187571.92  45.24
915.0  414958.95  187817.70  45.26
916.2  415359.75  187903.86  45.24
917.3  415488.15  187891.63  45.22
918.5  415929.70  188050.25  45.21
919.7  416224.20  188191.67  45.21
920.8  416235.23  188224.04  45.22
922.0  416512.25  188290.67  45.21
923.2  416734.50  188357.00  45.20
924.4  417062.25  188453.57  45.19
925.5  417392.50  188589.92  45.18
926.7  418155.38  188884.16  45.17
927.9  419050.80  189246.97  45.16
929.0  420554.70  189921.60  45.16
930.2  422981.80  190927.20  45.14
931.4  425659.05  192042.00  45.12
932.5  428633.90  193272.16  45.09
933.7  430177.50  193890.94  45.07
934.9  430911.25  194188.33  45.06
936.0  430499.88  193964.49  45.06
937.2  428515.50  192946.21  45.03
938.3  426733.95  192079.23  45.01
939.5  425199.60  191308.80  44.99
940.7  425452.50  191382.00  44.98
941.8  427159.88  192048.61  44.96
943.0  428766.00  192634.00  44.93
944.2  429775.45  192930.59  44.89
945.3  429409.50  192677.64  44.87
946.5  428592.60  192242.96  44.85
947.6  428884.30  192207.44  44.82
948.8  428795.25  192047.79  44.79
949.9  429147.60  191985.60  44.74
951.1  428922.98  191701.90  44.69
952.2  428808.00  191449.14  44.65
953.4  428385.75  191143.72  44.62
954.5  428571.00  190944.00  44.55
955.7  428400.00  190740.00  44.52
956.8  428391.40  190465.35  44.46
958.0  427938.00  190194.66  44.44
959.1  427974.60  189974.46  44.39
960.3  427753.50  189718.42  44.35
961.4  427584.65  189538.74  44.33
962.6  427953.75  189493.83  44.28
963.7  427601.48  189390.90  44.29
964.9  427746.60  189272.85  44.25
966.0  427424.85  189207.32  44.27
967.2  427658.85  189156.56  44.23
968.3  427647.60  189014.65  44.20
969.5  427470.18  188832.94  44.17
970.6  427601.73  188853.65  44.17
971.8  427578.90  188922.92  44.18
972.9  427436.03  188851.52  44.18
974.0  427580.80  188959.92  44.19
975.2  427429.63  188820.81  44.18
976.3  427361.80  188754.87  44.17
977.5  427337.75  188727.33  44.16
978.6  427306.80  188656.68  44.15
979.7  427698.08  188739.70  44.13
980.9  427476.90  188701.37  44.14
982.0  427155.50  188551.78  44.14
983.2  427133.30  188506.99  44.13
984.3  426883.00  188310.17  44.11
985.4  426409.78  188339.94  44.17
986.6  426816.88  188331.67  44.12
987.7  427859.60  188896.78  44.15
988.9  427428.00  188829.94  44.18
990.0  428615.30  188924.78  44.08
993.1  374572.33  163532.53  43.66
996.9  374978.93  164072.47  43.76
1000.7  375953.78  164861.51  43.85
1004.5  376537.42  165395.79  43.93
1008.4  376282.25  165635.74  44.02
1012.2  376202.21  165941.45  44.11
1016.0  376198.20  166214.74  44.18
1019.8  376275.90  166510.58  44.25
1023.7  376191.63  166666.90  44.30
1027.5  375806.15  166713.97  44.36
1031.3  375996.05  166946.99  44.40
1035.1  375828.95  167012.65  44.44
1038.9  375816.47  167130.60  44.47
1042.7  375676.75  167191.27  44.50
1046.5  375578.00  167225.31  44.52
1050.3  375642.35  167318.25  44.54
1054.2  375359.25  167276.83  44.56
1058.0  374820.43  167093.38  44.58
1061.8  374685.89  167096.43  44.60
1065.6  374425.57  166959.59  44.59
1069.4  374423.60  166964.59  44.59
1073.2  373961.93  166734.91  44.59
1077.0  373420.93  166471.47  44.58
1080.8  372921.88  166171.73  44.56
1084.6  371906.73  165656.40  44.54
1088.4  371344.18  165343.62  44.53
1092.2  370509.75  164898.96  44.51
1096.0  369900.01  164525.66  44.48
1099.8  369409.08  164173.25  44.44
1103.6  368755.37  163741.41  44.40
1107.4  367825.68  163155.55  44.36
1111.2  367579.00  162899.74  44.32
1114.9  366917.25  162416.33  44.27
1118.7  366312.38  161903.19  44.20
1122.5  365628.47  161299.79  44.12
1126.3  364526.05  160448.89  44.02
1130.1  364020.26  159680.90  43.87
1133.9  362444.60  158212.00  43.65
1137.7  361007.90  156645.17  43.39
1141.4  359214.16  154749.45  43.08
1145.2  358484.52  153160.11  42.72
1149.0  357347.08  151505.42  42.40
1152.8  355729.50  149737.47  42.09
1156.6  354046.00  148212.35  41.86
1160.3  352322.33  146893.38  41.69
1164.1  349905.10  145486.55  41.58
1167.9  348138.54  144496.13  41.51
1171.7  346815.00  143775.00  41.46
1175.4  345618.23  143137.49  41.41
1179.2  344534.90  142531.09  41.37
1183.0  344208.00  142223.14  41.32
1186.7  343696.27  141857.87  41.27
1190.5  342718.00  141325.06  41.24
1194.3  341538.27  140769.86  41.22
1198.0  340275.10  140240.06  41.21
1201.8  338753.48  139629.26  41.22
1205.6  337523.67  139187.71  41.24
1209.3  336612.82  138959.76  41.28
1213.1  335680.73  138738.58  41.33
1216.8  334775.10  138586.99  41.40
1220.6  333666.67  138374.13  41.47
1224.3  332439.42  138090.13  41.54
1228.1  331177.40  137825.92  41.62
1231.9  329912.53  137507.26  41.68
1235.6  328439.78  137070.20  41.73
1239.4  327073.63  136686.21  41.79
1243.1  325808.38  136298.01  41.83
1246.9  324593.91  135883.95  41.86
1250.6  323589.07  135537.57  41.89
1254.3  322519.08  135146.64  41.90
1258.1  321504.17  134757.43  41.91
1261.8  320198.93  134238.82  41.92
1265.6  318768.02  133627.42  41.92
1269.3  317326.83  132984.56  41.91
1273.1  317318.82  132902.26  41.88
1276.8  317553.20  132889.20  41.85
1280.6  317333.30  132668.20  41.81
1284.3  315880.40  131912.23  41.76
1288.0  314406.18  131102.73  41.70
1291.8  313106.85  130304.57  41.62
1295.5  311760.53  129451.56  41.52
1299.2  310498.85  128582.52  41.41
1302.9  309076.22  127557.99  41.27
1306.7  307509.30  126425.37  41.11
1310.4  306009.50  125199.31  40.91
1314.1  304576.80  123959.31  40.70
1317.9  303315.00  122661.72  40.44
1321.6  301873.61  121212.14  40.15
1325.3  300237.00  119559.75  39.82
1329.0  298880.87  117969.87  39.47
1332.8  296758.00  115981.80  39.08
1336.5  294936.73  114098.70  38.69
1340.2  294582.17  112762.00  38.28
1343.9  294159.58  111385.83  37.87
1347.6  293519.10  109931.17  37.45
1351.4  293740.50  108856.50  37.06
1355.1  294079.87  107864.27  36.68
1358.8  294256.00  106758.86  36.28
1362.5  293786.53  105326.98  35.85
1366.2  292072.75  103263.10  35.36
1369.9  290131.50  100885.62  34.77
1373.6  288059.45  98077.16  34.05
1377.3  286184.10  94809.43  33.13
1381.0  285018.33  91055.29  31.95
1384.8  283026.25  86231.79  30.47
1388.4  280603.40  80775.20  28.79
1392.2  278708.08  75047.13  26.93
1395.9  277120.33  69225.71  24.98
1399.6  275472.00  63614.08  23.09
1403.3  274258.03  58560.22  21.35
1407.0  273117.20  54149.30  19.83
1410.7  271914.23  50455.59  18.56
1414.3  270688.37  47480.27  17.54
1418.1  269500.33  45189.06  16.77
1421.7  268555.88  43465.14  16.18
1425.4  267587.45  42191.73  15.77
1429.1  266694.75  41290.66  15.48
1432.8  265177.42  40592.15  15.31
1436.5  264373.95  40209.30  15.21
1440.2  263528.10  40004.11  15.18
1443.9  262227.44  39844.57  15.19
1447.6  260614.20  39732.00  15.25
1451.2  259520.25  39745.93  15.32
1454.9  258246.90  39781.74  15.40
1458.6  257146.91  39936.86  15.53
1462.3  255957.53  40205.58  15.71
1466.0  254604.52  40586.87  15.94
1469.7  252916.84  41081.73  16.24
1473.3  251884.83  41810.93  16.60
1477.0  249984.90  42504.79  17.00
1480.7  248382.34  43308.91  17.44
1484.4  246451.18  44064.95  17.88
1488.0  244904.00  44921.90  18.34
1491.7  243301.45  45749.04  18.80
1495.4  241580.98  46559.63  19.27
1499.0  239975.00  47354.93  19.73
1502.7  238667.92  48203.15  20.20
1506.4  237257.10  48990.64  20.65
1510.0  235843.20  49749.72  21.09
1513.7  234354.75  50451.63  21.53
1517.4  233017.00  51147.47  21.95
1521.0  231790.53  51832.84  22.36
1524.7  230572.33  52454.38  22.75
1528.3  229291.13  53027.27  23.13
1532.0  228068.87  53572.75  23.49
1535.7  226692.70  54024.84  23.83
1539.3  225428.98  54475.20  24.17
1543.0  224441.52  54964.70  24.49
1546.6  223741.92  55494.37  24.80
1550.3  222748.70  55906.95  25.10
1553.9  221670.53  56267.65  25.38
1557.6  220411.40  56555.40  25.66
1561.2  219140.55  56788.46  25.91
1564.9  217839.14  56999.33  26.17
1568.5  216496.70  57175.53  26.41
1572.2  215344.35  57376.19  26.64
1575.8  214256.00  57586.00  26.88
1579.5  213262.30  57792.09  27.10
1583.1  212241.17  57993.78  27.32
1586.8  211008.00  58110.00  27.54
1590.4  209924.63  58252.37  27.75
1594.0  208603.31  58313.56  27.95
1597.7  207463.56  58419.95  28.16
1601.3  206175.38  58477.95  28.36
1604.9  204878.74  58514.64  28.56
1608.6  203569.37  58506.27  28.74
1612.2  202492.95  58542.35  28.91
1615.8  201337.83  58533.29  29.07
1619.5  200233.00  58511.63  29.22
1623.1  198941.20  58420.57  29.37
1626.7  197690.35  58315.68  29.50
1630.3  196489.42  58201.49  29.62
1634.0  195342.00  58092.00  29.74
1637.6  194345.07  57978.78  29.83
1641.2  193328.00  57817.75  29.91
1644.8  192099.07  57547.89  29.96
1648.5  191012.54  57284.64  29.99
1652.1  190039.80  57002.27  29.99
1655.7  189115.60  56690.46  29.98
1659.3  188235.04  56380.51  29.95
1662.9  186787.50  55887.50  29.92
1666.6  185328.33  55394.53  29.89
1670.2  183911.12  54905.83  29.85
1673.8  182451.33  54385.61  29.81
1677.4  181287.15  53929.92  29.75
1681.0  180483.73  53535.27  29.66
1684.6  180083.58  53214.88  29.55
1688.2  179407.85  52735.03  29.39
1691.8  178764.81  52305.99  29.26
1695.4  178323.60  51915.20  29.11
1699.0  177945.13  51547.03  28.97
1702.6  177604.33  51172.05  28.81
1706.2  177006.38  50709.10  28.65
1709.8  176087.24  50160.03  28.49
1713.4  175358.43  49664.16  28.32
1717.0  174492.50  49138.57  28.16
1720.6  173694.90  48639.30  28.00
1724.2  172995.68  48169.37  27.84
1727.8  172277.35  47723.55  27.70
1731.4  171789.75  47354.21  27.57
1735.0  171552.70  47073.85  27.44
1738.6  171294.15  46756.12  27.30
1742.2  170669.21  46321.18  27.14
1745.8  169995.94  45848.41  26.97
1749.4  168992.18  45264.92  26.79
1753.0  167464.87  44536.28  26.59
1756.6  165790.63  43782.42  26.41
1760.1  164481.38  43135.32  26.23
1763.7  162763.33  42409.81  26.06
1767.3  161325.43  41802.79  25.91
1770.9  160087.90  41260.86  25.77
1774.5  158647.12  40695.79  25.65
1778.0  157492.01  40231.87  25.55
1781.6  156393.45  39814.20  25.46
1785.2  155238.30  39410.57  25.39
1788.8  154065.30  39052.91  25.35
1792.3  152836.03  38699.20  25.32
1795.9  152314.07  38547.69  25.31
1799.5  151810.00  38425.86  25.31
1803.1  151225.43  38299.57  25.33
1806.6  151805.62  38468.62  25.34
1810.2  153008.33  38785.83  25.35
1813.8  153955.10  39027.87  25.35
1817.3  153925.80  39018.89  25.35
1820.9  153097.73  38800.97  25.34
1824.5  151879.20  38470.39  25.33
1828.0  150980.04  38194.55  25.30
1831.6  150192.53  37920.78  25.25
1835.2  149486.67  37620.60  25.17
1838.7  149082.93  37319.52  25.03
1842.3  148725.00  36960.00  24.85
1845.8  147946.88  36391.98  24.60
1849.4  147430.33  35760.52  24.26
1852.9  146764.57  34936.42  23.80
1856.5  145871.95  33861.12  23.21
1860.0  145103.87  32584.86  22.46
1863.6  144832.43  31193.62  21.54
1867.1  144677.40  29578.85  20.44
1870.7  144644.83  27614.74  19.09
1874.2  143891.55  25160.53  17.49
1877.8  142618.07  22476.57  15.76
1881.3  141084.38  19683.97  13.95
1884.9  140053.01  17056.59  12.18
1888.4  138974.06  14554.98  10.47
1891.9  137852.73  12369.04  8.97
1895.5  136667.08  10580.15  7.74
1899.0  135966.75  9257.05  6.81
1901.3  170149.00  7743.06  4.55
1904.1  170054.25  6901.50  4.06
1906.8  169284.60  6232.20  3.68
1909.6  167513.85  5732.07  3.42
1912.4  165832.57  5348.00  3.22
1915.1  164570.45  5080.72  3.09
1917.9  163153.17  4859.00  2.98
1920.6  161979.80  4713.98  2.91
1923.3  160829.20  4627.62  2.88
1926.1  159355.97  4555.85  2.86
1928.8  157974.67  4527.11  2.87
1931.6  156846.80  4531.87  2.89
1934.3  155787.02  4552.82  2.92
1937.0  154788.37  4603.81  2.97
1939.8  153687.67  4668.08  3.04
1942.5  152339.00  4741.00  3.11
1945.2  150615.85  4827.90  3.21
1947.9  149255.87  4926.37  3.30
1950.7  148170.10  5055.88  3.41
1953.4  146468.35  5169.73  3.53
1956.1  145139.08  5314.14  3.66
1958.8  143951.82  5468.88  3.80
1961.5  142517.20  5621.20  3.94
1964.2  141031.80  5772.43  4.09
1966.9  139487.65  5930.77  4.25
1969.6  138267.00  6117.00  4.42
1972.3  136890.90  6301.20  4.60
1975.0  135829.80  6504.75  4.79
1977.7  134727.48  6712.42  4.98
1980.4  133595.23  6916.90  5.18
1983.1  132493.33  7136.04  5.39
1985.8  131587.50  7360.20  5.59
1988.4  130572.00  7580.44  5.81
1991.1  129629.50  7801.66  6.02
1993.8  128758.85  8027.86  6.23
1996.5  128121.22  8272.00  6.46
1999.1  127449.12  8513.27  6.68
2001.8  126763.23  8742.69  6.90
2004.5  126082.40  8972.93  7.12
2007.1  125373.10  9183.42  7.32
2009.8  124630.80  9390.19  7.53
2012.4  124036.92  9601.84  7.74
2015.1  123491.20  9804.59  7.94
2017.8  122705.57  9971.50  8.13
2020.4  122192.95  10156.18  8.31
2023.1  121833.60  10345.61  8.49
2025.7  121610.67  10527.11  8.66
2028.3  121272.67  10688.89  8.81
2031.0  120872.00  10831.01  8.96
2033.6  120599.40  10973.60  9.10
2036.2  120364.50  11101.20  9.22
2038.9  119772.90  11194.00  9.35
2041.5  119400.90  11302.61  9.47
2044.1  118850.70  11368.00  9.56
2046.8  118476.60  11449.20  9.66
2049.4  117850.20  11507.20  9.76
2052.0  117568.13  11592.04  9.86
2054.6  117188.75  11660.83  9.95
2057.2  116616.20  11714.31  10.05
2059.8  116275.60  11801.65  10.15
2062.4  115391.23  11834.33  10.26
2065.0  114887.00  11903.54  10.36
2067.6  113987.85  11927.31  10.46
2070.2  113395.12  11973.79  10.56
2072.8  112758.80  12026.09  10.67
2075.4  112332.50  12092.50  10.76
2078.0  111697.65  12138.57  10.87
2080.6  111126.40  12185.07  10.97
2083.2  110433.70  12223.66  11.07
2085.8  109949.77  12276.17  11.17
2088.4  109277.17  12304.83  11.26
2090.9  108480.27  12313.95  11.35
2093.5  107610.83  12317.17  11.45
2096.1  106849.25  12331.80  11.54
2098.7  106067.53  12340.58  11.63
2101.2  105105.67  12334.38  11.74
2103.8  104433.20  12348.93  11.82
2106.4  103760.73  12369.31  11.92
2108.9  103097.00  12395.51  12.02
2111.5  102258.60  12389.69  12.12
2114.0  101629.80  12415.89  12.22
2116.6  101115.00  12445.42  12.31
2119.1  100553.67  12463.28  12.39
2121.7  100065.00  12489.17  12.48
2124.2  99650.70  12521.72  12.57
2126.8  98865.20  12507.47  12.65
2129.3  98454.40  12525.33  12.72
2131.9  97873.60  12528.27  12.80
2134.4  97447.35  12546.35  12.88
2136.9  97059.30  12561.04  12.94
2139.4  96531.40  12561.11  13.01
2142.0  96079.20  12569.98  13.08
2144.5  95817.40  12599.43  13.15
2147.0  95577.73  12640.67  13.23
2149.5  95077.47  12640.66  13.30
2152.1  94917.90  12681.47  13.36
2154.6  94864.53  12735.64  13.43
2157.1  94339.50  12716.67  13.48
2159.6  93921.67  12707.59  13.53
2162.1  93748.20  12736.97  13.59
2164.6  93497.93  12756.22  13.64
2167.1  93174.10  12764.83  13.70
2169.6  92857.92  12774.30  13.76
2172.1  92416.43  12766.62  13.81
2174.6  92092.13  12775.64  13.87
2177.1  91654.35  12780.05  13.94
2179.5  91228.80  12782.47  14.01
2182.0  90751.10  12768.98  14.07
2184.5  90220.75  12745.69  14.13
2187.0  89597.80  12725.57  14.20
2189.5  88915.73  12688.70  14.27
2191.9  88150.50  12641.33  14.34
2194.4  87525.75  12609.18  14.41
2196.9  86774.40  12553.60  14.47
2199.3  86110.67  12508.67  14.53
2201.8  85234.80  12426.22  14.58
2204.3  84776.73  12404.99  14.63
2206.7  84119.00  12348.62  14.68
2209.2  83652.53  12317.93  14.73
2211.6  83031.30  12259.50  14.76
2214.1  82734.25  12238.50  14.79
2216.5  82158.60  12174.95  14.82
2219.0  81810.93  12135.22  14.83
2221.4  81435.67  12081.81  14.84
2223.9  80979.50  11992.56  14.81
2226.3  80453.92  11893.39  14.78
2228.7  79906.75  11771.05  14.73
2231.1  79308.90  11625.90  14.66
2233.6  78721.67  11473.00  14.57
2236.0  78163.17  11308.30  14.47
2238.4  77667.33  11139.72  14.34
2240.9  77221.73  10976.33  14.21
2243.3  76675.40  10794.22  14.08
2245.7  76107.55  10593.43  13.92
2248.1  75617.10  10398.55  13.75
2250.5  75104.62  10199.64  13.58
2252.9  74500.83  9986.60  13.40
2255.3  73958.35  9767.58  13.21
2257.7  73480.00  9583.33  13.04
2260.1  72982.47  9394.55  12.87
2262.5  72370.00  9193.33  12.70
2264.9  71850.05  9004.97  12.53
2267.3  71240.00  8820.00  12.38
2269.7  70745.03  8655.42  12.23
2272.1  70196.80  8484.12  12.09
2274.5  69623.77  8332.76  11.97
2276.8  69155.07  8193.63  11.85
2279.2  68561.10  8043.35  11.73
2281.6  68141.27  7925.82  11.63
2284.0  67670.00  7803.93  11.53
2286.3  67204.27  7684.44  11.43
2288.7  66802.67  7569.61  11.33
2291.1  66271.07  7436.22  11.22
2293.4  65799.07  7323.56  11.13
2295.8  65188.70  7185.97  11.02
2298.2  64604.70  7055.25  10.92
2300.5  63942.30  6910.35  10.81
2302.9  63188.33  6761.44  10.70
2305.2  62459.20  6619.47  10.60
2307.6  61796.83  6485.75  10.50
2309.9  61018.33  6355.00  10.41
2312.2  60419.00  6248.22  10.34
2314.6  59802.30  6158.25  10.30
2316.9  59108.85  6040.95  10.22
2319.2  58530.20  5953.92  10.17
2321.6  57876.70  5849.28  10.11
2323.9  57312.50  5763.89  10.06
2326.2  56799.07  5665.30  9.97
2328.6  56283.70  5569.85  9.90
2330.9  55765.50  5470.50  9.81
2333.2  55287.33  5383.39  9.74
2335.5  54837.50  5292.93  9.65
2337.8  54380.35  5204.76  9.57
2340.1  53798.05  5107.71  9.49
2342.4  53354.17  5019.44  9.41
2344.8  52913.08  4934.33  9.33
2347.1  52354.87  4836.30  9.24
2349.4  51800.37  4744.51  9.16
2351.6  51227.50  4656.38  9.09
2353.9  50731.27  4575.16  9.02
2356.2  50213.98  4498.55  8.96
2358.5  49604.80  4409.07  8.89
2360.8  49033.60  4326.93  8.82
2363.1  48601.82  4254.86  8.75
2365.4  48104.10  4173.47  8.68
2367.7  47629.20  4104.00  8.62
2369.9  47082.40  4007.50  8.51
2372.2  46462.93  3910.13  8.42
2374.5  45865.05  3823.05  8.34
2376.7  45246.92  3728.95  8.24
2379.0  44613.83  3645.11  8.17
2381.3  43995.00  3558.33  8.09
2383.5  43483.73  3480.89  8.01
2385.8  42865.97  3392.72  7.91
2388.0  42338.40  3292.20  7.78
2390.3  41830.00  3219.82  7.70
2392.5  41352.00  3136.00  7.58
2394.8  40861.70  3061.30  7.49
2397.0  40391.87  2984.80  7.39
2399.3  39924.78  2907.76  7.28
2401.5  39481.75  2833.83  7.18
2403.8  38932.98  2754.83  7.08
2406.0  38417.17  2673.72  6.96
2408.2  38010.87  2601.38  6.84
2410.4  37574.83  2534.12  6.74
2412.7  37172.20  2471.44  6.65
2414.9  36811.50  2395.07  6.51
2417.1  36398.20  2336.80  6.42
2419.3  35980.80  2269.87  6.31
2421.6  35585.42  2204.44  6.19
2423.8  35204.50  2130.85  6.05
2426.0  34847.27  2085.99  5.99
2428.2  34456.80  2020.98  5.87
2430.4  34142.00  1962.94  5.75
2432.6  33853.33  1902.22  5.62
2434.8  33536.97  1853.51  5.53
2437.0  33166.90  1804.54  5.44
2439.2  32831.98  1743.65  5.31
2441.4  32515.50  1690.53  5.20
2443.6  32275.73  1662.60  5.15
2445.7  31987.20  1615.10  5.05
2447.9  31702.17  1563.31  4.93
2450.1  31401.75  1508.03  4.80
2452.3  31014.32  1454.01  4.69
2454.5  30664.37  1418.33  4.63
2456.6  30288.13  1383.87  4.57
2458.8  29929.90  1334.67  4.46
2461.0  29611.83  1297.50  4.38
2463.1  29303.70  1261.00  4.30
2465.3  29032.53  1224.32  4.22
2467.5  28762.50  1194.75  4.15
2469.6  28520.67  1168.47  4.10
2471.8  28216.32  1126.25  3.99
2473.9  27874.00  1096.06  3.93
2476.1  27512.33  1066.72  3.88
2478.2  27161.03  1040.94  3.83
2480.4  26877.85  1007.98  3.75
2482.5  26507.47  990.93  3.74
2484.6  26164.42  960.97  3.67
2486.8  25889.30  947.23  3.66
2488.9  25569.00  915.43  3.58
2491.1  25212.13  899.11  3.57
2493.2  24812.20  872.85  3.52
2495.3  24418.77  849.76  3.48
2497.4  24069.50  831.83  3.46
2499.5  23757.13  809.17  3.41
2501.7  23631.13  805.23  3.41
2503.8  23520.35  791.25  3.36
2505.9  23421.25  791.53  3.38
2508.0  23402.27  794.09  3.39
2510.1  23409.28  786.87  3.36
2512.2  23524.70  789.05  3.35
2514.3  23672.22  778.32  3.29
2516.4  23817.30  781.43  3.28
