/*** Spectra Vista SIG Data ***/
name= 7_20220720_TITO_9_avg.sig
comm= Averaged Ref/Tar of files: 6_20220720_TITO_9_1_avg.sig,7_20220720_TITO_9_2_avg.sig
data=
337.3  3159.46  296.33  9.38
338.8  3286.84  289.52  8.81
340.3  3466.90  284.23  8.20
341.8  3658.00  284.80  7.79
343.2  3855.40  276.55  7.17
344.7  3994.89  271.34  6.79
346.2  4166.70  271.95  6.53
347.7  4365.08  272.66  6.25
349.2  4536.00  276.84  6.10
350.6  4762.01  274.92  5.77
352.1  5043.18  269.81  5.35
353.6  5314.89  273.31  5.14
355.1  5567.60  281.27  5.05
356.6  5850.34  284.99  4.87
358.0  6124.80  295.00  4.82
359.5  6406.60  304.88  4.76
361.0  6693.23  306.95  4.59
362.5  7026.00  314.50  4.48
364.0  7355.14  318.43  4.33
365.4  7704.09  326.23  4.23
366.9  8038.88  340.18  4.23
368.4  8364.34  350.42  4.19
369.9  8675.03  363.43  4.19
371.3  9060.20  378.63  4.18
372.8  9456.23  391.17  4.14
374.3  9863.13  397.24  4.03
375.8  10254.48  406.82  3.97
377.2  10638.95  410.42  3.86
378.7  11015.55  421.95  3.83
380.2  11369.74  433.73  3.81
381.7  11832.45  444.50  3.76
383.1  12266.74  450.20  3.67
384.6  12741.19  464.23  3.64
386.1  13165.68  468.18  3.56
387.6  13560.34  480.48  3.54
389.0  13998.54  494.91  3.54
390.5  14443.20  504.96  3.50
392.0  14961.89  516.91  3.45
393.4  15471.60  531.51  3.44
394.9  15973.20  541.64  3.39
396.4  16447.88  552.49  3.36
397.9  16963.75  567.66  3.35
399.3  17465.81  582.72  3.34
400.8  17966.78  600.34  3.34
402.2  18572.08  612.11  3.30
403.7  19127.59  621.60  3.25
405.2  19689.71  634.04  3.22
406.6  20207.20  647.39  3.20
408.1  20761.87  663.80  3.20
409.6  21324.43  681.50  3.20
411.0  21954.92  696.21  3.17
412.5  22567.36  715.19  3.17
414.0  23162.98  731.17  3.16
415.4  23826.82  750.14  3.15
416.9  24450.34  768.07  3.14
418.4  25102.32  786.66  3.13
419.8  25759.07  806.17  3.13
421.3  26428.54  826.06  3.13
422.7  27155.60  850.28  3.13
424.2  27891.57  876.38  3.14
425.7  28592.92  898.83  3.14
427.1  29297.35  922.98  3.15
428.6  30028.67  946.68  3.15
430.0  30711.68  966.86  3.15
431.5  31526.58  993.72  3.15
432.9  32342.32  1021.45  3.16
434.4  33171.93  1049.27  3.16
435.9  33950.00  1073.33  3.16
437.3  34725.63  1101.70  3.17
438.8  35500.89  1126.60  3.17
440.2  36301.65  1153.85  3.18
441.7  37193.94  1186.73  3.19
443.1  38040.75  1213.95  3.19
444.6  38941.94  1246.38  3.20
446.0  39811.63  1273.77  3.20
447.5  40698.68  1307.40  3.21
448.9  41559.50  1338.90  3.22
450.4  42476.00  1374.06  3.23
451.8  43285.67  1401.40  3.24
453.3  44136.84  1432.53  3.25
454.7  45076.07  1466.44  3.25
456.2  45884.14  1495.06  3.26
457.6  46778.89  1529.41  3.27
459.1  47681.29  1561.18  3.27
460.5  48551.25  1589.08  3.27
462.0  49517.28  1622.10  3.28
463.4  50470.80  1651.96  3.27
464.8  51388.38  1682.58  3.27
466.3  52292.22  1714.66  3.28
467.7  53210.54  1749.06  3.29
469.2  54195.79  1782.97  3.29
470.6  55101.76  1812.99  3.29
472.0  56056.04  1845.97  3.29
473.5  56980.25  1876.21  3.29
474.9  57916.75  1907.88  3.29
476.4  58982.40  1945.10  3.30
477.8  59979.25  1981.53  3.30
479.2  60924.17  2018.13  3.31
480.7  61938.53  2055.45  3.32
482.1  62987.55  2092.36  3.32
483.6  64068.89  2131.86  3.33
485.0  65067.54  2169.05  3.33
486.4  66161.28  2208.00  3.34
487.9  67158.00  2249.88  3.35
489.3  68243.02  2296.68  3.37
490.7  69227.14  2342.40  3.38
492.2  70356.65  2393.02  3.40
493.6  71379.69  2442.37  3.42
495.0  72393.75  2492.24  3.44
496.5  73482.62  2547.86  3.47
497.9  74487.86  2604.47  3.50
499.3  75549.35  2669.87  3.53
500.7  76692.75  2745.83  3.58
502.2  77747.44  2823.36  3.63
503.6  78886.24  2911.24  3.69
505.0  79854.71  3001.58  3.76
506.5  81058.12  3116.12  3.84
507.9  82150.27  3237.22  3.94
509.3  83422.67  3383.42  4.06
510.7  84581.25  3537.72  4.18
512.2  85846.40  3722.28  4.34
513.6  87202.56  3927.26  4.50
515.0  88503.21  4159.39  4.70
516.4  89758.47  4409.91  4.91
517.8  91235.73  4696.90  5.15
519.3  92439.91  4988.18  5.40
520.7  93868.05  5311.17  5.66
522.1  95046.31  5630.46  5.92
523.5  96294.57  5959.00  6.19
524.9  97575.60  6288.26  6.44
526.3  98861.94  6609.34  6.69
527.8  100296.90  6930.71  6.91
529.2  101367.19  7215.57  7.12
530.6  102604.64  7497.08  7.31
532.0  104185.67  7783.74  7.47
533.4  105461.92  8024.25  7.61
534.8  106267.29  8207.18  7.72
536.3  107790.25  8421.98  7.81
537.7  109611.60  8644.92  7.89
539.1  110972.25  8827.05  7.95
540.5  112113.20  8986.89  8.02
541.9  113791.64  9183.61  8.07
543.3  114966.76  9337.61  8.12
544.7  116270.50  9503.59  8.17
546.1  117898.92  9693.28  8.22
547.5  118986.94  9830.94  8.26
549.0  120549.00  9996.70  8.29
550.4  121879.38  10132.00  8.31
551.8  123247.75  10251.45  8.32
553.2  124669.96  10345.41  8.30
554.6  125907.60  10396.44  8.26
556.0  127291.20  10425.02  8.19
557.4  128752.75  10426.48  8.10
558.8  130237.50  10397.81  7.98
560.2  131551.54  10327.38  7.85
561.6  133049.07  10241.13  7.70
563.0  134500.75  10124.24  7.53
564.4  135933.24  9980.81  7.34
565.8  137296.25  9811.84  7.15
567.2  138891.79  9644.80  6.94
568.6  140262.13  9452.66  6.74
570.0  141533.60  9252.34  6.54
571.4  143106.71  9077.84  6.34
572.8  144691.75  8917.80  6.16
574.2  146188.00  8763.84  5.99
575.6  147601.88  8627.68  5.85
577.0  148964.14  8509.22  5.71
578.4  150531.07  8420.97  5.59
579.8  151906.05  8335.77  5.49
581.2  153467.14  8275.25  5.39
582.5  154750.05  8214.63  5.31
583.9  156125.80  8168.41  5.23
585.3  157749.87  8150.34  5.17
586.7  159076.73  8127.53  5.11
588.1  160433.96  8114.74  5.06
589.5  161918.46  8115.69  5.01
590.9  163380.34  8123.78  4.97
592.3  165034.59  8150.93  4.94
593.7  166334.03  8165.72  4.91
595.0  167815.13  8190.78  4.88
596.4  169122.69  8203.40  4.85
597.8  170447.88  8217.95  4.82
599.2  171855.20  8221.46  4.78
600.6  173447.09  8227.24  4.74
602.0  174610.03  8202.81  4.70
603.3  176229.04  8191.56  4.65
604.7  177729.42  8165.80  4.59
606.1  179073.40  8120.84  4.53
607.5  180556.19  8081.01  4.48
608.9  182076.29  8037.14  4.41
610.2  183315.83  7978.23  4.35
611.6  184751.92  7935.24  4.30
613.0  186144.90  7892.87  4.24
614.4  187399.15  7847.72  4.19
615.8  188711.25  7815.88  4.14
617.1  190097.95  7792.40  4.10
618.5  191556.40  7783.25  4.06
619.9  192925.53  7779.76  4.03
621.3  194374.54  7788.32  4.01
622.6  195789.67  7809.02  3.99
624.0  197095.65  7833.45  3.97
625.4  198408.93  7865.12  3.96
626.8  199826.90  7909.42  3.96
628.1  201019.64  7949.01  3.95
629.5  202687.39  8008.49  3.95
630.9  204115.41  8060.79  3.95
632.2  205366.38  8099.67  3.94
633.6  206824.34  8140.58  3.94
635.0  208191.67  8161.49  3.92
636.3  209566.44  8166.43  3.90
637.7  210781.92  8152.69  3.87
639.1  212272.09  8138.50  3.83
640.4  213611.22  8105.76  3.79
641.8  214660.54  8059.96  3.75
643.2  216071.69  8023.19  3.71
644.5  217275.38  7977.86  3.67
645.9  218813.93  7949.49  3.63
647.2  220195.44  7929.03  3.60
648.6  221899.50  7932.79  3.57
650.0  223225.20  7932.34  3.55
651.3  223567.08  7899.41  3.53
652.7  224676.04  7891.00  3.51
654.0  226381.77  7913.59  3.50
655.4  227905.63  7936.11  3.48
656.8  228119.87  7919.71  3.47
658.1  229133.80  7920.79  3.46
659.5  231235.73  7952.21  3.44
660.8  232800.00  7986.00  3.43
662.2  233635.74  7998.30  3.42
663.5  235229.31  8044.25  3.42
664.9  236425.80  8091.34  3.42
666.2  237210.70  8135.56  3.43
667.6  238914.71  8226.02  3.44
668.9  239879.99  8313.23  3.47
670.3  241016.04  8411.09  3.49
671.6  242342.50  8526.98  3.52
673.0  243378.69  8655.09  3.56
674.3  244481.25  8781.07  3.59
675.7  245665.32  8928.40  3.63
677.0  246650.64  9081.43  3.68
678.4  247902.39  9254.70  3.73
679.7  248908.20  9433.63  3.79
681.1  250091.36  9636.48  3.85
682.4  251133.35  9837.87  3.92
683.8  252238.35  10061.18  3.99
685.1  253124.75  10298.45  4.07
686.4  254323.20  10587.71  4.16
687.8  255500.46  10928.99  4.28
689.1  256397.88  11347.50  4.43
690.5  257587.48  11891.91  4.62
691.8  258346.38  12602.48  4.88
693.1  259550.13  13574.04  5.23
694.5  260567.13  14806.79  5.68
695.8  261640.17  16354.22  6.25
697.1  262735.96  18258.07  6.95
698.5  263668.07  20547.39  7.79
699.8  264647.49  23238.42  8.78
701.1  265709.43  26330.21  9.91
702.5  266420.74  29749.89  11.17
703.8  267303.75  33512.36  12.54
705.1  268341.29  37569.56  14.00
706.5  269275.67  41853.61  15.54
707.8  270166.80  46335.81  17.15
709.1  270973.41  50952.46  18.80
710.5  272011.53  55737.88  20.49
711.8  272773.60  60574.02  22.21
713.1  273658.17  65518.67  23.94
714.4  274486.99  70495.40  25.68
715.8  275226.60  75486.99  27.43
717.1  276435.98  80613.90  29.16
718.4  277289.60  85640.96  30.89
719.7  278300.44  90688.34  32.59
721.0  278771.25  95511.86  34.26
722.4  279462.15  100333.76  35.90
723.7  280339.05  105131.16  37.50
725.0  281293.84  109854.82  39.05
726.3  282155.04  114424.77  40.55
727.6  282641.98  118697.18  42.00
729.0  283456.17  122947.21  43.37
730.3  284174.55  126994.50  44.69
731.6  284995.79  130924.27  45.94
732.9  285731.66  134638.34  47.12
734.2  286445.04  138186.55  48.24
735.5  287381.40  141653.66  49.29
736.8  288105.10  144847.40  50.28
738.1  288843.45  147863.38  51.19
739.5  289709.18  150774.87  52.04
740.8  290355.09  153403.24  52.83
742.1  291015.41  155911.20  53.57
743.4  291708.34  158271.19  54.26
744.7  292592.24  160589.89  54.89
746.0  293384.00  162705.72  55.46
747.3  293877.84  164500.12  55.98
748.6  294562.84  166272.17  56.45
749.9  295247.34  167919.64  56.87
751.2  295913.40  169449.76  57.26
752.5  296741.49  170971.69  57.62
753.8  297328.88  172249.71  57.93
755.1  297951.34  173449.96  58.21
756.4  298474.40  174505.74  58.47
757.7  299349.69  175686.15  58.69
759.0  300988.70  177224.31  58.88
760.3  302068.80  178378.77  59.05
761.6  303492.70  179695.42  59.21
762.9  304004.84  180398.69  59.34
764.2  304342.12  180967.06  59.46
765.5  304598.78  181436.33  59.57
766.8  304980.00  181956.60  59.66
768.1  305459.77  182489.22  59.74
769.3  306020.99  183036.16  59.81
770.6  306606.84  183595.57  59.88
771.9  307281.25  184170.32  59.94
773.2  307657.20  184560.51  59.99
774.5  308222.20  185041.73  60.04
775.8  308815.21  185532.15  60.08
777.1  309364.09  185985.88  60.12
778.4  309644.18  186279.31  60.16
779.6  310388.45  186813.13  60.19
780.9  310810.00  187178.29  60.22
782.2  311232.17  187533.30  60.26
783.5  311521.92  187800.99  60.29
784.8  312015.79  188189.27  60.31
786.0  312377.39  188486.58  60.34
787.3  312740.85  188778.06  60.36
788.6  313104.96  189086.27  60.39
789.9  313547.50  189408.99  60.41
791.2  314147.88  189844.93  60.43
792.4  314768.36  190287.11  60.45
793.7  315218.07  190618.89  60.47
795.0  315790.20  191036.84  60.49
796.2  316375.90  191455.30  60.52
797.5  317033.47  191915.16  60.53
798.8  317676.67  192349.64  60.55
800.0  318280.46  192775.47  60.57
801.3  318763.00  193098.90  60.58
802.6  319317.00  193493.46  60.60
803.8  319878.49  193892.41  60.61
805.1  320326.71  194222.76  60.63
806.4  320789.30  194552.39  60.65
807.7  321259.84  194893.10  60.67
808.9  321798.41  195248.19  60.67
810.2  322273.18  195578.89  60.69
811.4  322744.85  195913.71  60.70
812.7  323327.61  196320.89  60.72
814.0  324090.54  196819.67  60.73
815.2  324654.96  197211.89  60.75
816.5  325031.34  197487.06  60.76
817.7  325474.32  197795.60  60.77
819.0  325954.66  198143.59  60.79
820.2  326142.67  198274.06  60.79
821.5  326808.24  198705.26  60.80
822.7  327104.33  198953.88  60.82
824.0  327412.35  199173.65  60.83
825.2  327864.72  199482.06  60.84
826.5  328151.54  199692.31  60.85
827.7  328651.09  200019.10  60.86
829.0  329031.81  200269.96  60.87
830.2  329328.76  200491.49  60.88
831.5  329778.04  200791.05  60.89
832.7  330061.90  200990.31  60.89
834.0  330358.96  201207.79  60.91
835.2  330679.89  201436.88  60.92
836.4  330956.73  201647.25  60.93
837.7  331324.60  201917.72  60.94
838.9  331716.73  202210.22  60.96
840.1  332050.84  202471.15  60.98
841.4  332476.19  202766.68  60.99
842.6  332860.57  203020.57  60.99
843.8  333150.77  203246.01  61.01
845.1  333616.24  203581.24  61.02
846.3  334005.75  203862.07  61.04
847.5  334351.15  204136.22  61.05
848.8  334739.70  204399.67  61.06
850.0  335083.53  204638.77  61.07
851.2  335576.48  204973.71  61.08
852.5  335935.35  205244.38  61.10
853.7  336429.00  205560.50  61.10
854.9  336790.52  205851.14  61.12
856.1  337204.84  206147.98  61.13
857.4  337463.29  206308.80  61.14
858.6  337895.30  206599.23  61.14
859.8  338237.82  206865.02  61.16
861.0  338633.10  207162.88  61.18
862.2  339098.83  207446.27  61.18
863.5  339456.93  207681.65  61.18
864.7  339949.50  207992.78  61.18
865.9  340319.10  208253.28  61.19
867.1  340620.39  208461.08  61.20
868.3  341054.03  208730.28  61.20
869.5  341484.10  209011.59  61.21
870.8  342018.75  209340.43  61.21
872.0  342459.54  209645.75  61.22
873.2  342857.08  209895.27  61.22
874.4  343278.00  210173.54  61.23
875.6  343670.70  210393.27  61.22
876.8  344146.99  210690.83  61.22
878.0  344631.04  210957.94  61.21
879.2  345105.08  211262.85  61.22
880.4  345524.57  211559.31  61.23
881.6  345968.14  211860.38  61.24
882.8  346380.40  212100.50  61.23
884.0  346934.89  212430.32  61.23
885.2  347408.94  212728.46  61.23
886.5  348010.64  213080.07  61.23
887.7  348471.78  213364.39  61.23
888.8  349081.24  213743.45  61.23
890.0  349568.86  214055.21  61.23
891.2  350172.52  214382.93  61.22
892.4  350737.28  214732.07  61.22
893.6  351276.04  215063.30  61.22
894.8  352160.67  215548.06  61.21
896.0  352899.92  216009.59  61.21
897.2  353649.29  216491.60  61.22
898.4  354367.20  216901.33  61.21
899.6  354923.57  217243.19  61.21
900.8  355317.39  217474.71  61.21
902.0  355590.93  217593.34  61.19
903.2  355962.00  217780.74  61.18
904.3  356228.55  217981.22  61.19
905.5  356823.06  218311.48  61.18
906.7  357411.50  218666.94  61.18
907.9  357847.82  218957.18  61.19
909.1  358187.85  219159.99  61.19
910.2  358413.27  219288.14  61.18
911.4  358795.62  219447.90  61.16
912.6  358977.67  219570.24  61.17
913.8  359180.34  219694.92  61.17
915.0  359606.10  219936.99  61.16
916.2  359801.00  220033.17  61.15
917.3  359815.65  220031.18  61.15
918.5  360095.12  220153.98  61.14
919.7  360381.23  220296.14  61.13
920.8  360519.93  220316.01  61.11
922.0  360658.38  220371.44  61.10
923.2  360906.00  220478.70  61.09
924.4  361112.63  220564.48  61.08
925.5  361319.27  220698.58  61.08
926.7  361940.98  220991.76  61.06
927.9  362777.30  221392.24  61.03
929.0  364049.10  222132.03  61.02
930.2  366043.87  223275.90  61.00
931.4  368327.37  224541.76  60.96
932.5  370736.49  225932.96  60.94
933.7  372076.99  226657.26  60.92
934.9  372690.21  226944.13  60.89
936.0  372426.98  226622.24  60.85
937.2  370580.43  225399.63  60.82
938.3  369178.64  224455.39  60.80
939.5  367840.80  223547.04  60.77
940.7  368009.25  223566.60  60.75
941.8  369503.53  224290.05  60.70
943.0  370689.00  224958.76  60.69
944.2  371570.99  225256.16  60.62
945.3  371302.75  224930.55  60.58
946.5  370702.58  224361.49  60.52
947.6  370943.29  224317.69  60.47
948.8  370781.78  224039.74  60.42
949.9  370815.90  223908.00  60.38
951.1  370670.47  223486.07  60.29
952.2  370566.00  223144.92  60.22
953.4  370424.84  222691.11  60.12
954.5  370445.40  222433.72  60.04
955.7  370423.20  222145.80  59.97
956.8  370175.79  221832.58  59.93
958.0  369978.84  221396.63  59.84
959.1  369699.93  221107.31  59.81
960.3  369608.16  220736.58  59.72
961.4  369650.80  220541.78  59.66
962.6  369774.42  220567.72  59.65
963.7  369623.00  220343.91  59.61
964.9  369550.64  220225.43  59.59
966.0  369346.17  220090.37  59.59
967.2  369501.83  220087.27  59.56
968.3  369397.80  219951.14  59.54
969.5  369178.79  219815.18  59.54
970.6  369231.16  219837.97  59.54
971.8  369490.45  219969.02  59.53
972.9  369414.22  219868.85  59.52
974.0  369407.65  219966.98  59.55
975.2  369324.67  219850.19  59.53
976.3  369221.00  219779.24  59.53
977.5  369476.98  219773.70  59.48
978.6  369358.99  219773.03  59.50
979.7  369510.75  219772.94  59.48
980.9  369382.73  219767.96  59.50
982.0  369161.54  219766.82  59.53
983.2  368802.70  219580.97  59.54
984.3  368696.40  219343.03  59.49
985.4  369130.85  219423.20  59.44
986.6  368884.42  219499.98  59.50
987.7  369811.58  220184.95  59.54
988.9  369633.30  220109.01  59.55
990.0  370399.30  220520.82  59.54
993.1  320117.70  190425.09  59.49
996.9  319900.22  190844.02  59.66
1000.7  320430.92  191683.32  59.82
1004.5  320710.38  192341.13  59.97
1008.4  320427.05  192632.64  60.12
1012.2  320367.48  193018.32  60.25
1016.0  320287.50  193367.27  60.37
1019.8  320186.22  193698.63  60.50
1023.7  319810.31  193789.17  60.60
1027.5  319092.54  193662.35  60.69
1031.3  318896.42  193802.77  60.77
1035.1  318475.15  193774.77  60.84
1038.9  318288.85  193851.70  60.90
1042.7  318039.92  193887.69  60.96
1046.5  317887.09  193961.43  61.02
1050.3  317856.07  194087.84  61.06
1054.2  317529.63  194008.96  61.10
1058.0  317061.06  193811.04  61.13
1061.8  316966.93  193832.81  61.15
1065.6  316611.40  193654.94  61.16
1069.4  316405.37  193554.91  61.17
1073.2  315787.11  193181.20  61.17
1077.0  315232.48  192817.22  61.17
1080.8  314952.09  192591.55  61.15
1084.6  314419.53  192178.00  61.12
1088.4  314161.42  191951.00  61.10
1092.2  313574.63  191483.50  61.06
1096.0  313070.10  191050.96  61.02
1099.8  312571.46  190597.24  60.98
1103.6  311867.53  190002.81  60.92
1107.4  310962.73  189262.49  60.86
1111.2  310669.35  188889.38  60.80
1114.9  310000.25  188258.07  60.73
1118.7  309412.13  187607.48  60.63
1122.5  308818.90  186851.70  60.51
1126.3  307877.09  185749.34  60.33
1130.1  307502.51  184724.08  60.07
1133.9  306189.80  182842.49  59.72
1137.7  304981.90  180696.70  59.25
1141.4  303455.32  178102.40  58.69
1145.2  302779.85  175892.80  58.09
1149.0  301801.36  173610.54  57.52
1152.8  300430.63  171416.29  57.06
1156.6  299061.59  169632.14  56.72
1160.3  297596.67  168164.97  56.51
1164.1  295610.32  166679.56  56.38
1167.9  294124.48  165669.21  56.33
1171.7  293056.32  164983.88  56.30
1175.4  291944.19  164306.73  56.28
1179.2  290903.37  163641.85  56.25
1183.0  290543.84  163321.04  56.21
1186.7  290176.37  163000.16  56.17
1190.5  289495.50  162546.11  56.15
1194.3  288630.70  162034.38  56.14
1198.0  287583.59  161469.12  56.15
1201.8  286236.44  160833.51  56.19
1205.6  285185.50  160420.34  56.25
1209.3  284444.33  160286.23  56.35
1213.1  283801.62  160240.87  56.46
1216.8  283146.10  160236.39  56.59
1220.6  282240.94  160118.93  56.73
1224.3  281226.92  159921.36  56.87
1228.1  280116.60  159666.31  57.00
1231.9  278935.04  159317.47  57.12
1235.6  277565.22  158816.07  57.22
1239.4  276311.19  158355.96  57.31
1243.1  275203.71  157927.20  57.39
1246.9  274148.42  157479.20  57.44
1250.6  273330.90  157125.89  57.49
1254.3  272407.44  156691.16  57.52
1258.1  271516.88  156250.05  57.55
1261.8  270392.73  155631.88  57.56
1265.6  269211.28  154928.76  57.55
1269.3  268185.09  154277.02  57.53
1273.1  268232.89  154202.84  57.49
1276.8  268353.20  154121.74  57.43
1280.6  267914.15  153679.37  57.36
1284.3  266491.80  152612.94  57.27
1288.0  265242.66  151587.09  57.15
1291.8  264325.01  150681.16  57.01
1295.5  263360.53  149699.41  56.84
1299.2  262352.28  148610.35  56.65
1302.9  261080.59  147276.77  56.41
1306.7  259671.42  145773.92  56.14
1310.4  258336.12  144168.93  55.81
1314.1  257085.58  142502.40  55.43
1317.9  255986.67  140780.17  55.00
1321.6  254771.85  138870.41  54.51
1325.3  253359.23  136715.43  53.96
1329.0  252167.36  134596.92  53.38
1332.8  250404.00  132066.98  52.74
1336.5  248877.20  129629.27  52.09
1340.2  248498.25  127785.91  51.42
1343.9  247956.67  125865.86  50.76
1347.6  247037.78  123773.39  50.10
1351.4  246752.25  122031.50  49.46
1355.1  246480.30  120322.44  48.82
1358.8  246328.00  118599.11  48.15
1362.5  245819.57  116546.27  47.41
1366.2  244656.35  113873.65  46.54
1369.9  243339.94  110756.35  45.52
1373.6  241598.76  106908.25  44.25
1377.3  239779.95  102295.30  42.66
1381.0  238676.59  97048.50  40.66
1384.8  237176.88  90673.20  38.23
1388.4  235370.57  83690.51  35.56
1392.2  233811.46  76469.10  32.71
1395.9  232458.66  69349.08  29.83
1399.6  231201.99  62762.34  27.15
1403.3  230308.04  57078.44  24.78
1407.0  229463.35  52342.06  22.81
1410.7  228596.37  48580.31  21.25
1414.3  227716.36  45721.58  20.08
1418.1  226813.65  43654.31  19.25
1421.7  226059.46  42216.86  18.68
1425.4  225252.79  41257.78  18.32
1429.1  224444.25  40663.46  18.12
1432.8  223189.71  40275.68  18.05
1436.5  222528.01  40203.60  18.07
1440.2  221910.62  40291.72  18.16
1443.9  220903.42  40402.27  18.29
1447.6  219634.80  40529.38  18.45
1451.2  218754.80  40743.48  18.63
1454.9  217675.20  40974.02  18.82
1458.6  216693.70  41315.95  19.07
1462.3  215653.17  41802.69  19.38
1466.0  214463.83  42434.09  19.79
1469.7  213022.45  43194.20  20.28
1473.3  212101.83  44218.17  20.85
1477.0  210454.54  45192.57  21.47
1480.7  209095.80  46287.20  22.14
1484.4  207474.22  47345.32  22.82
1488.0  206162.00  48491.26  23.52
1491.7  204794.04  49614.91  24.23
1495.4  203358.08  50719.62  24.94
1499.0  202014.00  51818.17  25.65
1502.7  200917.88  52963.63  26.36
1506.4  199731.60  54049.55  27.06
1510.0  198518.60  55088.19  27.75
1513.7  197253.58  56064.62  28.42
1517.4  196101.50  57032.34  29.08
1521.0  195053.87  57994.00  29.73
1524.7  194012.00  58882.42  30.35
1528.3  192940.44  59723.64  30.95
1532.0  191916.09  60530.70  31.54
1535.7  190730.56  61214.49  32.09
1539.3  189636.72  61900.23  32.64
1543.0  188797.32  62615.70  33.17
1546.6  188195.59  63373.44  33.67
1550.3  187370.80  64011.80  34.16
1553.9  186453.89  64565.81  34.63
1557.6  185389.97  65026.87  35.08
1561.2  184314.38  65427.05  35.50
1564.9  183221.03  65787.05  35.91
1568.5  182072.98  66093.92  36.30
1572.2  181083.43  66422.16  36.68
1575.8  180187.00  66767.56  37.05
1579.5  179350.58  67090.94  37.41
1583.1  178485.64  67392.06  37.76
1586.8  177401.00  67582.67  38.10
1590.4  176441.10  67796.59  38.42
1594.0  175316.76  67918.17  38.74
1597.7  174446.58  68120.72  39.05
1601.3  173466.57  68254.20  39.35
1604.9  172474.96  68360.24  39.63
1608.6  171330.80  68362.96  39.90
1612.2  170347.66  68396.81  40.15
1615.8  169321.10  68376.57  40.38
1619.5  168315.13  68337.02  40.60
1623.1  167201.95  68231.82  40.81
1626.7  166162.76  68128.13  41.00
1630.3  165142.13  68012.30  41.18
1634.0  164206.00  67901.56  41.35
1637.6  163363.23  67796.65  41.50
1641.2  162523.38  67655.43  41.63
1644.8  161505.15  67406.49  41.74
1648.5  160588.64  67160.89  41.82
1652.1  159767.10  66901.37  41.87
1655.7  158990.30  66605.89  41.89
1659.3  158290.17  66295.61  41.88
1662.9  157087.09  65749.08  41.86
1666.6  155872.73  65156.81  41.80
1670.2  154662.76  64518.38  41.72
1673.8  153432.62  63819.11  41.59
1677.4  152463.58  63175.05  41.44
1681.0  151763.69  62588.40  41.24
1684.6  151431.05  62082.47  41.00
1688.2  150874.38  61420.43  40.71
1691.8  150325.92  60755.75  40.42
1695.4  149966.20  60159.09  40.12
1699.0  149649.27  59588.64  39.82
1702.6  149367.67  59003.96  39.50
1706.2  148845.29  58305.73  39.17
1709.8  148070.41  57524.37  38.85
1713.4  147449.22  56858.88  38.56
1717.0  146710.88  56199.14  38.31
1720.6  146006.55  55604.89  38.08
1724.2  145399.36  55056.67  37.87
1727.8  144803.58  54546.22  37.67
1731.4  144398.38  54137.42  37.49
1735.0  144223.57  53817.97  37.32
1738.6  143994.00  53438.12  37.11
1742.2  143490.86  52883.42  36.85
1745.8  142928.81  52258.07  36.56
1749.4  142101.72  51494.12  36.24
1753.0  140840.74  50569.63  35.91
1756.6  139426.44  49624.69  35.59
1760.1  138287.81  48808.17  35.29
1763.7  136842.34  47913.26  35.01
1767.3  135618.98  47150.42  34.77
1770.9  134562.37  46466.52  34.53
1774.5  133325.13  45759.64  34.32
1778.0  132334.61  45178.33  34.14
1781.6  131380.80  44662.20  33.99
1785.2  130401.98  44193.54  33.89
1788.8  129399.45  43763.16  33.82
1792.3  128317.99  43335.45  33.77
1795.9  127829.49  43133.96  33.74
1799.5  127338.67  42945.82  33.73
1803.1  127050.47  42836.35  33.72
1806.6  127856.43  43086.05  33.70
1810.2  128961.12  43441.72  33.69
1813.8  129524.45  43597.88  33.66
1817.3  129249.70  43465.13  33.63
1820.9  128215.42  43053.27  33.58
1824.5  126932.10  42537.34  33.51
1828.0  125885.38  42056.31  33.41
1831.6  124941.64  41570.48  33.27
1835.2  124185.00  41070.74  33.07
1838.7  123802.20  40598.06  32.79
1842.3  123555.00  40066.67  32.43
1845.8  123006.17  39296.19  31.95
1849.4  122592.95  38388.32  31.31
1852.9  122135.19  37265.52  30.51
1856.5  121447.14  35816.61  29.49
1860.0  120828.61  34106.71  28.23
1863.6  120410.78  32205.32  26.75
1867.1  119989.98  29999.17  25.00
1870.7  119857.31  27455.82  22.91
1874.2  119491.43  24518.00  20.52
1877.8  118722.20  21464.43  18.08
1881.3  117579.63  18409.78  15.66
1884.9  116649.59  15645.26  13.41
1888.4  115697.87  13177.90  11.39
1891.9  114563.80  11163.10  9.74
1895.5  113337.28  9632.86  8.50
1899.0  112447.44  8581.88  7.63
1901.3  146315.88  7340.42  5.02
1904.1  146092.51  6679.79  4.57
1906.8  145321.65  6193.43  4.26
1909.6  143741.72  5799.37  4.03
1912.4  142206.67  5531.84  3.89
1915.1  141063.66  5336.79  3.78
1917.9  139773.94  5195.65  3.72
1920.6  138750.09  5115.88  3.69
1923.3  137768.41  5056.98  3.67
1926.1  136591.67  5012.47  3.67
1928.8  135487.00  5003.17  3.69
1931.6  134603.70  5025.82  3.73
1934.3  133749.44  5060.26  3.78
1937.0  132899.88  5115.07  3.85
1939.8  131958.78  5167.62  3.92
1942.5  130820.25  5227.75  4.00
1945.2  129381.45  5291.62  4.09
1947.9  128188.38  5375.36  4.19
1950.7  127242.58  5476.67  4.30
1953.4  125780.67  5572.43  4.43
1956.1  124631.94  5692.38  4.57
1958.8  123622.85  5826.41  4.71
1961.5  122423.25  5961.60  4.87
1964.2  121177.88  6104.97  5.04
1966.9  119860.47  6251.29  5.22
1969.6  118823.63  6421.50  5.40
1972.3  117643.54  6581.56  5.59
1975.0  116756.95  6775.79  5.80
1977.7  115817.94  6972.88  6.02
1980.4  114852.11  7173.33  6.25
1983.1  113922.48  7380.84  6.48
1985.8  113133.72  7602.72  6.72
1988.4  112261.50  7819.50  6.97
1991.1  111460.65  8043.03  7.22
1993.8  110712.32  8273.08  7.47
1996.5  110172.71  8521.89  7.74
1999.1  109587.85  8764.23  8.00
2001.8  108996.92  9011.05  8.27
2004.5  108419.11  9251.18  8.53
2007.1  107796.30  9485.81  8.80
2009.8  107170.97  9716.82  9.07
2012.4  106689.42  9956.56  9.33
2015.1  106232.09  10180.86  9.58
2017.8  105558.69  10381.59  9.83
2020.4  105135.18  10604.97  10.09
2023.1  104839.97  10833.76  10.33
2025.7  104630.50  11052.17  10.56
2028.3  104351.00  11255.84  10.79
2031.0  104027.42  11447.90  11.00
2033.6  103793.18  11637.34  11.21
2036.2  103564.80  11813.52  11.41
2038.9  103055.85  11949.45  11.60
2041.5  102769.51  12104.18  11.78
2044.1  102308.74  12230.03  11.95
2046.8  101995.54  12370.32  12.13
2049.4  101457.23  12466.02  12.29
2052.0  101200.78  12592.38  12.44
2054.6  100849.22  12711.56  12.60
2057.2  100375.48  12829.27  12.78
2059.8  100116.75  12978.83  12.96
2062.4  99370.00  13061.93  13.14
2065.0  98924.65  13178.60  13.32
2067.6  98170.37  13256.96  13.50
2070.2  97657.18  13367.01  13.69
2072.8  97117.84  13472.70  13.87
2075.4  96741.10  13595.31  14.05
2078.0  96187.39  13687.73  14.23
2080.6  95709.90  13796.20  14.41
2083.2  95130.39  13882.02  14.59
2085.8  94718.37  13984.17  14.76
2088.4  94157.82  14068.19  14.94
2090.9  93480.92  14133.12  15.12
2093.5  92730.52  14176.80  15.29
2096.1  92076.79  14227.91  15.45
2098.7  91418.03  14279.51  15.62
2101.2  90589.78  14304.11  15.79
2103.8  90019.93  14367.43  15.96
2106.4  89453.35  14427.47  16.13
2108.9  88893.33  14486.42  16.30
2111.5  88163.00  14510.44  16.46
2114.0  87612.80  14568.29  16.63
2116.6  87172.97  14635.47  16.79
2119.1  86711.11  14691.84  16.94
2121.7  86300.16  14750.32  17.09
2124.2  85964.84  14815.67  17.23
2126.8  85298.25  14818.58  17.37
2129.3  84961.80  14873.10  17.51
2131.9  84450.30  14884.10  17.62
2134.4  84090.49  14917.78  17.74
2136.9  83767.62  14949.54  17.85
2139.4  83324.50  14949.20  17.94
2142.0  82942.13  14959.18  18.04
2144.5  82709.93  14993.17  18.13
2147.0  82523.90  15026.99  18.21
2149.5  82105.15  15009.12  18.28
2152.1  81961.69  15040.35  18.35
2154.6  81885.60  15076.74  18.41
2157.1  81429.81  15039.74  18.47
2159.6  81092.60  15023.84  18.53
2162.1  80958.16  15038.89  18.58
2164.6  80747.80  15039.18  18.62
2167.1  80487.33  15037.71  18.68
2169.6  80202.29  15018.56  18.73
2172.1  79800.24  14988.01  18.78
2174.6  79528.85  14987.68  18.85
2177.1  79181.03  14967.06  18.90
2179.5  78829.48  14950.92  18.97
2182.0  78406.77  14924.94  19.04
2184.5  77950.87  14898.39  19.11
2187.0  77411.12  14852.79  19.19
2189.5  76829.23  14796.37  19.26
2191.9  76176.94  14719.07  19.32
2194.4  75653.91  14671.19  19.39
2196.9  75002.40  14596.80  19.46
2199.3  74435.75  14525.38  19.51
2201.8  73671.60  14413.85  19.57
2204.3  73271.60  14364.24  19.60
2206.7  72737.33  14291.12  19.65
2209.2  72334.89  14243.12  19.69
2211.6  71796.04  14154.53  19.71
2214.1  71528.07  14116.57  19.74
2216.5  71039.48  14027.11  19.75
2219.0  70760.10  13972.48  19.75
2221.4  70440.57  13901.93  19.74
2223.9  70012.91  13794.09  19.70
2226.3  69585.25  13676.33  19.65
2228.7  69110.45  13541.40  19.59
2231.1  68588.44  13377.38  19.50
2233.6  68078.10  13205.13  19.40
2236.0  67614.32  13025.54  19.26
2238.4  67194.10  12845.80  19.12
2240.9  66807.88  12657.55  18.95
2243.3  66353.43  12448.95  18.76
2245.7  65864.03  12224.82  18.56
2248.1  65451.10  12002.36  18.34
2250.5  65006.48  11772.85  18.11
2252.9  64464.40  11515.24  17.86
2255.3  63979.75  11267.13  17.61
2257.7  63588.75  11040.00  17.36
2260.1  63172.38  10809.66  17.11
2262.5  62655.00  10558.75  16.85
2264.9  62191.18  10334.01  16.62
2267.3  61665.00  10106.25  16.39
2269.7  61245.98  9910.43  16.18
2272.1  60779.88  9708.66  15.97
2274.5  60300.58  9520.36  15.79
2276.8  59889.65  9349.31  15.61
2279.2  59384.20  9168.12  15.44
2281.6  59025.90  9008.41  15.26
2284.0  58634.29  8851.39  15.10
2286.3  58231.20  8698.20  14.94
2288.7  57892.25  8555.28  14.78
2291.1  57432.03  8391.34  14.61
2293.4  57049.30  8235.15  14.44
2295.8  56508.38  8068.77  14.28
2298.2  55983.15  7899.64  14.11
2300.5  55420.37  7726.28  13.94
2302.9  54773.13  7544.63  13.77
2305.2  54152.25  7382.53  13.63
2307.6  53582.19  7241.02  13.51
2309.9  52889.88  7087.38  13.40
2312.2  52351.25  6971.13  13.32
2314.6  51830.22  6864.64  13.24
2316.9  51232.50  6745.62  13.17
2319.2  50708.55  6639.86  13.09
2321.6  50143.71  6516.84  13.00
2323.9  49664.06  6402.35  12.89
2326.2  49207.52  6288.70  12.78
2328.6  48757.09  6177.26  12.67
2330.9  48321.01  6065.07  12.55
2333.2  47906.79  5950.48  12.42
2335.5  47520.04  5854.24  12.32
2337.8  47142.04  5746.17  12.19
2340.1  46644.66  5627.56  12.06
2342.4  46267.82  5520.94  11.93
2344.8  45907.31  5416.04  11.80
2347.1  45393.78  5301.02  11.68
2349.4  44910.82  5195.74  11.57
2351.6  44415.07  5093.84  11.47
2353.9  43994.04  5005.00  11.38
2356.2  43534.26  4909.40  11.28
2358.5  43024.80  4809.00  11.18
2360.8  42520.80  4708.20  11.07
2363.1  42129.80  4622.67  10.97
2365.4  41730.91  4532.72  10.86
2367.7  41317.88  4441.73  10.75
2369.9  40850.74  4351.01  10.65
2372.2  40308.20  4249.84  10.54
2374.5  39795.53  4158.01  10.45
2376.7  39254.17  4057.13  10.34
2379.0  38712.83  3953.88  10.21
2381.3  38180.63  3852.92  10.09
2383.5  37738.80  3757.60  9.96
2385.8  37197.38  3655.02  9.83
2388.0  36745.20  3566.55  9.71
2390.3  36307.55  3478.42  9.58
2392.5  35883.00  3393.00  9.46
2394.8  35492.33  3301.79  9.30
2397.0  35062.30  3213.82  9.17
2399.3  34644.83  3135.69  9.05
2401.5  34260.19  3065.57  8.95
2403.8  33804.63  2977.56  8.81
2406.0  33362.03  2894.64  8.68
2408.2  33010.18  2822.14  8.55
2410.4  32637.68  2747.90  8.42
2412.7  32266.49  2672.00  8.28
2414.9  31953.90  2610.65  8.17
2417.1  31608.72  2543.18  8.05
2419.3  31248.00  2472.00  7.91
2421.6  30903.13  2408.96  7.80
2423.8  30570.54  2340.49  7.66
2426.0  30259.28  2273.71  7.51
2428.2  29943.90  2216.44  7.40
2430.4  29660.87  2162.00  7.29
2432.6  29420.00  2115.00  7.19
2434.8  29152.70  2056.80  7.06
2437.0  28834.66  1996.54  6.92
2439.2  28532.00  1944.72  6.82
2441.4  28246.57  1895.04  6.71
2443.6  28020.21  1849.71  6.60
2445.7  27790.97  1797.90  6.47
2447.9  27544.57  1756.98  6.38
2450.1  27281.59  1712.35  6.28
2452.3  26966.37  1655.18  6.14
2454.5  26662.90  1615.13  6.06
2456.6  26343.40  1571.12  5.96
2458.8  26024.22  1522.96  5.85
2461.0  25766.19  1484.92  5.76
2463.1  25502.51  1451.37  5.69
2465.3  25237.02  1415.78  5.61
2467.5  25023.38  1384.66  5.53
2469.6  24802.69  1357.42  5.47
2471.8  24524.10  1325.23  5.40
2473.9  24237.04  1285.86  5.31
2476.1  23933.01  1258.84  5.26
2478.2  23621.19  1226.29  5.19
2480.4  23364.62  1203.06  5.15
2482.5  23056.62  1178.67  5.11
2484.6  22761.41  1153.17  5.07
2486.8  22531.47  1120.59  4.97
2488.9  22254.51  1098.92  4.94
2491.1  21937.65  1072.99  4.89
2493.2  21584.94  1045.82  4.85
2495.3  21236.16  1024.13  4.82
2497.4  20944.09  1008.27  4.81
2499.5  20645.89  989.21  4.79
2501.7  20545.78  971.63  4.73
2503.8  20442.40  948.67  4.64
2505.9  20391.10  950.27  4.66
2508.0  20376.27  945.90  4.64
2510.1  20353.47  943.35  4.63
2512.2  20451.08  935.85  4.58
2514.3  20573.19  937.30  4.56
2516.4  20699.78  965.30  4.66
