/*** Spectra Vista SIG Data ***/
name= 37_20221021_LIST_63_avg.sig
comm= Averaged Ref/Tar of files: HR.102122.0027_moc.sig,HR.102122.0028_moc.sig,HR.102122.0029_moc.sig
data=
337.3  3027.13  235.36  7.78
338.8  3174.60  230.88  7.27
340.3  3326.35  226.66  6.81
341.8  3520.83  225.58  6.41
343.2  3729.60  219.04  5.87
344.7  3881.15  216.09  5.57
346.2  4003.30  201.53  5.03
347.7  4207.78  202.99  4.82
349.2  4422.60  195.12  4.41
350.6  4664.08  201.46  4.32
352.1  4894.33  207.55  4.24
353.6  5170.30  204.90  3.96
355.1  5455.35  198.84  3.64
356.6  5702.85  199.77  3.50
358.0  5997.20  204.77  3.41
359.5  6303.60  214.24  3.40
361.0  6583.50  220.02  3.34
362.5  6908.90  231.41  3.35
364.0  7254.78  229.40  3.16
365.4  7587.00  228.55  3.01
366.9  7956.00  238.89  3.00
368.4  8318.88  243.66  2.93
369.9  8648.00  257.90  2.98
371.3  9051.30  280.73  3.10
372.8  9451.80  293.82  3.11
374.3  9863.13  294.86  2.99
375.8  10241.00  295.68  2.89
377.2  10652.40  296.67  2.79
378.7  11055.90  306.40  2.77
380.2  11432.50  302.82  2.65
381.7  11918.03  306.80  2.57
383.1  12370.05  315.70  2.55
384.6  12867.08  318.56  2.48
386.1  13296.30  330.48  2.49
387.6  13717.55  328.53  2.39
389.0  14177.20  337.94  2.38
390.5  14629.05  351.98  2.41
392.0  15155.85  353.17  2.33
393.4  15712.45  367.85  2.34
394.9  16234.20  370.37  2.28
396.4  16741.13  381.47  2.28
397.9  17271.25  389.99  2.26
399.3  17803.48  397.00  2.23
400.8  18319.88  409.25  2.23
402.2  18928.05  421.33  2.23
403.7  19500.75  430.14  2.21
405.2  20076.40  438.32  2.18
406.6  20648.00  445.88  2.16
408.1  21244.00  454.15  2.14
409.6  21818.30  469.52  2.15
411.0  22460.20  483.53  2.15
412.5  23074.10  499.80  2.17
414.0  23696.13  510.73  2.16
415.4  24386.63  522.43  2.14
416.9  25038.23  536.40  2.14
418.4  25715.48  555.98  2.16
419.8  26408.20  578.93  2.19
421.3  27094.00  596.88  2.20
422.7  27840.00  617.45  2.22
424.2  28586.25  634.18  2.22
425.7  29307.40  650.45  2.22
427.1  30067.50  673.39  2.24
428.6  30845.00  697.06  2.26
430.0  31564.00  721.75  2.29
431.5  32402.18  748.81  2.31
432.9  33226.20  773.80  2.33
434.4  34093.50  800.56  2.35
435.9  34902.00  820.80  2.35
437.3  35750.00  848.31  2.37
438.8  36557.48  874.75  2.39
440.2  37393.13  899.62  2.41
441.7  38324.00  933.15  2.43
443.1  39220.00  959.05  2.45
444.6  40138.40  988.37  2.46
446.0  41065.88  1014.03  2.47
447.5  41993.33  1046.06  2.49
448.9  42892.50  1079.91  2.52
450.4  43874.60  1112.96  2.54
451.8  44733.00  1143.26  2.56
453.3  45631.75  1170.52  2.57
454.7  46599.98  1203.32  2.58
456.2  47438.08  1229.30  2.59
457.6  48374.10  1254.42  2.59
459.1  49329.15  1284.53  2.60
460.5  50249.88  1317.88  2.62
462.0  51286.80  1345.80  2.62
463.4  52306.60  1379.66  2.64
464.8  53252.25  1407.58  2.64
466.3  54206.63  1433.22  2.64
467.7  55159.93  1461.39  2.65
469.2  56187.40  1494.09  2.66
470.6  57155.40  1527.30  2.67
472.0  58157.90  1561.92  2.69
473.5  59169.63  1593.03  2.69
474.9  60177.75  1622.33  2.70
476.4  61286.40  1653.39  2.70
477.8  62321.00  1684.49  2.70
479.2  63278.00  1717.63  2.71
480.7  64355.85  1752.44  2.72
482.1  65458.50  1786.29  2.73
483.6  66614.50  1823.73  2.74
485.0  67656.15  1855.01  2.74
486.4  68821.50  1890.39  2.75
487.9  69849.00  1937.47  2.77
489.3  70974.50  1982.97  2.79
490.7  71990.53  2031.49  2.82
492.2  73191.30  2082.64  2.85
493.6  74260.85  2133.88  2.87
495.0  75333.38  2192.63  2.91
496.5  76486.10  2263.58  2.96
497.9  77572.05  2342.69  3.02
499.3  78716.70  2426.55  3.08
500.7  79930.40  2525.10  3.16
502.2  81044.60  2634.95  3.25
503.6  82256.40  2762.88  3.36
505.0  83314.55  2904.88  3.49
506.5  84586.88  3075.17  3.64
507.9  85718.15  3266.58  3.81
509.3  87038.80  3493.93  4.01
510.7  88232.63  3742.61  4.24
512.2  89600.25  4033.70  4.50
513.6  91050.75  4364.59  4.79
515.0  92448.28  4734.08  5.12
516.4  93810.15  5142.15  5.48
517.8  95386.13  5597.00  5.87
519.3  96681.18  6070.21  6.28
520.7  98209.50  6597.88  6.72
522.1  99474.05  7131.51  7.17
523.5  100788.90  7693.19  7.63
524.9  102225.60  8266.90  8.09
526.3  103621.35  8842.88  8.53
527.8  105063.75  9434.70  8.98
529.2  106088.00  9992.93  9.42
530.6  107609.15  10594.19  9.85
532.0  109284.00  11194.67  10.24
533.4  110568.38  11739.92  10.62
534.8  111420.63  12222.67  10.97
536.3  112978.20  12767.07  11.30
537.7  114912.00  13330.32  11.60
539.1  116348.00  13834.29  11.89
540.5  117487.50  14292.22  12.16
541.9  119233.65  14813.17  12.42
543.3  120484.18  15268.20  12.67
544.7  121797.60  15731.78  12.92
546.1  123562.73  16245.23  13.15
547.5  124768.00  16667.52  13.36
549.0  126357.00  17130.04  13.56
550.4  127829.38  17547.44  13.73
551.8  129394.35  17947.23  13.87
553.2  130874.65  18292.74  13.98
554.6  132194.40  18568.26  14.05
556.0  133690.95  18812.16  14.07
557.4  135278.15  19019.04  14.06
558.8  136899.45  19190.68  14.02
560.2  138319.50  19298.68  13.95
561.6  139966.05  19391.69  13.85
563.0  141538.20  19435.02  13.73
564.4  143110.75  19455.41  13.59
565.8  144616.88  19432.62  13.44
567.2  146339.75  19393.41  13.25
568.6  147823.88  19284.79  13.05
570.0  149227.08  19102.98  12.80
571.4  150920.90  18922.86  12.54
572.8  152657.25  18733.23  12.27
574.2  154246.40  18531.41  12.01
575.6  155790.00  18334.93  11.77
577.0  157284.70  18152.54  11.54
578.4  158988.38  18014.97  11.33
579.8  160489.35  17878.92  11.14
581.2  162177.33  17784.27  10.97
582.5  163589.40  17675.69  10.80
583.9  165093.80  17594.36  10.66
585.3  166866.53  17562.46  10.52
586.7  168325.95  17516.88  10.41
588.1  169798.50  17485.17  10.30
589.5  171426.50  17493.70  10.20
590.9  173017.20  17522.03  10.13
592.3  174808.95  17590.08  10.06
593.7  176245.88  17642.39  10.01
595.0  177844.28  17720.97  9.96
596.4  179292.75  17786.64  9.92
597.8  180748.80  17856.46  9.88
599.2  182252.40  17920.07  9.83
600.6  183991.60  17989.00  9.78
602.0  185278.43  17985.15  9.71
603.3  187044.20  17997.76  9.62
604.7  188687.65  17954.89  9.52
606.1  190150.20  17854.31  9.39
607.5  191775.10  17728.78  9.24
608.9  193454.45  17574.54  9.08
610.2  194821.20  17369.37  8.92
611.6  196410.08  17169.26  8.74
613.0  197965.00  16960.45  8.57
614.4  199320.45  16731.11  8.39
615.8  200757.38  16525.69  8.23
617.1  202272.00  16335.48  8.08
618.5  203884.80  16187.53  7.94
619.9  205382.93  16067.83  7.82
621.3  206964.68  15994.72  7.73
622.6  208543.75  15959.34  7.65
624.0  209996.40  15950.58  7.60
625.4  211455.75  15979.84  7.56
626.8  213012.80  16041.78  7.53
628.1  214267.35  16108.49  7.52
629.5  215981.75  16225.98  7.51
630.9  217487.88  16321.91  7.50
632.2  218739.85  16379.42  7.49
633.6  220244.63  16412.93  7.45
635.0  221690.80  16376.37  7.39
636.3  223170.00  16259.69  7.29
637.7  224502.38  16049.54  7.15
639.1  226117.50  15783.00  6.98
640.4  227565.63  15441.55  6.79
641.8  228766.05  15031.74  6.57
643.2  230323.45  14615.01  6.35
644.5  231665.50  14165.82  6.11
645.9  233244.90  13736.64  5.89
647.2  234260.08  13322.71  5.69
648.6  235750.50  13003.59  5.52
650.0  237060.00  12723.02  5.37
651.3  237996.28  12482.45  5.24
652.7  240181.00  12316.16  5.13
654.0  242282.00  12137.00  5.01
655.4  243669.73  11906.34  4.89
656.8  243775.30  11592.56  4.76
658.1  245091.90  11305.90  4.61
659.5  247422.00  11008.86  4.45
660.8  248895.00  10656.43  4.28
662.2  249849.60  10274.13  4.11
663.5  251446.80  9925.73  3.95
664.9  252470.40  9595.19  3.80
666.2  253257.60  9299.47  3.67
667.6  254951.50  9093.72  3.57
668.9  255929.05  8906.60  3.48
670.3  257625.75  8790.18  3.41
671.6  258707.63  8710.51  3.37
673.0  259902.38  8681.85  3.34
674.3  261155.70  8691.83  3.33
675.7  262449.68  8736.65  3.33
677.0  263507.10  8802.87  3.34
678.4  264806.58  8920.76  3.37
679.7  265841.75  9085.63  3.42
681.1  267129.58  9318.59  3.49
682.4  268227.70  9648.65  3.60
683.8  269399.00  10110.85  3.75
685.1  270389.63  10750.64  3.98
686.4  271661.40  11651.41  4.29
687.8  272874.00  12887.20  4.72
689.1  273964.25  14549.80  5.31
690.5  275284.95  16744.62  6.08
691.8  276082.90  19512.58  7.07
693.1  277394.55  22988.24  8.29
694.5  278551.00  27045.20  9.71
695.8  279802.25  31625.10  11.30
697.1  280985.25  36625.33  13.03
698.5  282047.50  41935.76  14.87
699.8  283120.05  47458.56  16.76
701.1  284276.48  53088.87  18.68
702.5  285054.55  58656.63  20.58
703.8  285997.50  64145.57  22.43
705.1  287107.28  69509.38  24.21
706.5  288167.63  74654.51  25.91
707.8  289141.95  79568.13  27.52
709.1  290001.75  84221.81  29.04
710.5  291095.68  88740.39  30.48
711.8  291907.00  92982.51  31.85
713.1  292865.90  97073.81  33.15
714.4  293780.20  100959.96  34.37
715.8  294605.30  104645.62  35.52
717.1  295914.00  108321.72  36.61
718.4  296867.20  111696.64  37.63
719.7  297951.08  114952.99  38.58
721.0  298462.50  117837.86  39.48
722.4  299193.40  120647.65  40.32
723.7  300157.80  123389.87  41.11
725.0  301174.43  125996.92  41.84
726.3  302088.88  128428.23  42.51
727.6  302613.85  130537.70  43.14
729.0  303504.08  132656.71  43.71
730.3  304298.40  134597.57  44.23
731.6  305186.45  136456.24  44.71
732.9  305949.88  138142.22  45.15
734.2  306726.75  139732.19  45.56
735.5  307730.53  141319.83  45.92
736.8  308526.60  142705.60  46.25
738.1  309361.60  144030.50  46.56
739.5  310310.30  145318.46  46.83
740.8  311003.83  146410.85  47.08
742.1  311669.50  147454.66  47.31
743.4  312300.00  148425.71  47.53
744.7  313202.18  149454.62  47.72
746.0  314035.80  150418.21  47.90
747.3  314595.63  151184.82  48.06
748.6  315308.75  151968.16  48.20
749.9  315952.00  152684.38  48.33
751.2  316545.75  153345.59  48.44
752.5  317330.25  154062.35  48.55
753.8  317828.18  154632.20  48.65
755.1  318474.00  155226.44  48.74
756.4  319024.95  155743.13  48.82
757.7  320018.48  156443.54  48.89
759.0  321728.30  157486.37  48.95
760.3  322872.00  158212.44  49.00
761.6  324360.40  159108.03  49.05
762.9  324878.75  159501.33  49.10
764.2  325221.00  159803.93  49.14
765.5  325435.05  160046.17  49.18
766.8  325801.60  160337.53  49.21
768.1  326306.60  160674.12  49.24
769.3  326850.65  161036.76  49.27
770.6  327462.20  161430.68  49.30
771.9  328126.05  161837.74  49.32
773.2  328474.40  162081.23  49.34
774.5  329014.40  162427.30  49.37
775.8  329611.25  162787.09  49.39
777.1  330123.75  163108.96  49.41
778.4  330383.90  163300.90  49.43
779.6  331077.05  163708.88  49.45
780.9  331500.00  163973.14  49.46
782.2  331933.25  164235.03  49.48
783.5  332206.00  164411.85  49.49
784.8  332663.40  164685.35  49.51
786.0  332962.35  164890.30  49.52
787.3  333257.30  165096.87  49.54
788.6  333621.48  165322.08  49.55
789.9  334010.60  165560.75  49.57
791.2  334610.40  165893.00  49.58
792.4  335223.85  166234.83  49.59
793.7  335636.60  166477.69  49.60
795.0  336186.68  166791.40  49.61
796.2  336774.00  167111.22  49.62
797.5  337388.10  167462.47  49.63
798.8  337983.88  167789.09  49.64
800.0  338555.75  168112.15  49.66
801.3  338942.90  168339.46  49.67
802.6  339500.48  168642.83  49.67
803.8  340039.73  168955.06  49.69
805.1  340468.63  169199.27  49.70
806.4  340918.80  169426.71  49.70
807.7  341388.68  169694.54  49.71
808.9  341825.20  169965.19  49.72
810.2  342305.25  170220.94  49.73
811.4  342734.70  170478.47  49.74
812.7  343403.13  170794.47  49.74
814.0  344137.45  171205.95  49.75
815.2  344729.75  171532.86  49.76
816.5  345133.10  171749.23  49.76
817.7  345542.40  171990.11  49.77
819.0  346035.80  172249.87  49.78
820.2  346148.00  172350.93  49.79
821.5  346841.20  172716.41  49.80
822.7  347168.70  172905.66  49.80
824.0  347463.00  173052.62  49.80
825.2  347915.25  173294.49  49.81
826.5  348227.65  173460.53  49.81
827.7  348805.58  173761.77  49.82
829.0  349163.35  173966.81  49.82
830.2  349512.60  174135.58  49.82
831.5  349946.70  174374.89  49.83
832.7  350313.08  174535.01  49.82
834.0  350643.78  174724.09  49.83
835.2  351024.58  174912.25  49.83
836.4  351309.75  175088.60  49.84
837.7  351758.00  175322.03  49.84
838.9  352259.70  175560.22  49.84
840.1  352565.33  175784.04  49.86
841.4  353007.60  176015.00  49.86
842.6  353447.00  176239.36  49.86
843.8  353826.80  176459.67  49.87
845.1  354378.85  176749.95  49.88
846.3  354770.30  176982.48  49.89
847.5  355229.70  177208.56  49.89
848.8  355659.00  177437.81  49.89
850.0  356039.95  177663.47  49.90
851.2  356589.00  177951.26  49.90
852.5  356993.60  178178.36  49.91
853.7  357570.00  178474.29  49.91
854.9  358063.70  178705.44  49.91
856.1  358584.20  178973.29  49.91
857.4  358794.25  179116.13  49.92
858.6  359382.75  179381.80  49.91
859.8  359848.13  179620.47  49.92
861.0  360266.40  179849.73  49.92
862.2  360705.63  180108.11  49.93
863.5  361136.10  180321.79  49.93
864.7  361765.80  180605.29  49.92
865.9  362155.60  180833.83  49.93
867.1  362519.35  180995.21  49.93
868.3  362947.65  181233.95  49.93
869.5  363422.60  181472.10  49.93
870.8  364063.50  181756.71  49.92
872.0  364664.70  182048.09  49.92
873.2  365038.65  182281.53  49.93
874.4  365575.28  182511.98  49.92
875.6  366007.70  182698.43  49.92
876.8  366473.60  182946.46  49.92
878.0  367016.75  183210.16  49.92
879.2  367544.55  183481.43  49.92
880.4  368117.25  183731.29  49.91
881.6  368493.28  183941.77  49.92
882.8  368936.00  184136.20  49.91
884.0  369675.25  184417.94  49.89
885.2  370094.00  184669.47  49.90
886.5  370682.20  184941.70  49.89
887.7  371173.08  185146.27  49.88
888.8  371854.35  185449.94  49.87
890.0  372481.05  185720.60  49.86
891.2  373019.70  186000.75  49.86
892.4  373543.28  186288.82  49.87
893.6  374127.05  186533.60  49.86
894.8  374871.25  186933.38  49.87
896.0  375760.50  187327.29  49.85
897.2  376704.25  187707.80  49.83
898.4  377282.40  188044.94  49.84
899.6  377793.38  188272.94  49.83
900.8  378159.48  188429.62  49.83
902.0  378389.10  188513.13  49.82
903.2  378752.25  188608.18  49.80
904.3  379074.30  188759.64  49.79
905.5  379699.68  189025.36  49.78
906.7  380111.50  189276.92  49.80
907.9  380685.90  189521.55  49.78
909.1  380920.05  189589.22  49.77
910.2  381210.08  189624.37  49.74
911.4  381361.50  189693.94  49.74
912.6  381423.90  189703.66  49.74
913.8  381504.60  189789.97  49.75
915.0  381847.20  189940.66  49.74
916.2  382151.25  189970.48  49.71
917.3  382084.65  189903.18  49.70
918.5  382233.80  189963.35  49.70
919.7  382415.85  189958.20  49.67
920.8  382313.85  189934.36  49.68
922.0  382285.75  189907.67  49.68
923.2  382473.00  189904.00  49.65
924.4  382883.63  189937.48  49.61
925.5  383019.00  189995.60  49.60
926.7  383558.25  190196.73  49.59
927.9  384346.80  190486.40  49.56
929.0  385680.15  191112.82  49.55
930.2  387858.40  192053.66  49.52
931.4  390264.08  193107.28  49.48
932.5  392783.95  194306.88  49.47
933.7  394170.05  194859.03  49.44
934.9  394651.25  195020.83  49.42
936.0  394228.25  194630.37  49.37
937.2  392116.50  193437.84  49.33
938.3  390128.10  192423.08  49.32
939.5  388652.40  191463.50  49.26
940.7  388837.80  191375.45  49.22
941.8  390145.20  191955.05  49.20
943.0  391482.00  192429.14  49.15
944.2  392332.20  192579.20  49.09
945.3  391803.75  192201.29  49.06
946.5  391062.60  191592.44  48.99
947.6  391125.70  191415.58  48.94
948.8  390766.35  191035.17  48.89
949.9  390852.00  190812.48  48.82
951.1  390221.65  190250.48  48.75
952.2  390048.00  189856.00  48.68
953.4  389837.25  189410.71  48.59
954.5  389610.00  188966.37  48.50
955.7  389415.60  188500.08  48.41
956.8  388951.50  188053.92  48.35
958.0  388511.00  187595.73  48.29
959.1  388021.28  187162.57  48.24
960.3  387737.85  186687.14  48.15
961.4  387711.15  186398.00  48.08
962.6  387675.75  186278.90  48.05
963.7  387122.85  185989.06  48.04
964.9  386829.53  185720.25  48.01
966.0  386791.20  185459.92  47.95
967.2  386715.60  185367.89  47.93
968.3  386402.40  185107.22  47.91
969.5  386093.08  184902.92  47.89
970.6  386025.33  184833.50  47.88
971.8  386258.25  184816.52  47.85
972.9  386222.33  184742.05  47.83
974.0  386517.40  184769.78  47.80
975.2  386153.50  184655.83  47.82
976.3  385772.90  184568.67  47.84
977.5  385360.33  184498.98  47.88
978.6  385296.30  184381.32  47.85
979.7  385225.58  184290.20  47.84
980.9  385089.95  184226.48  47.84
982.0  384919.90  184008.26  47.80
983.2  384726.53  184020.59  47.83
984.3  383922.80  183897.62  47.90
985.4  383595.23  183733.38  47.90
986.6  383828.13  183512.25  47.81
987.7  384812.75  183915.03  47.79
988.9  383995.80  183879.39  47.89
990.0  384225.60  184073.45  47.91
993.1  383779.26  181890.17  47.39
996.9  382604.68  181889.00  47.54
1000.7  382574.91  182463.79  47.69
1004.5  382698.83  183016.28  47.82
1008.4  382309.42  183368.38  47.96
1012.2  382087.04  183785.79  48.10
1016.0  381629.40  184060.11  48.23
1019.8  380924.78  184205.18  48.36
1023.7  379834.03  184027.92  48.45
1027.5  378317.98  183609.89  48.53
1031.3  377472.03  183437.71  48.60
1035.1  376535.78  183211.93  48.66
1038.9  376144.63  183238.89  48.72
1042.7  375903.67  183339.41  48.77
1046.5  375835.33  183437.31  48.81
1050.3  375831.40  183563.05  48.84
1054.2  375513.83  183539.00  48.88
1058.0  375093.95  183413.71  48.90
1061.8  375045.79  183480.45  48.92
1065.6  374485.63  183190.46  48.92
1069.4  373832.93  182861.96  48.92
1073.2  372656.96  182225.04  48.90
1077.0  371919.68  181809.95  48.88
1080.8  371985.42  181741.96  48.86
1084.6  371936.95  181619.43  48.83
1088.4  372121.36  181634.58  48.81
1092.2  371650.50  181245.54  48.77
1096.0  371026.78  180750.39  48.72
1099.8  370402.50  180213.89  48.65
1103.6  369539.83  179546.81  48.59
1107.4  368408.60  178739.88  48.52
1111.2  368188.40  178348.43  48.44
1114.9  367739.75  177785.33  48.35
1118.7  367564.73  177258.08  48.22
1122.5  367213.60  176556.22  48.08
1126.3  366312.16  175446.11  47.90
1130.1  365920.46  174320.73  47.64
1133.9  364257.60  172257.20  47.29
1137.7  362729.80  169939.41  46.85
1141.4  360678.18  167114.26  46.33
1145.2  359762.49  164643.99  45.76
1149.0  358537.08  162155.21  45.23
1152.8  356760.60  159673.20  44.76
1156.6  354923.80  157610.38  44.41
1160.3  353125.33  155948.86  44.16
1164.1  350777.50  154373.26  44.01
1167.9  349144.79  153302.53  43.91
1171.7  347854.50  152506.13  43.84
1175.4  346391.53  151700.70  43.79
1179.2  345003.40  150897.16  43.74
1183.0  344705.00  150513.24  43.66
1186.7  344638.93  150277.90  43.60
1190.5  344253.60  149940.37  43.56
1194.3  343311.83  149423.81  43.52
1198.0  341850.03  148747.26  43.51
1201.8  340150.03  148040.74  43.52
1205.6  339042.33  147690.33  43.56
1209.3  338528.27  147665.78  43.62
1213.1  338064.98  147708.93  43.69
1216.8  337483.03  147760.34  43.78
1220.6  336397.60  147602.40  43.88
1224.3  335190.83  147371.50  43.97
1228.1  333718.80  147035.37  44.06
1231.9  332157.48  146601.21  44.14
1235.6  330454.05  146060.49  44.20
1239.4  328936.13  145615.57  44.27
1243.1  327592.37  145181.19  44.32
1246.9  326267.54  144751.09  44.37
1250.6  325221.00  144388.95  44.40
1254.3  324040.57  143946.98  44.42
1258.1  322825.42  143444.97  44.43
1261.8  321369.20  142812.46  44.44
1265.6  320142.68  142253.45  44.43
1269.3  319307.05  141812.16  44.41
1273.1  319643.98  141830.42  44.37
1276.8  319472.00  141543.71  44.31
1280.6  318446.23  140842.18  44.23
1284.3  316470.80  139685.83  44.14
1288.0  315169.54  138768.80  44.03
1291.8  314617.33  138079.69  43.89
1295.5  313857.87  137218.61  43.72
1299.2  312726.02  136109.43  43.52
1302.9  311152.13  134679.85  43.28
1306.7  309417.85  133079.80  43.01
1310.4  307735.23  131358.24  42.69
1314.1  306189.77  129580.78  42.32
1317.9  304805.42  127713.06  41.90
1321.6  303286.43  125656.79  41.43
1325.3  301607.25  123398.63  40.91
1329.0  300317.50  121209.93  40.36
1332.8  298375.00  118663.60  39.77
1336.5  296753.47  116218.59  39.16
1340.2  296690.33  114408.67  38.56
1343.9  296821.04  112693.75  37.97
1347.6  297335.25  111153.92  37.38
1351.4  299305.00  110227.15  36.83
1355.1  301994.73  109580.59  36.29
1358.8  304176.00  108667.43  35.73
1362.5  304672.30  106976.83  35.11
1366.2  302473.35  104029.07  34.39
1369.9  298973.88  100241.56  33.53
1373.6  296058.47  96074.02  32.45
1377.3  294722.40  91627.16  31.09
1381.0  294346.50  86530.93  29.40
1384.8  292240.00  79929.11  27.35
1388.4  288786.87  72450.17  25.09
1392.2  286476.33  65036.41  22.70
1395.9  284940.53  57928.09  20.33
1399.6  283012.41  51316.23  18.13
1403.3  281428.08  45627.13  16.21
1407.0  279569.90  40837.94  14.61
1410.7  277588.58  36993.00  13.33
1414.3  275490.31  33986.18  12.34
1418.1  273674.96  31741.13  11.60
1421.7  272191.85  30063.09  11.04
1425.4  270779.93  28832.66  10.65
1429.1  269508.38  27962.73  10.38
1432.8  267796.83  27305.77  10.20
1436.5  266964.93  26915.46  10.08
1440.2  266252.27  26692.38  10.03
1443.9  265108.89  26528.37  10.01
1447.6  263478.60  26402.20  10.02
1451.2  262198.38  26363.96  10.05
1454.9  260746.65  26367.49  10.11
1458.6  259516.30  26507.43  10.21
1462.3  258347.83  26772.22  10.36
1466.0  256989.85  27167.24  10.57
1469.7  255276.67  27681.83  10.84
1473.3  254198.83  28405.83  11.17
1477.0  252140.83  29132.52  11.55
1480.7  250460.92  29969.81  11.97
1484.4  248411.83  30797.45  12.40
1488.0  246810.67  31724.00  12.85
1491.7  245212.96  32654.07  13.32
1495.4  243531.80  33596.47  13.80
1499.0  241976.00  34536.93  14.27
1502.7  240671.83  35522.66  14.76
1506.4  239238.55  36459.91  15.24
1510.0  237797.07  37380.01  15.72
1513.7  236284.13  38262.88  16.19
1517.4  234923.33  39140.24  16.66
1521.0  233688.00  40020.04  17.13
1524.7  232459.50  40841.67  17.57
1528.3  231141.50  41626.38  18.01
1532.0  229946.38  42386.30  18.43
1535.7  228540.89  43058.64  18.84
1539.3  227269.57  43729.02  19.24
1543.0  226276.61  44418.43  19.63
1546.6  225586.83  45137.08  20.01
1550.3  224589.25  45742.78  20.37
1553.9  223522.93  46305.99  20.72
1557.6  222264.53  46798.08  21.06
1561.2  220995.90  47240.68  21.38
1564.9  219682.30  47644.95  21.69
1568.5  218343.18  48016.50  21.99
1572.2  217184.90  48400.24  22.29
1575.8  216076.00  48776.00  22.57
1579.5  215076.65  49135.84  22.85
1583.1  214021.43  49471.94  23.12
1586.8  212702.00  49722.00  23.38
1590.4  211496.37  49968.69  23.63
1594.0  210136.01  50165.52  23.87
1597.7  209287.07  50475.70  24.12
1601.3  208315.80  50736.38  24.36
1604.9  207302.51  50955.47  24.58
1608.6  205974.50  51057.15  24.79
1612.2  204666.83  51133.15  24.98
1615.8  203280.35  51166.47  25.17
1619.5  202056.08  51209.36  25.34
1623.1  200714.97  51197.81  25.51
1626.7  199521.08  51184.44  25.65
1630.3  198326.42  51143.75  25.79
1634.0  197204.00  51092.00  25.91
1637.6  196230.00  51027.84  26.00
1641.2  195196.65  50881.07  26.07
1644.8  193989.58  50616.67  26.09
1648.5  192914.92  50333.42  26.09
1652.1  191957.40  50046.94  26.07
1655.7  191032.60  49771.00  26.05
1659.3  190188.89  49558.21  26.06
1662.9  188756.67  49245.36  26.09
1666.6  187339.87  48966.07  26.14
1670.2  185907.40  48673.97  26.18
1673.8  184438.15  48331.22  26.20
1677.4  183254.15  48014.87  26.20
1681.0  182426.08  47716.26  26.16
1684.6  182027.08  47470.89  26.08
1688.2  181360.55  47075.03  25.96
1691.8  180688.08  46685.69  25.84
1695.4  180226.40  46310.26  25.70
1699.0  179852.40  45926.90  25.54
1702.6  179510.67  45539.05  25.37
1706.2  178893.87  45083.68  25.20
1709.8  177935.78  44577.30  25.05
1713.4  177184.48  44119.25  24.90
1717.0  176277.25  43632.61  24.75
1720.6  175438.35  43149.33  24.60
1724.2  174697.13  42668.44  24.42
1727.8  173962.95  42187.30  24.25
1731.4  173498.88  41760.12  24.07
1735.0  173317.83  41404.55  23.89
1738.6  173101.80  40986.64  23.68
1742.2  172561.23  40463.46  23.45
1745.8  171944.90  39903.53  23.21
1749.4  171014.25  39263.64  22.96
1753.0  169546.33  38504.92  22.71
1756.6  167892.96  37736.00  22.48
1760.1  166559.50  37058.27  22.25
1763.7  164802.67  36318.09  22.04
1767.3  163358.88  35682.93  21.84
1770.9  162112.42  35118.24  21.66
1774.5  160632.86  34550.17  21.51
1778.0  159497.31  34092.27  21.37
1781.6  158393.25  33693.60  21.27
1785.2  157251.65  33323.30  21.19
1788.8  156088.70  33002.13  21.14
1792.3  154862.07  32697.26  21.11
1795.9  154358.97  32576.76  21.10
1799.5  154160.00  32539.67  21.11
1803.1  155151.15  32775.63  21.12
1806.6  157397.51  33255.80  21.13
1810.2  159356.40  33667.93  21.13
1813.8  160418.45  33884.68  21.12
1817.3  160063.00  33792.89  21.11
1820.9  158974.00  33541.19  21.10
1824.5  157658.35  33217.97  21.07
1828.0  156655.58  32925.35  21.02
1831.6  156359.95  32753.58  20.95
1835.2  156272.50  32548.93  20.83
1838.7  156117.07  32245.32  20.65
1842.3  155850.00  31827.86  20.42
1845.8  154507.00  31055.19  20.10
1849.4  153852.45  30264.68  19.67
1852.9  152914.01  29225.09  19.11
1856.5  151786.77  27932.49  18.40
1860.0  150677.35  26406.16  17.52
1863.6  150740.22  24834.12  16.47
1867.1  151640.30  23128.00  15.25
1870.7  152679.65  21112.92  13.83
1874.2  151474.50  18550.16  12.25
1877.8  148472.00  15786.36  10.63
1881.3  145237.75  13125.30  9.04
1884.9  143283.07  10875.54  7.59
1888.4  141686.43  8960.88  6.32
1891.9  140092.87  7454.03  5.32
1895.5  138753.95  6370.78  4.59
1899.0  138205.50  5682.16  4.11
1901.3  181113.17  4422.83  2.44
1904.1  181116.00  3966.75  2.19
1906.8  180028.80  3628.40  2.02
1909.6  177627.80  3371.32  1.90
1912.4  175347.55  3179.09  1.81
1915.1  173707.60  3059.28  1.76
1917.9  172023.67  2963.11  1.72
1920.6  170514.33  2885.99  1.69
1923.3  168880.60  2832.90  1.68
1926.1  166859.10  2786.43  1.67
1928.8  164897.33  2732.89  1.66
1931.6  163354.45  2712.67  1.66
1934.3  161941.12  2709.19  1.67
1937.0  160623.67  2715.80  1.69
1939.8  159212.92  2714.36  1.70
1942.5  157498.00  2717.00  1.73
1945.2  155381.05  2723.97  1.75
1947.9  153650.47  2745.79  1.79
1950.7  152301.40  2770.48  1.82
1953.4  150393.40  2801.33  1.86
1956.1  148877.50  2837.56  1.91
1958.8  147557.37  2881.96  1.95
1961.5  146004.00  2928.67  2.01
1964.2  144407.90  2981.77  2.06
1966.9  142745.65  3034.77  2.13
1969.6  141435.00  3096.00  2.19
1972.3  140005.90  3165.43  2.26
1975.0  138927.30  3250.90  2.34
1977.7  137760.42  3332.70  2.42
1980.4  136575.90  3424.85  2.51
1983.1  135430.85  3521.53  2.60
1985.8  134484.60  3633.70  2.70
1988.4  133432.00  3738.22  2.80
1991.1  132478.50  3856.22  2.91
1993.8  131576.50  3972.28  3.02
1996.5  130913.02  4098.66  3.13
1999.1  130215.07  4233.65  3.25
2001.8  129517.27  4374.22  3.38
2004.5  128824.45  4506.65  3.50
2007.1  128071.90  4633.52  3.62
2009.8  127307.13  4777.11  3.75
2012.4  126708.08  4917.24  3.88
2015.1  126150.27  5056.26  4.01
2017.8  125356.00  5182.88  4.13
2020.4  124846.88  5316.48  4.26
2023.1  124466.77  5450.51  4.38
2025.7  124228.00  5590.00  4.50
2028.3  123881.33  5725.78  4.62
2031.0  123485.68  5855.46  4.74
2033.6  123209.40  5988.50  4.86
2036.2  122948.40  6101.60  4.96
2038.9  122330.70  6194.40  5.06
2041.5  121972.32  6310.87  5.17
2044.1  121399.80  6406.10  5.28
2046.8  121017.00  6504.70  5.38
2049.4  120355.80  6583.00  5.47
2052.0  120057.13  6678.09  5.56
2054.6  119656.25  6763.75  5.65
2057.2  119087.73  6841.11  5.74
2059.8  118747.13  6931.36  5.84
2062.4  117849.33  6990.77  5.93
2065.0  117314.87  7062.35  6.02
2067.6  116411.08  7109.90  6.11
2070.2  115783.48  7182.53  6.20
2072.8  115138.45  7249.36  6.30
2075.4  114703.75  7317.92  6.38
2078.0  114034.02  7375.07  6.47
2080.6  113449.60  7438.93  6.56
2083.2  112739.33  7495.50  6.65
2085.8  112251.00  7556.59  6.73
2088.4  111573.83  7602.56  6.81
2090.9  110763.78  7644.05  6.90
2093.5  109846.33  7676.68  6.99
2096.1  109053.87  7702.98  7.06
2098.7  108280.93  7738.12  7.15
2101.2  107315.20  7752.29  7.22
2103.8  106616.53  7787.22  7.30
2106.4  105926.60  7822.15  7.38
2108.9  105254.13  7848.35  7.46
2111.5  104389.53  7860.00  7.53
2114.0  103734.53  7892.02  7.61
2116.6  103197.50  7918.75  7.67
2119.1  102622.60  7948.44  7.75
2121.7  102121.25  7977.08  7.81
2124.2  101702.10  8003.97  7.87
2126.8  100894.15  8007.47  7.94
2129.3  100478.40  8046.13  8.01
2131.9  99871.20  8066.67  8.08
2134.4  99429.75  8100.70  8.15
2136.9  99031.40  8134.17  8.21
2139.4  98490.93  8160.29  8.29
2142.0  98029.87  8198.71  8.36
2144.5  97748.70  8253.27  8.44
2147.0  97525.20  8305.02  8.52
2149.5  97024.93  8328.84  8.58
2152.1  96840.33  8390.43  8.66
2154.6  96768.53  8456.18  8.74
2157.1  96237.92  8483.83  8.82
2159.6  95820.08  8511.08  8.88
2162.1  95650.10  8560.07  8.95
2164.6  95388.53  8597.51  9.01
2167.1  95065.87  8623.15  9.07
2169.6  94719.68  8654.45  9.14
2172.1  94253.87  8670.10  9.20
2174.6  93926.93  8695.22  9.26
2177.1  93473.88  8717.05  9.33
2179.5  93036.23  8723.51  9.38
2182.0  92546.30  8736.02  9.44
2184.5  92003.58  8748.39  9.51
2187.0  91380.70  8754.13  9.58
2189.5  90698.60  8743.63  9.64
2191.9  89898.50  8711.50  9.69
2194.4  89235.20  8703.23  9.75
2196.9  88464.00  8681.60  9.81
2199.3  87783.00  8667.78  9.87
2201.8  86889.47  8623.73  9.92
2204.3  86396.48  8619.03  9.98
2206.7  85744.25  8589.20  10.02
2209.2  85253.63  8578.73  10.06
2211.6  84615.30  8550.30  10.10
2214.1  84316.30  8547.05  10.14
2216.5  83728.07  8506.25  10.16
2219.0  83390.33  8496.31  10.19
2221.4  83002.50  8478.75  10.22
2223.9  82516.58  8439.08  10.23
2226.3  81991.00  8372.97  10.21
2228.7  81428.78  8298.71  10.19
2231.1  80823.60  8223.60  10.17
2233.6  80231.53  8128.78  10.13
2236.0  79680.42  8029.19  10.08
2238.4  79164.75  7926.72  10.01
2240.9  78681.93  7817.53  9.94
2243.3  78135.60  7688.40  9.84
2245.7  77550.30  7552.05  9.74
2248.1  77032.37  7425.16  9.64
2250.5  76502.28  7287.83  9.53
2252.9  75876.23  7132.81  9.40
2255.3  75291.65  6974.95  9.26
2257.7  74810.00  6850.00  9.16
2260.1  74296.83  6712.30  9.03
2262.5  73680.00  6560.00  8.90
2264.9  73147.88  6419.28  8.78
2267.3  72520.00  6273.33  8.65
2269.7  71999.20  6150.43  8.54
2272.1  71428.85  6023.36  8.43
2274.5  70851.72  5903.48  8.33
2276.8  70387.12  5782.96  8.22
2279.2  69797.25  5668.20  8.12
2281.6  69349.27  5563.51  8.02
2284.0  68882.00  5460.73  7.93
2286.3  68400.00  5360.53  7.84
2288.7  67994.12  5271.57  7.75
2291.1  67427.43  5161.01  7.65
2293.4  66979.73  5064.89  7.56
2295.8  66362.90  4954.30  7.47
2298.2  65732.85  4847.25  7.37
2300.5  65049.75  4736.85  7.28
2302.9  64283.67  4619.00  7.19
2305.2  63530.40  4504.53  7.09
2307.6  62828.50  4398.34  7.00
2309.9  62041.33  4302.11  6.93
2312.2  61431.67  4209.11  6.85
2314.6  60816.60  4122.75  6.78
2316.9  60123.15  4029.60  6.70
2319.2  59535.77  3956.61  6.65
2321.6  58894.27  3869.52  6.57
2323.9  58333.33  3784.72  6.49
2326.2  57779.80  3707.31  6.42
2328.6  57245.10  3633.12  6.35
2330.9  56721.00  3566.50  6.29
2333.2  56250.42  3492.50  6.21
2335.5  55800.50  3420.43  6.13
2337.8  55329.28  3346.43  6.05
2340.1  54746.98  3267.35  5.97
2342.4  54296.67  3213.89  5.92
2344.8  53862.83  3151.28  5.85
2347.1  53265.10  3074.32  5.77
2349.4  52703.73  3011.22  5.71
2351.6  52108.83  2941.45  5.64
2353.9  51602.90  2872.34  5.57
2356.2  51069.97  2805.11  5.49
2358.5  50478.40  2740.27  5.43
2360.8  49884.80  2680.53  5.37
2363.1  49431.85  2620.96  5.30
2365.4  48951.60  2553.80  5.22
2367.7  48472.80  2496.60  5.15
2369.9  47906.80  2431.22  5.07
2372.2  47277.07  2365.95  5.00
2374.5  46685.10  2302.30  4.93
2376.7  46060.08  2238.14  4.86
2379.0  45416.53  2175.43  4.79
2381.3  44776.67  2119.45  4.73
2383.5  44258.13  2061.15  4.66
2385.8  43630.80  2008.18  4.60
2388.0  43070.00  1943.07  4.51
2390.3  42553.87  1882.85  4.42
2392.5  42060.00  1832.00  4.36
2394.8  41575.60  1782.73  4.29
2397.0  41095.60  1726.98  4.20
2399.3  40619.23  1673.18  4.12
2401.5  40167.75  1621.08  4.04
2403.8  39622.72  1572.43  3.97
2406.0  39100.08  1527.25  3.91
2408.2  38671.60  1496.00  3.87
2410.4  38261.42  1439.75  3.76
2412.7  37825.67  1399.09  3.70
2414.9  37469.30  1349.33  3.60
2417.1  37058.60  1312.33  3.54
2419.3  36633.60  1275.73  3.48
2421.6  36257.08  1235.70  3.41
2423.8  35865.80  1197.26  3.34
2426.0  35483.45  1172.83  3.31
2428.2  35110.13  1136.80  3.24
2430.4  34803.67  1102.78  3.17
2432.6  34533.33  1071.11  3.10
2434.8  34218.67  1042.60  3.05
2437.0  33838.57  1003.02  2.96
2439.2  33467.27  973.20  2.91
2441.4  33142.63  940.70  2.84
2443.6  32897.48  921.11  2.80
2445.7  32639.72  902.42  2.76
2447.9  32342.33  886.03  2.74
2450.1  32034.00  861.73  2.69
2452.3  31649.57  832.88  2.63
2454.5  31288.43  803.72  2.57
2456.6  30887.33  779.91  2.53
2458.8  30516.20  767.43  2.51
2461.0  30202.92  740.05  2.45
2463.1  29900.25  717.80  2.40
2465.3  29617.87  697.52  2.36
2467.5  29382.00  693.25  2.36
2469.6  29147.17  676.22  2.32
2471.8  28816.98  660.74  2.29
2473.9  28477.33  638.53  2.24
2476.1  28119.00  621.84  2.21
2478.2  27785.60  609.33  2.19
2480.4  27461.15  608.88  2.22
2482.5  27111.32  593.53  2.19
2484.6  26787.75  576.58  2.15
2486.8  26533.00  559.97  2.11
2488.9  26247.68  536.63  2.04
2491.1  25862.67  539.46  2.09
2493.2  25450.87  526.90  2.07
2495.3  25028.03  513.07  2.05
2497.4  24697.40  499.10  2.02
2499.5  24372.10  496.29  2.04
2501.7  24239.17  487.52  2.01
2503.8  24155.58  490.36  2.03
2505.9  24087.50  472.64  1.96
2508.0  24102.93  472.95  1.96
2510.1  24106.73  464.97  1.93
2512.2  24203.65  470.98  1.95
2514.3  24412.57  487.24  2.00
2516.4  24684.10  505.63  2.05
