/*** Spectra Vista SIG Data ***/
name= 10_20221020_ACSA_01_avg.sig
comm= Averaged Ref/Tar of files: HR.102022.0028_moc.sig,HR.102022.0029_moc.sig,HR.102022.0030_moc.sig
data=
337.3  3027.13  230.64  7.62
338.8  3174.60  232.71  7.33
340.3  3326.35  222.20  6.68
341.8  3520.83  224.27  6.37
343.2  3685.20  223.69  6.07
344.7  3838.50  225.84  5.88
346.2  4003.30  216.31  5.40
347.7  4207.78  215.72  5.13
349.2  4384.80  220.68  5.03
350.6  4590.63  222.80  4.85
352.1  4858.60  234.08  4.82
353.6  5170.30  237.61  4.60
355.1  5421.68  242.46  4.47
356.6  5670.08  242.22  4.27
358.0  5933.40  243.05  4.10
359.5  6180.00  253.38  4.10
361.0  6493.73  257.07  3.96
362.5  6879.63  270.44  3.93
364.0  7197.43  283.47  3.94
365.4  7558.90  292.24  3.87
366.9  7900.75  303.35  3.84
368.4  8209.78  311.71  3.80
369.9  8566.93  319.41  3.73
371.3  8971.20  342.27  3.82
372.8  9398.70  359.31  3.82
374.3  9809.38  362.94  3.70
375.8  10187.10  365.75  3.59
377.2  10571.70  381.47  3.61
378.7  10975.20  382.23  3.48
380.2  11378.70  390.18  3.43
381.7  11863.98  398.17  3.36
383.1  12316.15  410.92  3.34
384.6  12786.15  426.98  3.34
386.1  13242.25  441.67  3.34
387.6  13663.65  453.53  3.32
389.0  14096.80  459.68  3.26
390.5  14549.40  463.24  3.18
392.0  15102.95  480.38  3.18
393.4  15633.63  496.72  3.18
394.9  16129.80  515.29  3.19
396.4  16663.50  535.00  3.21
397.9  17168.75  539.83  3.14
399.3  17727.50  560.53  3.16
400.8  18245.10  573.51  3.14
402.2  18878.95  587.80  3.11
403.7  19428.53  605.31  3.12
405.2  20029.05  627.28  3.13
406.6  20578.40  644.74  3.13
408.1  21131.00  665.30  3.15
409.6  21708.55  684.42  3.15
411.0  22353.45  702.92  3.14
412.5  22990.80  720.55  3.13
414.0  23614.63  741.26  3.14
415.4  24287.25  762.82  3.14
416.9  24922.58  784.03  3.15
418.4  25584.75  809.60  3.16
419.8  26280.80  832.52  3.17
421.3  26987.05  852.20  3.16
422.7  27735.60  880.77  3.18
424.2  28468.13  908.68  3.19
425.7  29193.30  931.89  3.19
427.1  29940.90  951.76  3.18
428.6  30705.50  979.31  3.19
430.0  31427.43  1005.74  3.20
431.5  32282.78  1031.10  3.19
432.9  33109.00  1062.19  3.21
434.4  33964.58  1089.11  3.21
435.9  34776.00  1114.13  3.20
437.3  35598.75  1140.86  3.20
438.8  36421.73  1170.55  3.21
440.2  37258.38  1197.22  3.21
441.7  38203.40  1228.21  3.21
443.1  39074.25  1260.26  3.23
444.6  40007.40  1292.53  3.23
446.0  40923.15  1326.66  3.24
447.5  41864.08  1357.49  3.24
448.9  42763.50  1390.25  3.25
450.4  43732.15  1426.60  3.26
451.8  44590.00  1460.21  3.27
453.3  45487.93  1493.54  3.28
454.7  46468.23  1527.92  3.29
456.2  47305.83  1560.68  3.30
457.6  48241.35  1597.43  3.31
459.1  49209.23  1629.33  3.31
460.5  50102.75  1662.58  3.32
462.0  51151.55  1695.65  3.31
463.4  52169.60  1733.51  3.32
464.8  53113.50  1769.53  3.33
466.3  54066.38  1804.95  3.34
467.7  55019.18  1837.79  3.34
469.2  56060.73  1874.12  3.34
470.6  57028.95  1907.99  3.35
472.0  58059.38  1946.78  3.35
473.5  59042.50  1982.48  3.36
474.9  60049.50  2022.55  3.37
476.4  61185.60  2067.98  3.38
477.8  62219.50  2104.85  3.38
479.2  63191.00  2139.51  3.39
480.7  64269.00  2180.21  3.39
482.1  65357.35  2225.44  3.41
483.6  66513.35  2270.71  3.41
485.0  67569.30  2315.31  3.43
486.4  68734.20  2364.44  3.44
487.9  69790.50  2414.80  3.46
489.3  70900.88  2462.72  3.47
490.7  71946.35  2516.85  3.50
492.2  73117.80  2581.32  3.53
493.6  74202.25  2639.09  3.56
495.0  75289.50  2703.54  3.59
496.5  76427.40  2775.25  3.63
497.9  77528.03  2854.36  3.68
499.3  78658.00  2941.01  3.74
500.7  79886.45  3038.13  3.80
502.2  81000.80  3145.95  3.88
503.6  82241.80  3268.45  3.97
505.0  83299.90  3400.61  4.08
506.5  84586.88  3563.17  4.21
507.9  85732.98  3747.48  4.37
509.3  87024.00  3958.08  4.55
510.7  88218.00  4193.61  4.75
512.2  89585.78  4467.95  4.99
513.6  91036.40  4787.43  5.26
515.0  92448.28  5140.24  5.56
516.4  93810.15  5520.83  5.89
517.8  95386.13  5952.01  6.24
519.3  96681.18  6392.87  6.61
520.7  98223.55  6882.49  7.01
522.1  99502.00  7362.56  7.40
523.5  100830.60  7858.13  7.79
524.9  102253.50  8355.92  8.17
526.3  103621.35  8832.90  8.52
527.8  105063.75  9309.68  8.86
529.2  106132.70  9747.72  9.18
530.6  107681.40  10207.89  9.48
532.0  109326.00  10646.40  9.74
533.4  110609.10  11022.51  9.97
534.8  111473.53  11326.90  10.16
536.3  113004.00  11675.12  10.33
537.7  114899.40  12040.44  10.48
539.1  116274.05  12340.85  10.61
540.5  117451.35  12610.27  10.74
541.9  119139.45  12928.17  10.85
543.3  120426.30  13201.57  10.96
544.7  121717.80  13475.45  11.07
546.1  123483.80  13804.68  11.18
547.5  124689.60  14064.11  11.28
549.0  126324.00  14362.44  11.37
550.4  127786.88  14623.95  11.44
551.8  129310.15  14872.43  11.50
553.2  130769.90  15087.59  11.54
554.6  132069.60  15251.16  11.55
556.0  133546.05  15390.84  11.52
557.4  135123.28  15503.43  11.47
558.8  136733.85  15584.44  11.40
560.2  138163.88  15605.38  11.29
561.6  139799.25  15607.91  11.16
563.0  141339.18  15562.46  11.01
564.4  142920.85  15483.18  10.83
565.8  144404.38  15362.74  10.64
567.2  146124.75  15234.90  10.43
568.6  147584.63  15060.84  10.20
570.0  148974.65  14857.64  9.97
571.4  150644.65  14672.82  9.74
572.8  152368.00  14494.18  9.51
574.2  153955.20  14316.48  9.30
575.6  155486.25  14150.25  9.10
577.0  156979.60  14005.97  8.92
578.4  158647.13  13897.87  8.76
579.8  160133.63  13790.22  8.61
581.2  161818.50  13718.47  8.48
582.5  163203.30  13638.75  8.36
583.9  164704.40  13578.43  8.24
585.3  166461.08  13555.43  8.14
586.7  167917.10  13515.64  8.05
588.1  169362.00  13490.62  7.97
589.5  170961.00  13492.85  7.89
590.9  172558.40  13505.96  7.83
592.3  174332.05  13545.03  7.77
593.7  175751.55  13568.41  7.72
595.0  177331.28  13605.13  7.67
596.4  178748.85  13625.74  7.62
597.8  180199.65  13645.57  7.57
599.2  181698.00  13658.23  7.52
600.6  183418.63  13670.82  7.45
602.0  184687.73  13634.17  7.38
603.3  186434.45  13610.01  7.30
604.7  188072.28  13556.22  7.21
606.1  189515.40  13472.88  7.11
607.5  191092.78  13385.64  7.00
608.9  192766.00  13288.76  6.89
610.2  194098.28  13161.83  6.78
611.6  195679.50  13050.48  6.67
613.0  197213.60  12937.15  6.56
614.4  198563.85  12818.96  6.46
615.8  199982.25  12714.98  6.36
617.1  201492.90  12630.10  6.27
618.5  203085.60  12569.29  6.19
619.9  204562.05  12525.06  6.12
621.3  206150.63  12508.66  6.07
622.6  207705.00  12517.78  6.03
624.0  209146.65  12542.60  6.00
625.4  210593.63  12584.94  5.98
626.8  212105.08  12650.97  5.96
628.1  213358.75  12715.30  5.96
629.5  215105.93  12806.88  5.95
630.9  216582.03  12877.61  5.95
632.2  217823.20  12917.01  5.93
633.6  219319.88  12939.32  5.90
635.0  220727.60  12908.85  5.85
636.3  222201.20  12817.65  5.77
637.7  223546.75  12663.23  5.66
639.1  225137.50  12470.67  5.54
640.4  226593.50  12229.08  5.40
641.8  227767.85  11950.90  5.25
643.2  229278.00  11685.35  5.10
644.5  230607.00  11421.89  4.95
645.9  232174.80  11182.63  4.82
647.2  233134.65  10962.31  4.70
648.6  234555.75  10816.01  4.61
650.0  235850.40  10699.61  4.54
651.3  236855.03  10609.28  4.48
652.7  239074.60  10580.39  4.43
654.0  241159.90  10554.72  4.38
655.4  242485.43  10511.86  4.34
656.8  242663.00  10425.14  4.30
658.1  244002.30  10372.39  4.25
659.5  246180.38  10344.51  4.20
660.8  247455.00  10281.00  4.15
662.2  248416.00  10206.08  4.11
663.5  249874.15  10169.80  4.07
664.9  250835.00  10144.95  4.04
666.2  251592.60  10133.14  4.03
667.6  253277.13  10191.68  4.02
668.9  254149.58  10248.88  4.03
670.3  256014.75  10353.87  4.04
671.6  256981.88  10463.44  4.07
673.0  258154.50  10608.20  4.11
674.3  259409.80  10777.01  4.15
675.7  260705.75  10971.70  4.21
677.0  261745.10  11180.10  4.27
678.4  263066.60  11425.94  4.34
679.7  264123.80  11693.81  4.43
681.1  265407.73  12014.90  4.53
682.4  266503.90  12379.58  4.65
683.8  267697.30  12824.31  4.79
685.1  268686.00  13362.87  4.97
686.4  269996.40  14067.40  5.21
687.8  271205.25  14981.03  5.52
689.1  272295.50  16196.73  5.95
690.5  273653.40  17844.88  6.52
691.8  274464.70  19973.00  7.28
693.1  275786.40  22730.03  8.24
694.5  276958.50  26034.88  9.40
695.8  278187.00  29858.83  10.73
697.1  279347.25  34120.45  12.21
698.5  280413.10  38736.36  13.81
699.8  281487.45  43612.23  15.49
701.1  282643.88  48642.19  17.21
702.5  283430.95  53641.08  18.93
703.8  284332.50  58597.93  20.61
705.1  285492.68  63451.64  22.23
706.5  286511.88  68105.24  23.77
707.8  287465.70  72539.16  25.23
709.1  288305.05  76715.29  26.61
710.5  289398.98  80758.46  27.91
711.8  290189.90  84518.06  29.13
713.1  291148.80  88135.76  30.27
714.4  292063.10  91542.56  31.34
715.8  292888.20  94748.45  32.35
717.1  294170.70  97942.38  33.29
718.4  295120.00  100864.85  34.18
719.7  296175.55  103678.89  35.01
721.0  296685.00  106163.36  35.78
722.4  297434.50  108577.39  36.50
723.7  298368.45  110945.31  37.18
725.0  299379.15  113197.99  37.81
726.3  300308.53  115293.86  38.39
727.6  300810.68  117123.34  38.94
729.0  301693.00  118974.64  39.44
730.3  302479.43  120674.24  39.90
731.6  303334.45  122309.39  40.32
732.9  304111.15  123807.04  40.71
734.2  304903.50  125223.44  41.07
735.5  305872.05  126638.43  41.40
736.8  306678.00  127876.85  41.70
738.1  307497.40  129058.86  41.97
739.5  308424.65  130204.94  42.22
740.8  309094.78  131184.60  42.44
742.1  309761.83  132109.27  42.65
743.4  310425.00  132973.10  42.84
744.7  311263.70  133874.90  43.01
746.0  312109.20  134706.76  43.16
747.3  312706.78  135368.31  43.29
748.6  313429.00  136041.66  43.40
749.9  314080.00  136643.62  43.51
751.2  314689.10  137194.36  43.60
752.5  315395.15  137790.82  43.69
753.8  315898.63  138240.96  43.76
755.1  316524.00  138703.07  43.82
756.4  317076.83  139110.97  43.87
757.7  318036.78  139667.63  43.92
759.0  319761.43  140547.02  43.95
760.3  320892.00  141134.65  43.98
761.6  322365.40  141889.72  44.02
762.9  322872.50  142186.70  44.04
764.2  323203.50  142399.12  44.06
765.5  323408.18  142562.79  44.08
766.8  323788.80  142767.10  44.09
768.1  324251.60  143014.95  44.11
769.3  324776.90  143279.67  44.12
770.6  325393.90  143584.47  44.13
771.9  326041.10  143892.95  44.13
773.2  326372.80  144066.71  44.14
774.5  326955.20  144327.04  44.14
775.8  327534.05  144612.69  44.15
777.1  328024.95  144858.01  44.16
778.4  328294.73  144994.07  44.17
779.6  328966.58  145318.17  44.17
780.9  329370.00  145513.14  44.18
782.2  329815.75  145725.77  44.18
783.5  330071.00  145853.03  44.19
784.8  330505.65  146068.22  44.20
786.0  330844.15  146235.90  44.20
787.3  331148.48  146397.42  44.21
788.6  331489.20  146567.76  44.21
789.9  331885.40  146768.21  44.22
791.2  332460.45  147039.21  44.23
792.4  333047.50  147313.15  44.23
793.7  333465.60  147512.85  44.24
795.0  334021.88  147768.86  44.24
796.2  334617.83  148043.66  44.24
797.5  335200.43  148335.94  44.25
798.8  335799.93  148615.62  44.26
800.0  336343.90  148896.24  44.27
801.3  336740.80  149069.96  44.27
802.6  337299.98  149315.10  44.27
803.8  337846.40  149597.86  44.28
805.1  338248.75  149793.37  44.28
806.4  338632.80  149989.90  44.29
807.7  339118.65  150228.75  44.30
808.9  339605.05  150446.42  44.30
810.2  340090.45  150651.60  44.30
811.4  340529.20  150860.78  44.30
812.7  341087.50  151132.35  44.31
814.0  341791.90  151491.18  44.32
815.2  342391.75  151776.76  44.33
816.5  342807.98  151961.72  44.33
817.7  343228.50  152154.64  44.33
819.0  343689.50  152373.77  44.33
820.2  343816.00  152434.86  44.34
821.5  344430.10  152748.08  44.35
822.7  344814.40  152908.77  44.35
824.0  345122.10  153050.27  44.35
825.2  345539.93  153252.15  44.35
826.5  345816.63  153405.58  44.36
827.7  346356.30  153647.53  44.36
829.0  346727.10  153825.29  44.36
830.2  347040.10  153965.64  44.37
831.5  347589.65  154192.62  44.36
832.7  347868.68  154333.31  44.37
834.0  348212.70  154487.31  44.37
835.2  348555.90  154659.11  44.37
836.4  348855.65  154804.93  44.38
837.7  349264.80  155005.81  44.38
838.9  349726.25  155209.74  44.38
840.1  350156.25  155391.48  44.38
841.4  350560.90  155568.39  44.38
842.6  350961.60  155758.34  44.38
843.8  351307.00  155933.48  44.39
845.1  351767.45  156191.11  44.40
846.3  352246.10  156381.92  44.40
847.5  352671.90  156572.16  44.40
848.8  353125.20  156757.17  44.39
850.0  353471.30  156948.99  44.40
851.2  354051.00  157195.26  44.40
852.5  354421.60  157376.39  44.40
853.7  354960.00  157620.39  44.41
854.9  355419.70  157832.32  44.41
856.1  355906.20  158030.69  44.40
857.4  356149.08  158125.27  44.40
858.6  356636.75  158389.93  44.41
859.8  357073.13  158563.50  44.41
861.0  357528.60  158773.68  44.41
862.2  358004.78  158985.30  44.41
863.5  358406.75  159148.47  44.40
864.7  358934.40  159360.46  44.40
865.9  359293.00  159537.35  44.40
867.1  359627.50  159715.57  44.41
868.3  360103.35  159905.26  44.41
869.5  360623.55  160120.79  44.40
870.8  361233.00  160353.47  44.39
872.0  361726.35  160571.62  44.39
873.2  362147.10  160742.64  44.39
874.4  362574.23  160944.28  44.39
875.6  362976.25  161118.15  44.39
876.8  363489.55  161324.58  44.38
878.0  363995.70  161531.69  44.38
879.2  364486.50  161750.77  44.38
880.4  365023.13  161962.51  44.37
881.6  365448.58  162149.61  44.37
882.8  365940.00  162322.87  44.36
884.0  366471.98  162577.13  44.36
885.2  367112.20  162788.74  44.34
886.5  367572.45  163032.14  44.35
887.7  368022.20  163211.04  44.35
888.8  368659.73  163457.88  44.34
890.0  369245.30  163695.49  44.33
891.2  369740.20  163932.16  44.34
892.4  370312.43  164190.53  44.34
893.6  370851.15  164410.72  44.33
894.8  371743.25  164759.95  44.32
896.0  372485.25  165092.45  44.32
897.2  373379.50  165422.86  44.30
898.4  374008.80  165717.23  44.31
899.6  374573.25  165920.03  44.30
900.8  374891.30  166107.63  44.31
902.0  375073.65  166171.78  44.30
903.2  375387.98  166266.50  44.29
904.3  375551.10  166353.76  44.30
905.5  376122.88  166576.69  44.29
906.7  376706.50  166797.44  44.28
907.9  377231.40  167015.75  44.27
909.1  377533.58  167128.38  44.27
910.2  377657.33  167164.22  44.26
911.4  377763.75  167215.43  44.26
912.6  377898.95  167227.33  44.25
913.8  378054.30  167293.78  44.25
915.0  378348.60  167427.05  44.25
916.2  378475.50  167463.31  44.25
917.3  378487.35  167426.17  44.24
918.5  378591.00  167449.85  44.23
919.7  378732.45  167529.55  44.23
920.8  378589.15  167486.08  44.24
922.0  378782.25  167481.42  44.22
923.2  378924.00  167503.70  44.21
924.4  379147.50  167510.18  44.18
925.5  379371.20  167576.99  44.17
926.7  379856.50  167750.29  44.16
927.9  380587.20  168081.66  44.16
929.0  381854.25  168639.51  44.16
930.2  383955.80  169512.93  44.15
931.4  386280.23  170457.71  44.13
932.5  388713.65  171525.12  44.13
933.7  390186.93  172057.35  44.10
934.9  390604.38  172242.71  44.10
936.0  390125.13  171979.55  44.08
937.2  387980.25  170982.33  44.07
938.3  386116.50  170130.05  44.06
939.5  384760.80  169340.20  44.01
940.7  384712.20  169331.32  44.02
941.8  386110.43  169866.53  43.99
943.0  387359.25  170413.83  43.99
944.2  388131.25  170676.86  43.97
945.3  387543.00  170327.67  43.95
946.5  386934.30  169901.89  43.91
947.6  386739.60  169779.30  43.90
948.8  386691.83  169553.83  43.85
949.9  386509.20  169491.40  43.85
951.1  386010.63  169191.54  43.83
952.2  385764.00  168933.37  43.79
953.4  385485.00  168636.37  43.75
954.5  385398.00  168421.83  43.70
955.7  385345.80  168198.00  43.65
956.8  385029.30  167905.44  43.61
958.0  384524.00  167620.65  43.59
959.1  384183.95  167389.06  43.57
960.3  383598.30  167069.17  43.55
961.4  383489.25  166905.78  43.52
962.6  383600.00  166824.90  43.49
963.7  383197.65  166636.42  43.49
964.9  383064.15  166491.74  43.46
966.0  382676.40  166330.99  43.47
967.2  382753.35  166258.53  43.44
968.3  382332.15  166063.62  43.43
969.5  382179.03  165939.75  43.42
970.6  382271.90  165939.88  43.41
971.8  382365.73  165947.04  43.40
972.9  381851.18  165910.42  43.45
974.0  382280.70  165932.76  43.41
975.2  382060.00  165861.48  43.41
976.3  382187.65  165764.89  43.37
977.5  381956.75  165773.91  43.40
978.6  382095.50  165744.28  43.38
979.7  382252.50  165751.97  43.36
980.9  381933.48  165691.32  43.38
982.0  382040.20  165564.46  43.34
983.2  381660.98  165471.58  43.36
984.3  381203.80  165278.95  43.36
985.4  381859.50  165191.43  43.26
986.6  381371.63  165141.14  43.30
987.7  382203.85  165391.84  43.27
988.9  381238.20  165252.46  43.35
990.0  382042.50  165444.33  43.31
993.1  385825.24  166961.24  43.27
996.9  384337.80  166607.78  43.35
1000.7  384214.43  166816.32  43.42
1004.5  384253.58  167073.93  43.48
1008.4  383972.08  167194.50  43.54
1012.2  383795.54  167358.42  43.61
1016.0  383381.40  167391.09  43.66
1019.8  382663.05  167272.88  43.71
1023.7  381389.63  166845.77  43.75
1027.5  379573.90  166196.22  43.78
1031.3  378433.13  165789.75  43.81
1035.1  377309.92  165382.63  43.83
1038.9  376800.97  165245.98  43.85
1042.7  376487.17  165213.86  43.88
1046.5  376350.00  165217.19  43.90
1050.3  376367.04  165256.71  43.91
1054.2  376008.50  165165.67  43.93
1058.0  375641.00  165035.44  43.93
1061.8  375615.63  165069.85  43.95
1065.6  374966.17  164775.74  43.94
1069.4  374098.73  164369.87  43.94
1073.2  372745.93  163760.61  43.93
1077.0  372069.80  163443.23  43.93
1080.8  372347.92  163509.08  43.91
1084.6  372571.50  163567.13  43.90
1088.4  372958.33  163720.93  43.90
1092.2  372498.75  163461.54  43.88
1096.0  371835.75  163089.33  43.86
1099.8  371140.47  162681.10  43.83
1103.6  370212.23  162176.48  43.81
1107.4  369019.28  161545.57  43.78
1111.2  368659.30  161289.19  43.75
1114.9  368123.58  160912.33  43.71
1118.7  367864.20  160611.94  43.66
1122.5  367536.00  160236.64  43.60
1126.3  366685.38  159576.79  43.52
1130.1  366316.33  159002.25  43.41
1133.9  364646.10  157679.20  43.24
1137.7  363089.60  156285.37  43.04
1141.4  361056.80  154565.54  42.81
1145.2  360088.25  153220.97  42.55
1149.0  358834.58  151834.80  42.31
1152.8  357055.20  150351.22  42.11
1156.6  355192.02  149055.32  41.96
1160.3  353417.33  147967.52  41.87
1164.1  351116.77  146819.38  41.81
1167.9  349528.13  146073.96  41.79
1171.7  348232.50  145499.63  41.78
1175.4  346766.47  144871.56  41.78
1179.2  345378.20  144244.46  41.76
1183.0  345036.33  144055.62  41.75
1186.7  345157.40  144049.57  41.73
1190.5  344858.53  143907.66  41.73
1194.3  343933.73  143507.54  41.73
1198.0  342443.48  142884.50  41.72
1201.8  340758.20  142222.85  41.74
1205.6  339690.00  141870.91  41.76
1209.3  339166.75  141796.77  41.81
1213.1  338715.23  141751.41  41.85
1216.8  338133.77  141687.75  41.90
1220.6  336993.07  141369.07  41.95
1224.3  335713.00  140990.74  42.00
1228.1  334184.40  140525.28  42.05
1231.9  332557.00  139977.80  42.09
1235.6  330811.73  139361.48  42.13
1239.4  329252.75  138836.07  42.17
1243.1  327868.24  138339.49  42.19
1246.9  326613.18  137864.25  42.21
1250.6  325597.60  137469.25  42.22
1254.3  324429.78  137011.85  42.23
1258.1  323195.37  136514.07  42.24
1261.8  321753.47  135913.12  42.24
1265.6  320675.37  135441.49  42.24
1269.3  319984.05  135117.11  42.23
1273.1  320341.53  135198.95  42.20
1276.8  319996.80  134950.92  42.17
1280.6  318724.47  134304.87  42.14
1284.3  316700.40  133317.94  42.10
1288.0  315510.62  132666.57  42.05
1291.8  315153.30  132313.90  41.98
1295.5  314503.20  131807.03  41.91
1299.2  313362.35  131050.58  41.82
1302.9  311714.03  130019.65  41.71
1306.7  309914.38  128879.22  41.59
1310.4  308166.67  127666.85  41.43
1314.1  306585.40  126483.11  41.26
1317.9  305185.63  125290.60  41.05
1321.6  303620.65  123961.83  40.83
1325.3  301926.98  122498.18  40.57
1329.0  300638.45  121164.08  40.30
1332.8  298729.20  119497.40  40.00
1336.5  297074.07  117928.46  39.70
1340.2  296933.00  116956.67  39.39
1343.9  296866.67  115991.79  39.07
1347.6  296949.00  115076.02  38.75
1351.4  298375.00  114708.86  38.44
1355.1  300370.77  114562.85  38.14
1358.8  302096.00  114242.29  37.82
1362.5  302343.10  113255.04  37.46
1366.2  300454.60  111273.50  37.04
1369.9  297307.00  108557.79  36.51
1373.6  294414.40  105572.57  35.86
1377.3  292846.20  102539.10  35.01
1381.0  292341.83  99194.05  33.93
1384.8  290468.75  94646.96  32.58
1388.4  287252.47  89164.17  31.04
1392.2  284996.67  83605.76  29.34
1395.9  283546.35  78153.92  27.56
1399.6  281768.96  72832.92  25.85
1403.3  280356.51  68073.75  24.28
1407.0  278706.40  63894.51  22.93
1410.7  276930.23  60433.84  21.82
1414.3  275030.06  57671.52  20.97
1418.1  273353.83  55620.16  20.35
1421.7  271946.38  54134.17  19.91
1425.4  270596.63  53063.17  19.61
1429.1  269354.63  52349.68  19.44
1432.8  267688.98  51813.82  19.36
1436.5  266902.50  51616.76  19.34
1440.2  266298.97  51605.73  19.38
1443.9  265232.83  51580.61  19.45
1447.6  263725.00  51528.40  19.54
1451.2  262487.50  51556.24  19.64
1454.9  261019.35  51579.26  19.76
1458.6  259772.86  51762.26  19.93
1462.3  258558.30  52075.47  20.14
1466.0  257213.48  52511.41  20.42
1469.7  255499.29  53041.99  20.76
1473.3  254436.17  53832.29  21.16
1477.0  252406.63  54510.10  21.60
1480.7  250755.75  55304.42  22.06
1484.4  248736.14  56005.70  22.52
1488.0  247148.00  56837.52  23.00
1491.7  245577.75  57632.92  23.47
1495.4  243924.88  58401.79  23.94
1499.0  242367.50  59145.50  24.40
1502.7  241118.75  59942.44  24.86
1506.4  239698.02  60651.65  25.30
1510.0  238242.43  61310.77  25.73
1513.7  236727.17  61913.54  26.15
1517.4  235353.33  62509.72  26.56
1521.0  234116.00  63097.39  26.95
1524.7  232867.92  63624.47  27.32
1528.3  231565.25  64107.32  27.68
1532.0  230341.65  64561.57  28.03
1535.7  228950.03  64906.40  28.35
1539.3  227694.32  65259.80  28.66
1543.0  226710.87  65669.07  28.97
1546.6  225995.25  66115.22  29.26
1550.3  224996.70  66440.44  29.53
1553.9  223943.93  66708.45  29.79
1557.6  222696.47  66889.95  30.04
1561.2  221414.40  67011.82  30.27
1564.9  220098.05  67107.99  30.49
1568.5  218745.80  67165.58  30.70
1572.2  217578.30  67245.31  30.91
1575.8  216468.00  67326.00  31.10
1579.5  215464.45  67405.97  31.28
1583.1  214396.96  67461.38  31.47
1586.8  213066.00  67404.00  31.64
1590.4  211847.20  67355.99  31.79
1594.0  210533.38  67266.47  31.95
1597.7  209746.53  67340.58  32.11
1601.3  208868.63  67375.80  32.26
1604.9  207894.36  67356.15  32.40
1608.6  206519.85  67175.93  32.53
1612.2  205129.65  66961.36  32.64
1615.8  203685.63  66708.66  32.75
1619.5  202417.92  66495.82  32.85
1623.1  201064.13  66243.90  32.95
1626.7  199842.50  66009.92  33.03
1630.3  198660.42  65772.15  33.11
1634.0  197526.00  65526.00  33.17
1637.6  196525.40  65285.41  33.22
1641.2  195491.70  64987.27  33.24
1644.8  194271.75  64589.97  33.25
1648.5  193182.66  64219.75  33.24
1652.1  192225.30  63848.83  33.22
1655.7  191288.20  63474.00  33.18
1659.3  190443.74  63152.23  33.16
1662.9  188997.50  62649.05  33.15
1666.6  187579.00  62162.61  33.14
1670.2  186160.45  61665.88  33.13
1673.8  184690.00  61125.59  33.10
1677.4  183507.05  60653.85  33.05
1681.0  182679.43  60255.07  32.98
1684.6  182280.58  59940.68  32.88
1688.2  181586.95  59466.39  32.75
1691.8  180900.20  59023.28  32.63
1695.4  180467.80  58633.83  32.49
1699.0  180080.13  58259.07  32.35
1702.6  179725.67  57865.71  32.20
1706.2  179109.99  57363.70  32.03
1709.8  178152.40  56778.45  31.87
1713.4  177388.99  56279.65  31.73
1717.0  176513.25  55782.39  31.60
1720.6  175674.75  55334.49  31.50
1724.2  174950.85  54919.74  31.39
1727.8  174218.80  54526.15  31.30
1731.4  173756.00  54214.48  31.20
1735.0  173591.73  53988.73  31.10
1738.6  173364.45  53704.20  30.98
1742.2  172824.87  53275.56  30.83
1745.8  172209.96  52795.61  30.66
1749.4  171280.73  52188.79  30.47
1753.0  169779.33  51410.90  30.28
1756.6  168140.29  50608.38  30.10
1760.1  166792.13  49919.11  29.93
1763.7  165063.33  49132.38  29.77
1767.3  163616.85  48458.11  29.62
1770.9  162323.93  47845.93  29.48
1774.5  160829.92  47203.05  29.35
1778.0  159664.42  46686.16  29.24
1781.6  158575.05  46237.80  29.16
1785.2  157416.93  45802.64  29.10
1788.8  156239.70  45399.23  29.06
1792.3  154968.70  44988.38  29.03
1795.9  154405.44  44788.62  29.01
1799.5  154207.00  44721.62  29.00
1803.1  155337.35  45047.10  29.00
1806.6  157547.43  45679.61  28.99
1810.2  159285.23  46162.77  28.98
1813.8  159971.30  46335.19  28.96
1817.3  159352.80  46120.88  28.94
1820.9  157977.13  45679.73  28.92
1824.5  156520.83  45194.67  28.87
1828.0  155326.42  44749.24  28.81
1831.6  154787.33  44463.29  28.73
1835.2  154501.67  44200.00  28.61
1838.7  154285.87  43880.29  28.44
1842.3  154110.00  43508.57  28.23
1845.8  152947.25  42751.13  27.95
1849.4  152335.90  42014.62  27.58
1852.9  151507.07  41063.28  27.10
1856.5  150497.43  39865.73  26.49
1860.0  149469.23  38432.18  25.71
1863.6  149375.60  36989.67  24.76
1867.1  149925.30  35407.40  23.62
1870.7  150792.28  33507.97  22.22
1874.2  149887.80  30858.94  20.59
1877.8  147345.53  27731.66  18.82
1881.3  144436.88  24459.95  16.93
1884.9  142548.08  21477.54  15.07
1888.4  140983.23  18693.86  13.26
1891.9  139310.93  16251.53  11.67
1895.5  137846.62  14267.82  10.35
1899.0  137086.13  12803.52  9.34
1901.3  175352.33  12859.67  7.33
1904.1  175214.25  11868.00  6.77
1906.8  174163.20  11026.20  6.33
1909.6  171986.85  10345.88  6.02
1912.4  169954.98  9834.38  5.79
1915.1  168498.00  9455.97  5.61
1917.9  166957.50  9178.11  5.50
1920.6  165682.80  8987.12  5.42
1923.3  164391.03  8863.17  5.39
1926.1  162749.50  8769.22  5.39
1928.8  161186.67  8707.11  5.40
1931.6  159997.00  8704.50  5.44
1934.3  158941.97  8755.09  5.51
1937.0  157907.87  8832.47  5.59
1939.8  156734.08  8919.17  5.69
1942.5  155210.00  9009.00  5.80
1945.2  153259.70  9081.05  5.93
1947.9  151663.87  9193.88  6.06
1950.7  150387.13  9330.42  6.20
1953.4  148512.05  9457.68  6.37
1956.1  147050.67  9617.56  6.54
1958.8  145731.30  9788.71  6.72
1961.5  144182.40  9960.53  6.91
1964.2  142606.10  10137.40  7.11
1966.9  140999.00  10320.02  7.32
1969.6  139716.00  10527.00  7.53
1972.3  138279.30  10736.37  7.76
1975.0  137192.70  10974.00  8.00
1977.7  136058.80  11205.98  8.24
1980.4  134910.23  11437.58  8.48
1983.1  133800.83  11674.52  8.73
1985.8  132866.40  11930.60  8.98
1988.4  131820.00  12176.67  9.24
1991.1  130872.70  12432.00  9.50
1993.8  129982.42  12686.60  9.76
1996.5  129336.17  12959.47  10.02
1999.1  128655.45  13223.71  10.28
2001.8  127954.63  13488.14  10.54
2004.5  127258.80  13744.85  10.80
2007.1  126532.20  13989.93  11.06
2009.8  125761.77  14216.22  11.30
2012.4  125165.70  14461.64  11.55
2015.1  124604.90  14708.32  11.80
2017.8  123810.63  14906.89  12.04
2020.4  123287.27  15136.61  12.28
2023.1  122912.77  15373.09  12.51
2025.7  122668.00  15608.67  12.72
2028.3  122338.67  15813.78  12.93
2031.0  121931.37  16006.28  13.13
2033.6  121643.40  16202.30  13.32
2036.2  121373.70  16393.70  13.51
2038.9  120756.00  16518.40  13.68
2041.5  120412.03  16663.36  13.84
2044.1  119851.20  16779.40  14.00
2046.8  119477.10  16907.00  14.15
2049.4  118815.90  16991.10  14.30
2052.0  118511.33  17114.42  14.44
2054.6  118107.50  17222.92  14.58
2057.2  117533.20  17303.65  14.72
2059.8  117210.07  17417.18  14.86
2062.4  116323.92  17450.77  15.00
2065.0  115777.80  17530.71  15.14
2067.6  114868.23  17546.65  15.28
2070.2  114249.35  17604.76  15.41
2072.8  113613.03  17665.78  15.55
2075.4  113181.25  17742.08  15.68
2078.0  112549.63  17783.32  15.80
2080.6  111971.20  17831.73  15.93
2083.2  111249.00  17854.78  16.05
2085.8  110749.05  17903.36  16.17
2088.4  110072.17  17934.61  16.29
2090.9  109264.95  17924.28  16.40
2093.5  108382.30  17904.45  16.52
2096.1  107604.62  17894.58  16.63
2098.7  106831.68  17874.08  16.73
2101.2  105856.73  17833.47  16.85
2103.8  105184.27  17836.38  16.96
2106.4  104503.07  17830.56  17.06
2108.9  103848.07  17818.91  17.16
2111.5  102983.47  17775.24  17.26
2114.0  102328.47  17769.42  17.37
2116.6  101788.75  17774.17  17.46
2119.1  101219.93  17761.27  17.55
2121.7  100738.75  17762.50  17.63
2124.2  100334.50  17778.80  17.72
2126.8  99523.95  17710.13  17.79
2129.3  99105.60  17717.33  17.88
2131.9  98516.00  17673.33  17.94
2134.4  98084.55  17670.50  18.02
2136.9  97681.13  17660.07  18.08
2139.4  97143.20  17626.93  18.15
2142.0  96682.13  17609.20  18.21
2144.5  96395.90  17624.97  18.28
2147.0  96158.40  17631.42  18.34
2149.5  95667.07  17592.71  18.39
2152.1  95501.82  17613.32  18.44
2154.6  95417.60  17643.73  18.49
2157.1  94866.33  17591.39  18.54
2159.6  94448.50  17545.97  18.58
2162.1  94285.10  17547.83  18.61
2164.6  94036.80  17542.09  18.65
2167.1  93706.73  17518.74  18.70
2169.6  93355.62  17490.16  18.73
2172.1  92896.57  17420.22  18.75
2174.6  92564.73  17390.45  18.79
2177.1  92118.52  17350.55  18.84
2179.5  91703.95  17304.16  18.87
2182.0  91209.25  17250.75  18.91
2184.5  90680.53  17177.76  18.94
2187.0  90050.60  17096.34  18.99
2189.5  89361.45  17006.78  19.03
2191.9  88559.00  16894.17  19.08
2194.4  87926.85  16808.00  19.12
2196.9  87168.00  16694.40  19.15
2199.3  86487.67  16600.89  19.19
2201.8  85585.20  16459.07  19.23
2204.3  85110.50  16387.29  19.25
2206.7  84473.60  16285.33  19.28
2209.2  83988.57  16208.67  19.30
2211.6  83348.10  16094.10  19.31
2214.1  83042.70  16046.03  19.32
2216.5  82466.53  15943.00  19.33
2219.0  82118.87  15880.09  19.34
2221.4  81743.08  15797.25  19.33
2223.9  81277.00  15684.86  19.30
2226.3  80761.33  15559.25  19.27
2228.7  80183.48  15411.41  19.22
2231.1  79576.20  15262.50  19.18
2233.6  78979.93  15098.67  19.12
2236.0  78421.00  14917.97  19.02
2238.4  77915.25  14739.47  18.92
2240.9  77460.13  14555.65  18.79
2243.3  76913.80  14370.22  18.68
2245.7  76346.35  14168.80  18.56
2248.1  75836.37  13966.62  18.42
2250.5  75304.28  13760.36  18.27
2252.9  74670.27  13524.76  18.11
2255.3  74087.70  13313.10  17.97
2257.7  73620.00  13110.00  17.81
2260.1  73143.00  12899.52  17.64
2262.5  72520.00  12686.67  17.49
2264.9  71969.85  12489.15  17.35
2267.3  71340.00  12280.00  17.21
2269.7  70845.37  12100.20  17.08
2272.1  70286.95  11919.83  16.96
2274.5  69713.62  11740.40  16.84
2276.8  69225.18  11592.62  16.75
2279.2  68631.45  11413.45  16.63
2281.6  68201.67  11271.31  16.53
2284.0  67730.60  11123.47  16.42
2286.3  67254.93  10971.02  16.31
2288.7  66833.22  10835.07  16.21
2291.1  66271.07  10656.31  16.08
2293.4  65819.60  10502.80  15.96
2295.8  65219.60  10327.47  15.83
2298.2  64625.40  10143.00  15.70
2300.5  63931.95  9960.15  15.58
2302.9  63167.67  9765.00  15.46
2305.2  62428.30  9582.43  15.35
2307.6  61745.25  9408.80  15.24
2309.9  60977.00  9231.11  15.14
2312.2  60367.33  9093.33  15.06
2314.6  59771.25  8959.65  14.99
2316.9  59057.10  8811.30  14.92
2319.2  58488.73  8676.90  14.84
2321.6  57855.93  8535.10  14.75
2323.9  57302.08  8399.31  14.66
2326.2  56746.90  8273.63  14.58
2328.6  56221.00  8147.52  14.49
2330.9  55723.50  8018.50  14.39
2333.2  55245.00  7902.22  14.30
2335.5  54794.70  7789.60  14.22
2337.8  54337.22  7677.73  14.13
2340.1  53754.92  7544.74  14.04
2342.4  53321.67  7431.66  13.94
2344.8  52869.42  7314.17  13.83
2347.1  52300.03  7190.48  13.75
2349.4  51734.27  7072.70  13.67
2351.6  51161.40  6947.85  13.58
2353.9  50654.03  6840.67  13.50
2356.2  50136.17  6732.99  13.43
2358.5  49537.60  6611.73  13.35
2360.8  48966.40  6492.27  13.26
2363.1  48512.08  6382.28  13.16
2365.4  48036.30  6275.27  13.06
2367.7  47572.20  6178.80  12.99
2369.9  47025.15  6076.13  12.92
2372.2  46371.20  5947.38  12.83
2374.5  45795.75  5821.20  12.71
2376.7  45177.22  5692.17  12.60
2379.0  44532.40  5572.37  12.51
2381.3  43901.67  5452.22  12.42
2383.5  43378.13  5334.76  12.30
2385.8  42771.83  5204.79  12.17
2388.0  42255.80  5093.67  12.05
2390.3  41723.20  4984.00  11.95
2392.5  41232.00  4864.00  11.80
2394.8  40764.90  4755.30  11.67
2397.0  40306.93  4655.16  11.55
2399.3  39815.13  4548.45  11.42
2401.5  39371.50  4442.67  11.28
2403.8  38834.45  4343.68  11.19
2406.0  38330.25  4242.36  11.07
2408.2  37923.60  4147.24  10.94
2410.4  37499.93  4057.08  10.82
2412.7  37084.23  3966.88  10.70
2414.9  36710.30  3870.90  10.54
2417.1  36296.60  3784.60  10.43
2419.3  35865.60  3699.20  10.31
2421.6  35469.17  3603.75  10.16
2423.8  35087.80  3518.29  10.03
2426.0  34730.42  3431.93  9.88
2428.2  34378.40  3358.13  9.77
2430.4  34062.60  3273.04  9.61
2432.6  33773.33  3208.89  9.50
2434.8  33470.13  3141.17  9.38
2437.0  33113.17  3067.28  9.26
2439.2  32750.88  2987.19  9.12
2441.4  32420.07  2922.08  9.01
2443.6  32165.20  2841.63  8.83
2445.7  31917.78  2785.92  8.73
2447.9  31646.50  2718.39  8.59
2450.1  31345.55  2650.77  8.46
2452.3  30971.97  2583.35  8.34
2454.5  30593.45  2515.18  8.22
2456.6  30216.80  2449.11  8.11
2458.8  29872.70  2402.40  8.04
2461.0  29554.17  2335.50  7.90
2463.1  29245.50  2269.80  7.76
2465.3  28944.73  2219.39  7.67
2467.5  28733.00  2178.08  7.58
2469.6  28475.92  2133.08  7.49
2471.8  28156.25  2097.33  7.45
2473.9  27828.75  2041.28  7.34
2476.1  27482.00  1986.83  7.23
2478.2  27145.80  1934.63  7.13
2480.4  26847.15  1893.17  7.05
2482.5  26476.50  1852.84  7.00
2484.6  26164.42  1812.86  6.93
2486.8  25905.00  1768.87  6.83
2488.9  25584.78  1725.65  6.74
2491.1  25212.13  1692.45  6.71
2493.2  24812.20  1644.57  6.63
2495.3  24434.80  1608.68  6.58
2497.4  24101.70  1583.17  6.57
2499.5  23773.32  1548.21  6.51
2501.7  23647.57  1522.82  6.44
2503.8  23537.07  1510.07  6.42
2505.9  23472.50  1520.42  6.48
2508.0  23489.85  1512.27  6.44
2510.1  23498.70  1490.28  6.34
2512.2  23616.45  1498.58  6.35
2514.3  23786.12  1499.68  6.30
2516.4  23994.60  1497.20  6.24
