/*** Spectra Vista SIG Data ***/
name= 35_20221021_ACSA_24_avg.sig
comm= Averaged Ref/Tar of files: HR.102122.0021_moc.sig,HR.102122.0022_moc.sig,HR.102122.0023_moc.sig
data=
337.3  3126.38  310.98  9.95
338.8  3270.80  296.84  9.08
340.3  3420.05  308.76  9.03
341.8  3612.28  307.45  8.51
343.2  3774.00  306.99  8.13
344.7  3923.80  303.02  7.72
346.2  4085.00  294.12  7.20
347.7  4286.43  277.90  6.48
349.2  4498.20  289.44  6.43
350.6  4774.25  291.70  6.11
352.1  5037.23  291.92  5.80
353.6  5274.40  301.40  5.71
355.1  5556.38  298.91  5.38
356.6  5833.95  301.53  5.17
358.0  6124.80  309.89  5.06
359.5  6427.20  316.06  4.92
361.0  6733.13  325.47  4.83
362.5  7055.28  330.67  4.69
364.0  7426.83  341.37  4.60
365.4  7755.60  348.98  4.50
366.9  8149.38  358.34  4.40
368.4  8509.80  367.82  4.32
369.9  8837.18  390.70  4.42
371.3  9264.90  428.22  4.62
372.8  9664.20  448.06  4.64
374.3  10105.00  447.40  4.43
375.8  10483.55  453.79  4.33
377.2  10921.40  458.07  4.19
378.7  11324.90  466.78  4.12
380.2  11728.40  472.93  4.03
381.7  12215.30  482.85  3.95
383.1  12693.45  485.10  3.82
384.6  13163.80  498.40  3.79
386.1  13620.60  510.64  3.75
387.6  14067.90  519.49  3.69
389.0  14525.60  531.41  3.66
390.5  14974.20  540.10  3.61
392.0  15526.15  555.20  3.58
393.4  16080.30  565.04  3.51
394.9  16625.70  580.66  3.49
396.4  17155.13  593.89  3.46
397.9  17706.88  606.22  3.42
399.3  18234.00  623.72  3.42
400.8  18793.45  644.25  3.43
402.2  19394.50  662.15  3.41
403.7  20006.33  674.10  3.37
405.2  20620.93  690.41  3.35
406.6  21181.60  710.14  3.35
408.1  21763.80  741.28  3.41
409.6  22345.10  760.93  3.41
411.0  23015.30  784.05  3.41
412.5  23657.20  807.61  3.41
414.0  24307.38  838.67  3.45
415.4  25002.75  873.74  3.49
416.9  25655.03  908.31  3.54
418.4  26331.75  944.42  3.59
419.8  27045.20  980.72  3.63
421.3  27771.35  1020.27  3.67
422.7  28518.60  1065.54  3.74
424.2  29278.13  1111.18  3.80
425.7  30024.60  1156.83  3.85
427.1  30779.63  1206.32  3.92
428.6  31573.50  1253.58  3.97
430.0  32322.75  1296.38  4.01
431.5  33178.28  1352.63  4.08
432.9  34031.95  1403.89  4.13
434.4  34924.35  1458.70  4.18
435.9  35756.00  1511.47  4.23
437.3  36588.75  1560.43  4.26
438.8  37439.85  1609.35  4.30
440.2  38295.95  1656.78  4.33
441.7  39248.60  1704.73  4.34
443.1  40147.50  1749.00  4.36
444.6  41107.80  1794.32  4.36
446.0  42039.00  1839.24  4.38
447.5  42988.55  1887.30  4.39
448.9  43924.50  1929.84  4.39
450.4  44923.55  1980.98  4.41
451.8  45786.00  2028.49  4.43
453.3  46703.90  2085.03  4.46
454.7  47693.50  2149.66  4.51
456.2  48562.20  2205.17  4.54
457.6  49529.03  2265.35  4.57
459.1  50501.75  2331.24  4.62
460.5  51440.25  2400.11  4.67
462.0  52490.53  2480.10  4.72
463.4  53525.90  2562.81  4.79
464.8  54501.00  2635.99  4.84
466.3  55468.88  2709.36  4.88
467.7  56440.75  2775.05  4.92
469.2  57496.38  2843.42  4.95
470.6  58476.10  2902.60  4.96
472.0  59523.18  2961.65  4.98
473.5  60539.75  3009.30  4.97
474.9  61574.25  3053.57  4.96
476.4  62712.00  3103.54  4.95
477.8  63756.50  3146.36  4.93
479.2  64757.00  3195.80  4.94
480.7  65846.78  3252.88  4.94
482.1  66975.75  3321.30  4.96
483.6  68160.65  3403.32  4.99
485.0  69233.93  3494.68  5.05
486.4  70407.45  3597.87  5.11
487.9  71487.00  3720.04  5.20
489.3  72623.70  3856.55  5.31
490.7  73683.90  4008.28  5.44
492.2  74881.80  4189.08  5.59
493.6  75974.90  4375.74  5.76
495.0  77073.75  4583.61  5.95
496.5  78261.78  4819.27  6.16
497.9  79362.40  5067.49  6.39
499.3  80536.40  5340.58  6.63
500.7  81776.30  5643.74  6.90
502.2  82913.40  5965.70  7.20
503.6  84154.40  6315.26  7.50
505.0  85233.70  6676.49  7.83
506.5  86522.40  7076.24  8.18
507.9  87689.88  7485.64  8.54
509.3  89022.00  7927.72  8.91
510.7  90265.50  8371.07  9.27
512.2  91655.70  8843.81  9.65
513.6  93117.15  9331.33  10.02
515.0  94539.35  9820.40  10.39
516.4  95922.23  10308.33  10.75
517.8  97547.25  10817.60  11.09
519.3  98876.88  11298.87  11.43
520.7  100429.40  11798.52  11.75
522.1  101724.03  12263.93  12.06
523.5  103068.50  12722.87  12.34
524.9  104527.35  13184.48  12.61
526.3  105960.40  13631.95  12.87
527.8  107424.90  14082.32  13.11
529.2  108486.90  14469.46  13.34
530.6  109993.40  14912.12  13.56
532.0  111692.00  15380.00  13.77
533.4  113025.45  15786.56  13.97
534.8  113893.70  16116.62  14.15
536.3  115506.60  16552.05  14.33
537.7  117469.80  17037.60  14.50
539.1  118911.60  17445.16  14.67
540.5  120102.35  17818.16  14.84
541.9  121859.48  18279.28  15.00
543.3  123146.43  18668.60  15.16
544.7  124476.60  19078.17  15.33
546.1  126268.73  19564.17  15.49
547.5  127489.60  19965.65  15.66
549.0  129107.00  20430.67  15.82
550.4  130623.75  20874.38  15.98
551.8  132204.53  21347.91  16.15
553.2  133702.90  21816.33  16.32
554.6  135033.60  22267.09  16.49
556.0  136547.55  22759.16  16.67
557.4  138158.83  23284.35  16.85
558.8  139807.80  23845.02  17.06
560.2  141276.38  24395.87  17.27
561.6  142937.18  25004.51  17.49
563.0  144523.58  25623.45  17.73
564.4  146117.50  26279.95  17.99
565.8  147645.00  26976.57  18.27
567.2  149392.75  27749.13  18.57
568.6  150879.75  28509.69  18.90
570.0  152300.08  29246.81  19.20
571.4  154025.95  30028.43  19.50
572.8  155783.38  30828.96  19.79
574.2  157404.80  31618.13  20.09
575.6  158962.50  32411.14  20.39
577.0  160482.60  33212.10  20.70
578.4  162184.75  34076.03  21.01
579.8  163725.30  34915.69  21.33
581.2  165441.48  35808.64  21.64
582.5  166865.40  36649.97  21.96
583.9  168374.20  37519.73  22.28
585.3  170157.83  38457.79  22.60
586.7  171644.85  39332.52  22.92
588.1  173132.88  40212.04  23.23
589.5  174783.00  41132.93  23.53
590.9  176390.00  42048.75  23.84
592.3  178197.45  43006.82  24.13
593.7  179655.45  43879.40  24.42
595.0  181255.73  44783.68  24.71
596.4  182711.55  45640.73  24.98
597.8  184187.53  46493.46  25.24
599.2  185737.20  47343.00  25.49
600.6  187496.08  48228.12  25.72
602.0  188782.35  48973.89  25.94
603.3  190553.65  49831.48  26.15
604.7  192202.13  50626.93  26.34
606.1  193696.80  51347.30  26.51
607.5  195325.98  52082.68  26.66
608.9  197037.20  52807.39  26.80
610.2  198407.48  53420.58  26.92
611.6  200019.98  54073.19  27.03
613.0  201563.05  54693.39  27.13
614.4  202943.40  55243.72  27.22
615.8  204399.00  55795.07  27.30
617.1  205932.30  56357.84  27.37
618.5  207570.00  56942.79  27.43
619.9  209069.40  57507.31  27.51
621.3  210688.20  58113.41  27.58
622.6  212264.75  58725.28  27.67
624.0  213719.85  59323.59  27.76
625.4  215186.40  59940.60  27.86
626.8  216739.25  60602.66  27.96
628.1  218031.55  61193.59  28.07
629.5  219799.03  61922.79  28.17
630.9  221279.03  62544.55  28.27
632.2  222542.25  63058.08  28.34
633.6  224080.63  63557.23  28.36
635.0  225543.60  63918.47  28.34
636.3  227027.90  64146.42  28.25
637.7  228394.38  64175.31  28.10
639.1  230037.50  64109.67  27.87
640.4  231507.15  63838.73  27.58
641.8  232705.38  63348.69  27.22
643.2  234270.93  62842.02  26.82
644.5  235607.50  62217.21  26.41
645.9  237193.20  61615.97  25.98
647.2  238284.90  60926.64  25.57
648.6  239841.00  60452.61  25.21
650.0  241185.60  60020.02  24.89
651.3  242104.78  59583.25  24.61
652.7  244191.70  59550.66  24.39
654.0  246289.50  59568.79  24.19
655.4  247632.58  59423.66  24.00
656.8  247770.50  58930.07  23.78
658.1  249109.80  58639.94  23.54
659.5  251485.50  58436.57  23.24
660.8  252967.50  57904.28  22.89
662.2  253948.80  57104.64  22.49
663.5  255544.55  56342.85  22.05
664.9  256581.00  55439.85  21.61
666.2  257386.80  54503.32  21.18
667.6  259103.95  53838.12  20.78
668.9  260073.65  53140.55  20.43
670.3  261809.88  52749.59  20.15
671.6  262933.50  52458.58  19.95
673.0  264106.13  52378.94  19.83
674.3  265398.90  52516.34  19.79
675.7  266688.08  52844.19  19.81
677.0  267757.93  53307.63  19.91
678.4  269079.43  54035.93  20.08
679.7  270158.65  54991.60  20.36
681.1  271434.20  56367.78  20.77
682.4  272537.20  58197.09  21.35
683.8  273708.50  60618.41  22.15
685.1  274726.13  63599.89  23.15
686.4  276034.80  67227.94  24.35
687.8  277279.50  71327.99  25.72
689.1  278369.75  75715.27  27.20
690.5  279710.25  80350.59  28.73
691.8  280510.48  84907.98  30.27
693.1  281833.95  89557.24  31.78
694.5  283010.00  93908.97  33.18
695.8  284261.25  97954.13  34.46
697.1  285444.25  101634.00  35.61
698.5  286542.10  104953.13  36.63
699.8  287632.38  107975.76  37.54
701.1  288788.80  110733.04  38.34
702.5  289609.65  113077.73  39.04
703.8  290520.00  115224.86  39.66
705.1  291681.98  117219.53  40.19
706.5  292732.13  118969.79  40.64
707.8  293679.00  120534.61  41.04
709.1  294533.73  121905.98  41.39
710.5  295672.30  123277.37  41.69
711.8  296500.80  124430.60  41.97
713.1  297504.30  125571.94  42.21
714.4  298396.30  126602.84  42.43
715.8  299243.70  127546.23  42.62
717.1  300540.45  128638.94  42.80
718.4  301526.40  129543.25  42.96
719.7  302625.88  130460.31  43.11
721.0  303142.50  131091.00  43.24
722.4  303883.80  131790.79  43.37
723.7  304846.35  132546.51  43.48
725.0  305878.50  133307.45  43.58
726.3  306813.65  134017.10  43.68
727.6  307338.63  134514.46  43.77
729.0  308272.48  135155.32  43.84
730.3  309041.55  135724.70  43.92
731.6  309932.20  136323.51  43.98
732.9  310721.25  136851.24  44.04
734.2  311495.25  137377.77  44.10
735.5  312506.10  137995.86  44.16
736.8  313314.00  138491.51  44.20
738.1  314141.60  138997.85  44.25
739.5  315121.13  139542.70  44.28
740.8  315800.93  139959.24  44.32
742.1  316500.63  140382.70  44.35
743.4  317150.00  140780.48  44.39
744.7  318035.78  141293.61  44.43
746.0  318928.35  141784.72  44.46
747.3  319470.90  142134.87  44.49
748.6  320227.00  142545.13  44.51
749.9  320866.00  142923.24  44.54
751.2  321488.10  143271.62  44.57
752.5  322272.60  143690.02  44.59
753.8  322782.43  143995.09  44.61
755.1  323440.00  144346.06  44.63
756.4  324012.15  144655.52  44.65
757.7  325024.88  145145.87  44.66
759.0  326789.73  145989.33  44.67
760.3  327940.80  146557.21  44.69
761.6  329467.60  147281.41  44.70
762.9  329961.25  147546.88  44.72
764.2  330305.10  147733.78  44.73
765.5  330542.78  147882.34  44.74
766.8  330942.40  148095.97  44.75
768.1  331430.40  148352.99  44.76
769.3  331993.55  148636.39  44.77
770.6  332632.95  148960.72  44.78
771.9  333310.25  149291.01  44.79
773.2  333643.20  149484.62  44.80
774.5  334219.60  149752.87  44.81
775.8  334833.10  150062.31  44.82
777.1  335370.75  150335.71  44.83
778.4  335680.40  150486.74  44.83
779.6  336368.10  150841.64  44.84
780.9  336810.00  151062.28  44.85
782.2  337227.00  151288.61  44.86
783.5  337482.50  151431.05  44.87
784.8  337934.48  151675.44  44.88
786.0  338289.00  151844.68  44.89
787.3  338608.05  152017.65  44.89
788.6  338968.08  152211.40  44.90
789.9  339388.00  152414.56  44.91
791.2  340017.85  152703.53  44.91
792.4  340631.75  153008.40  44.92
793.7  341080.80  153225.20  44.92
795.0  341632.50  153510.09  44.93
796.2  342215.78  153797.37  44.94
797.5  342839.93  154098.30  44.95
798.8  343443.75  154392.18  44.95
800.0  344049.70  154685.44  44.96
801.3  344466.20  154886.19  44.96
802.6  345001.73  155147.82  44.97
803.8  345615.98  155437.53  44.97
805.1  346037.13  155651.40  44.98
806.4  346405.20  155842.79  44.99
807.7  346929.08  156080.98  44.99
808.9  347434.00  156321.56  44.99
810.2  347881.80  156550.20  45.00
811.4  348348.70  156771.14  45.00
812.7  348968.75  157042.32  45.00
814.0  349692.70  157412.47  45.01
815.2  350366.00  157695.72  45.01
816.5  350755.68  157893.50  45.02
817.7  351198.60  158094.46  45.02
819.0  351684.30  158314.42  45.02
820.2  351780.00  158390.78  45.03
821.5  352511.75  158693.75  45.02
822.7  352782.80  158851.43  45.03
824.0  353108.70  158982.74  45.02
825.2  353504.25  159196.01  45.03
826.5  353806.10  159341.96  45.04
827.7  354376.48  159573.81  45.03
829.0  354815.45  159749.32  45.02
830.2  355149.90  159879.86  45.02
831.5  355613.65  160093.13  45.02
832.7  355863.90  160225.57  45.02
834.0  356178.35  160380.01  45.03
835.2  356592.23  160533.41  45.02
836.4  356858.15  160667.84  45.02
837.7  357286.40  160848.05  45.02
838.9  357767.20  161035.10  45.01
840.1  358055.78  161210.07  45.02
841.4  358526.90  161409.59  45.02
842.6  358938.00  161592.29  45.02
843.8  359276.60  161752.74  45.02
845.1  359779.70  161984.80  45.02
846.3  360239.40  162170.41  45.02
847.5  360649.80  162352.44  45.02
848.8  361035.60  162521.05  45.02
850.0  361427.85  162682.36  45.01
851.2  361982.25  162921.47  45.01
852.5  362330.50  163097.87  45.01
853.7  362855.25  163341.26  45.02
854.9  363351.70  163541.47  45.01
856.1  363806.30  163748.22  45.01
857.4  364016.78  163822.57  45.00
858.6  364531.50  164027.73  45.00
859.8  365051.25  164217.89  44.98
861.0  365461.20  164417.76  44.99
862.2  365894.10  164609.70  44.99
863.5  366307.50  164780.23  44.98
864.7  366847.80  165008.05  44.98
865.9  367220.20  165168.17  44.98
867.1  367561.55  165300.83  44.97
868.3  368037.45  165489.79  44.97
869.5  368566.80  165713.85  44.96
870.8  369036.00  165942.34  44.97
872.0  369613.50  166157.43  44.95
873.2  369962.10  166306.18  44.95
874.4  370550.70  166501.86  44.93
875.6  370953.75  166688.72  44.94
876.8  371393.25  166919.38  44.94
878.0  371915.75  167113.45  44.93
879.2  372420.90  167299.34  44.92
880.4  372883.88  167508.04  44.92
881.6  373398.63  167684.03  44.91
882.8  373815.20  167857.52  44.90
884.0  374436.88  168102.27  44.89
885.2  374917.50  168288.78  44.89
886.5  375480.10  168561.14  44.89
887.7  375944.40  168718.85  44.88
888.8  376600.65  168976.97  44.87
890.0  377103.55  169187.02  44.86
891.2  377611.00  169439.94  44.87
892.4  378294.53  169692.93  44.86
893.6  378848.20  169917.35  44.85
894.8  379661.00  170276.78  44.85
896.0  380524.50  170590.90  44.83
897.2  381338.75  170906.54  44.82
898.4  381988.20  171185.90  44.81
899.6  382571.63  171425.41  44.81
900.8  382903.60  171575.67  44.81
902.0  383094.90  171635.40  44.80
903.2  383310.30  171719.62  44.80
904.3  383588.40  171810.53  44.79
905.5  384170.68  172024.92  44.78
906.7  384765.00  172282.19  44.78
907.9  385291.90  172483.73  44.77
909.1  385474.28  172604.57  44.78
910.2  385591.80  172598.23  44.76
911.4  385798.73  172641.74  44.75
912.6  386042.80  172658.88  44.73
913.8  386310.38  172693.38  44.70
915.0  386470.35  172845.12  44.72
916.2  386714.25  172836.30  44.69
917.3  386452.80  172809.89  44.72
918.5  386657.20  172829.80  44.70
919.7  386888.55  172876.74  44.68
920.8  386969.73  172848.88  44.67
922.0  387002.00  172834.20  44.66
923.2  387250.50  172819.40  44.63
924.4  387450.00  172831.69  44.61
925.5  387508.60  172873.65  44.61
926.7  388114.25  173060.20  44.59
927.9  388684.80  173363.01  44.60
929.0  390241.80  173922.89  44.57
930.2  392361.40  174770.72  44.54
931.4  394860.83  175808.91  44.52
932.5  397637.00  176880.63  44.48
933.7  398790.48  177406.11  44.49
934.9  399345.63  177587.67  44.47
936.0  398987.88  177255.00  44.43
937.2  396749.10  176155.40  44.40
938.3  394808.30  175252.80  44.39
939.5  393220.80  174437.14  44.36
940.7  393307.20  174437.57  44.35
941.8  394881.68  174970.57  44.31
943.0  396321.75  175449.90  44.27
944.2  397081.10  175601.45  44.22
945.3  396435.00  175327.66  44.23
946.5  395566.20  174850.48  44.20
947.6  395702.50  174713.89  44.15
948.8  395228.93  174448.80  44.14
949.9  395589.60  174242.16  44.05
951.1  395034.25  173857.09  44.01
952.2  394740.00  173559.31  43.97
953.4  394396.75  173221.53  43.92
954.5  394243.20  172984.83  43.88
955.7  393913.80  172673.76  43.84
956.8  393745.30  172323.62  43.77
958.0  393384.00  171926.19  43.70
959.1  392987.23  171667.09  43.68
960.3  392337.35  171316.04  43.67
961.4  392402.15  171047.26  43.59
962.6  392470.75  170980.57  43.57
963.7  392029.35  170722.84  43.55
964.9  391850.03  170697.00  43.56
966.0  391420.35  170480.08  43.55
967.2  391470.30  170399.39  43.53
968.3  391015.35  170257.91  43.54
969.5  390845.85  170034.85  43.50
970.6  390933.65  169957.28  43.47
971.8  391049.05  170044.88  43.48
972.9  390905.70  169981.24  43.48
974.0  391080.00  170045.31  43.48
975.2  390929.25  169977.72  43.48
976.3  390433.73  169906.70  43.52
977.5  390654.78  169897.82  43.49
978.6  390497.60  169977.72  43.53
979.7  390322.28  170067.98  43.57
980.9  390050.13  169968.66  43.58
982.0  389719.40  169884.02  43.59
983.2  389835.78  169656.30  43.52
984.3  388817.00  169489.51  43.59
985.4  388802.40  169594.11  43.62
986.6  388741.13  169475.11  43.60
987.7  389378.33  169913.93  43.64
988.9  388821.60  169815.64  43.67
990.0  389319.50  170046.16  43.68
993.1  385274.40  165533.54  42.97
996.9  384199.15  165498.58  43.08
1000.7  384277.48  165915.49  43.18
1004.5  384368.75  166317.12  43.27
1008.4  383972.08  166511.61  43.37
1012.2  383795.54  166775.37  43.45
1016.0  383381.40  166946.83  43.55
1019.8  382743.90  166995.68  43.63
1023.7  381731.11  166791.57  43.69
1027.5  380291.57  166365.39  43.75
1031.3  379462.88  166152.61  43.79
1035.1  378555.28  165873.08  43.82
1038.9  378212.08  165799.18  43.84
1042.7  377978.33  165778.83  43.86
1046.5  377829.67  165791.60  43.88
1050.3  377847.93  165828.36  43.89
1054.2  377492.50  165744.25  43.91
1058.0  377099.80  165565.12  43.90
1061.8  377055.23  165571.14  43.91
1065.6  376527.90  165299.18  43.90
1069.4  375900.27  165002.73  43.90
1073.2  374762.70  164468.17  43.89
1077.0  374051.45  164108.07  43.87
1080.8  374039.58  164013.99  43.85
1084.6  373901.03  163864.98  43.83
1088.4  374034.43  163844.77  43.80
1092.2  373551.75  163507.50  43.77
1096.0  372904.74  163101.71  43.74
1099.8  372275.80  162672.99  43.70
1103.6  371388.93  162116.44  43.65
1107.4  370323.93  161454.36  43.60
1111.2  370044.30  161162.56  43.55
1114.9  369576.67  160732.17  43.49
1118.7  369334.35  160355.25  43.42
1122.5  368986.80  159837.48  43.32
1126.3  368071.61  159009.35  43.20
1130.1  367662.31  158244.43  43.04
1133.9  365992.90  156717.20  42.82
1137.7  364451.70  155070.13  42.55
1141.4  362419.85  153054.65  42.23
1145.2  361516.58  151388.13  41.88
1149.0  360247.71  149677.92  41.55
1152.8  358405.45  147899.72  41.27
1156.6  356581.87  146383.60  41.05
1160.3  354804.33  145134.43  40.91
1164.1  352425.37  143869.84  40.82
1167.9  350726.04  143031.25  40.78
1171.7  349437.38  142421.63  40.76
1175.4  348008.43  141791.75  40.74
1179.2  346666.58  141182.48  40.73
1183.0  346314.33  140955.29  40.70
1186.7  346194.33  140844.50  40.68
1190.5  345742.67  140580.52  40.66
1194.3  344809.00  140121.64  40.64
1198.0  343402.13  139529.23  40.63
1201.8  341704.25  138876.28  40.64
1205.6  340583.33  138508.14  40.67
1209.3  339959.35  138396.77  40.71
1213.1  339452.18  138314.37  40.75
1216.8  338805.50  138227.13  40.80
1220.6  337732.27  137937.07  40.84
1224.3  336516.33  137582.31  40.88
1228.1  335057.40  137174.63  40.94
1231.9  333508.25  136675.60  40.98
1235.6  331809.45  136083.24  41.01
1239.4  330239.88  135592.66  41.06
1243.1  328879.78  135120.95  41.09
1246.9  327595.53  134659.91  41.11
1250.6  326530.13  134284.80  41.12
1254.3  325349.75  133839.99  41.14
1258.1  324146.67  133353.13  41.14
1261.8  322696.67  132756.65  41.14
1265.6  321448.62  132213.48  41.13
1269.3  320525.65  131780.47  41.11
1273.1  320839.78  131801.36  41.08
1276.8  320734.80  131595.94  41.03
1280.6  319771.93  131045.56  40.98
1284.3  317815.60  130073.08  40.93
1288.0  316485.12  129304.55  40.86
1291.8  315867.93  128745.37  40.76
1295.5  315051.73  128068.70  40.65
1299.2  313919.14  127193.95  40.52
1302.9  312353.97  126077.43  40.36
1306.7  310628.15  124829.37  40.19
1310.4  308937.08  123511.00  39.98
1314.1  307361.45  122185.49  39.75
1317.9  305976.46  120823.69  39.49
1321.6  304456.19  119315.35  39.19
1325.3  302794.80  117654.45  38.86
1329.0  301494.32  116074.73  38.50
1332.8  299545.40  114158.00  38.11
1336.5  297867.93  112334.31  37.71
1340.2  297797.50  111104.50  37.31
1343.9  297900.83  109947.56  36.91
1347.6  298385.85  108920.29  36.50
1351.4  300328.00  108475.64  36.12
1355.1  302924.97  108269.70  35.74
1358.8  305056.00  107814.86  35.34
1362.5  305513.40  106630.22  34.90
1366.2  303313.15  104294.39  34.39
1369.9  299815.25  101237.14  33.77
1373.6  296943.73  97939.40  32.98
1377.3  295596.90  94539.13  31.98
1381.0  295171.00  90681.14  30.72
1384.8  293036.25  85463.39  29.16
1388.4  289602.02  79361.82  27.40
1392.2  287328.75  73248.09  25.49
1395.9  285789.85  67266.08  23.54
1399.6  283857.32  61534.83  21.68
1403.3  282247.51  56477.87  20.01
1407.0  280386.30  52117.27  18.59
1410.7  278419.35  48554.43  17.44
1414.3  276380.13  45753.24  16.55
1418.1  274592.46  43675.18  15.91
1421.7  273112.35  42169.86  15.44
1425.4  271711.70  41102.84  15.13
1429.1  270430.88  40390.13  14.94
1432.8  268705.93  39865.76  14.84
1436.5  267870.22  39638.48  14.80
1440.2  267155.13  39566.02  14.81
1443.9  265976.43  39523.67  14.86
1447.6  264356.40  39474.60  14.93
1451.2  263065.73  39517.68  15.02
1454.9  261595.05  39571.80  15.13
1458.6  260376.53  39762.23  15.27
1462.3  259219.77  40087.46  15.46
1466.0  257884.35  40542.15  15.72
1469.7  256152.33  41102.93  16.05
1473.3  255074.00  41893.57  16.42
1477.0  253012.07  42622.93  16.85
1480.7  251315.93  43471.07  17.30
1484.4  249266.84  44273.43  17.76
1488.0  247661.33  45181.71  18.24
1491.7  246059.28  46065.89  18.72
1495.4  244361.63  46931.91  19.21
1499.0  242773.50  47775.43  19.68
1502.7  241479.17  48676.84  20.16
1506.4  240042.62  49499.33  20.62
1510.0  238587.23  50285.38  21.08
1513.7  237070.17  51013.09  21.52
1517.4  235697.33  51739.24  21.95
1521.0  234458.40  52452.42  22.37
1524.7  233205.92  53102.21  22.77
1528.3  231904.25  53713.34  23.16
1532.0  230680.45  54290.68  23.54
1535.7  229274.53  54770.57  23.89
1539.3  227991.64  55247.84  24.23
1543.0  227005.04  55763.17  24.56
1546.6  226291.00  56313.21  24.89
1550.3  225291.75  56743.93  25.19
1553.9  224210.57  57127.70  25.48
1557.6  222975.13  57431.21  25.76
1561.2  221693.40  57671.29  26.01
1564.9  220347.50  57890.22  26.27
1568.5  219009.58  58066.05  26.51
1572.2  217859.30  58261.34  26.74
1575.8  216748.00  58454.00  26.97
1579.5  215727.60  58640.90  27.18
1583.1  214675.13  58798.47  27.39
1586.8  213360.00  58858.00  27.59
1590.4  212155.93  58921.96  27.77
1594.0  210803.02  58929.88  27.95
1597.7  209904.48  59055.82  28.13
1601.3  208925.33  59138.10  28.31
1604.9  207894.36  59172.92  28.46
1608.6  206561.80  59097.56  28.61
1612.2  205283.93  59003.18  28.74
1615.8  203895.25  58870.69  28.87
1619.5  202668.42  58760.14  28.99
1623.1  201329.50  58592.16  29.10
1626.7  200094.05  58431.47  29.20
1630.3  198897.00  58261.13  29.29
1634.0  197778.00  58084.00  29.37
1637.6  196792.67  57906.44  29.43
1641.2  195744.60  57675.25  29.46
1644.8  194511.59  57336.27  29.48
1648.5  193408.13  56996.77  29.47
1652.1  192450.90  56655.82  29.44
1655.7  191543.80  56313.14  29.40
1659.3  190684.43  56012.39  29.37
1662.9  189266.67  55563.69  29.36
1666.6  187832.20  55139.32  29.36
1670.2  186399.44  54719.05  29.36
1673.8  184913.87  54271.68  29.35
1677.4  183745.90  53889.78  29.33
1681.0  182918.70  53563.42  29.28
1684.6  182491.83  53301.39  29.21
1688.2  181813.35  52884.62  29.09
1691.8  181126.47  52479.73  28.97
1695.4  180680.80  52126.17  28.85
1699.0  180307.87  51791.03  28.72
1702.6  179940.67  51423.90  28.58
1706.2  179311.71  50929.35  28.40
1709.8  178369.03  50339.52  28.22
1713.4  177622.73  49835.28  28.06
1717.0  176705.00  49336.64  27.92
1720.6  175866.83  48888.37  27.80
1724.2  175129.95  48476.40  27.68
1727.8  174399.40  48076.15  27.57
1731.4  173922.38  47738.82  27.45
1735.0  173759.12  47473.83  27.32
1738.6  173534.40  47142.36  27.17
1742.2  172995.46  46682.30  26.98
1745.8  172350.28  46169.15  26.79
1749.4  171390.45  45544.83  26.57
1753.0  169919.13  44782.60  26.36
1756.6  168279.42  44001.04  26.15
1760.1  166931.70  43321.42  25.95
1763.7  165170.67  42556.57  25.77
1767.3  163707.90  41887.34  25.59
1770.9  162459.91  41284.60  25.41
1774.5  160981.50  40654.65  25.25
1778.0  159846.72  40153.74  25.12
1781.6  158741.70  39721.13  25.02
1785.2  157597.23  39318.28  24.95
1788.8  156420.90  38960.16  24.91
1792.3  155197.20  38599.09  24.87
1795.9  154715.28  38445.89  24.85
1799.5  154489.00  38369.90  24.84
1803.1  155368.38  38574.43  24.83
1806.6  157487.46  39061.86  24.80
1810.2  159413.33  39491.40  24.77
1813.8  160499.75  39713.11  24.74
1817.3  160223.80  39598.91  24.71
1820.9  159157.63  39286.29  24.68
1824.5  157867.55  38898.13  24.64
1828.0  156881.54  38559.12  24.58
1831.6  156565.08  38354.47  24.50
1835.2  156442.50  38134.64  24.38
1838.7  156276.93  37817.81  24.20
1842.3  156015.00  37403.57  23.97
1845.8  154705.79  36630.09  23.68
1849.4  154038.15  35873.26  23.29
1852.9  153087.90  34886.73  22.79
1856.5  151964.05  33656.20  22.15
1860.0  150870.65  32207.46  21.35
1863.6  150939.92  30751.42  20.37
1867.1  151811.80  29184.40  19.22
1870.7  152823.45  27286.05  17.85
1874.2  151622.10  24691.37  16.28
1877.8  148693.60  21740.54  14.62
1881.3  145517.13  18776.66  12.90
1884.9  143592.53  16166.87  11.26
1888.4  142027.99  13825.94  9.73
1891.9  140494.40  11867.88  8.45
1895.5  139184.93  10350.08  7.44
1899.0  138653.25  9274.82  6.69
1901.3  180295.50  8709.39  4.83
1904.1  180374.25  7976.50  4.42
1906.8  179267.40  7397.80  4.13
1909.6  176956.85  6933.15  3.92
1912.4  174768.18  6581.01  3.77
1915.1  173158.15  6342.42  3.66
1917.9  171496.33  6177.33  3.60
1920.6  170038.23  6036.48  3.55
1923.3  168483.00  5941.91  3.53
1926.1  166532.20  5858.26  3.52
1928.8  164618.67  5827.56  3.54
1931.6  163105.75  5807.61  3.56
1934.3  161759.35  5820.86  3.60
1937.0  160489.10  5863.84  3.65
1939.8  159108.67  5903.64  3.71
1942.5  157432.00  5951.00  3.78
1945.2  155339.25  5977.40  3.85
1947.9  153620.37  6033.38  3.93
1950.7  152281.87  6117.19  4.02
1953.4  150355.20  6188.40  4.12
1956.1  148868.08  6284.05  4.22
1958.8  147548.05  6397.44  4.34
1961.5  145985.60  6510.53  4.46
1964.2  144389.70  6624.80  4.59
1966.9  142745.65  6742.25  4.72
1969.6  141453.00  6885.00  4.87
1972.3  140005.90  7028.03  5.02
1975.0  138909.60  7192.10  5.18
1977.7  137760.42  7356.04  5.34
1980.4  136575.90  7527.65  5.51
1983.1  135430.85  7702.63  5.69
1985.8  134467.20  7888.00  5.87
1988.4  133406.00  8080.22  6.06
1991.1  132461.23  8279.37  6.25
1993.8  131567.88  8473.06  6.44
1996.5  130904.40  8694.22  6.64
1999.1  130197.83  8903.89  6.84
2001.8  129500.00  9113.92  7.04
2004.5  128798.50  9324.70  7.24
2007.1  128054.60  9523.65  7.44
2009.8  127263.97  9729.77  7.65
2012.4  126673.62  9935.02  7.84
2015.1  126115.73  10138.41  8.04
2017.8  125304.20  10313.96  8.23
2020.4  124786.57  10506.59  8.42
2023.1  124423.60  10702.45  8.60
2025.7  124184.67  10902.67  8.78
2028.3  123838.00  11090.45  8.96
2031.0  123433.58  11262.29  9.12
2033.6  123148.50  11443.40  9.29
2036.2  122878.80  11614.50  9.45
2038.9  122252.40  11745.00  9.61
2041.5  121911.30  11895.34  9.76
2044.1  121347.60  12017.60  9.90
2046.8  120973.50  12148.10  10.04
2049.4  120321.00  12243.80  10.18
2052.0  120013.47  12360.58  10.30
2054.6  119595.00  12465.83  10.42
2057.2  119026.60  12552.71  10.55
2059.8  118694.73  12666.25  10.67
2062.4  117788.32  12717.62  10.80
2065.0  117245.00  12791.42  10.91
2067.6  116332.63  12828.03  11.03
2070.2  115731.18  12897.76  11.14
2072.8  115068.72  12950.06  11.25
2075.4  114607.50  13022.92  11.36
2078.0  113972.53  13072.53  11.47
2080.6  113396.80  13129.60  11.58
2083.2  112686.73  13164.61  11.68
2085.8  112180.73  13218.92  11.78
2088.4  111494.33  13250.00  11.88
2090.9  110684.43  13257.33  11.98
2093.5  109784.97  13258.12  12.08
2096.1  109001.17  13274.55  12.18
2098.7  108201.88  13289.18  12.28
2101.2  107219.13  13271.76  12.38
2103.8  106520.47  13283.40  12.47
2106.4  105848.00  13292.13  12.56
2108.9  105166.80  13303.78  12.65
2111.5  104293.47  13283.40  12.74
2114.0  103647.20  13300.87  12.83
2116.6  103127.50  13317.50  12.91
2119.1  102561.23  13325.33  12.99
2121.7  102051.25  13340.83  13.07
2124.2  101631.97  13375.01  13.16
2126.8  100815.10  13338.95  13.23
2129.3  100408.00  13361.33  13.31
2131.9  99792.00  13346.67  13.37
2134.4  99350.10  13360.55  13.45
2136.9  98960.33  13375.34  13.52
2139.4  98411.13  13376.85  13.59
2142.0  97932.33  13388.67  13.67
2144.5  97650.80  13418.23  13.74
2147.0  97418.00  13450.62  13.81
2149.5  96899.87  13450.62  13.88
2152.1  96741.52  13495.96  13.95
2154.6  96659.73  13545.60  14.01
2157.1  96110.75  13528.11  14.08
2159.6  95683.83  13528.11  14.14
2162.1  95522.70  13559.00  14.19
2164.6  95269.80  13581.26  14.26
2167.1  94946.48  13576.03  14.30
2169.6  94627.52  13576.15  14.35
2172.1  94152.30  13548.38  14.39
2174.6  93797.20  13547.87  14.44
2177.1  93353.20  13519.63  14.48
2179.5  92933.75  13499.85  14.53
2182.0  92443.45  13470.23  14.57
2184.5  91909.75  13433.80  14.62
2187.0  91286.37  13376.47  14.65
2189.5  90575.32  13314.60  14.70
2191.9  89756.00  13239.83  14.75
2194.4  89101.50  13185.37  14.80
2196.9  88348.80  13107.20  14.84
2199.3  87667.00  13030.67  14.86
2201.8  86743.47  12922.62  14.90
2204.3  86259.05  12872.92  14.92
2206.7  85606.35  12801.72  14.95
2209.2  85125.15  12752.80  14.98
2211.6  84486.60  12668.70  14.99
2214.1  84196.90  12633.18  15.00
2216.5  83618.80  12552.42  15.01
2219.0  83281.07  12509.38  15.02
2221.4  82883.50  12442.11  15.01
2223.9  82387.67  12359.47  15.00
2226.3  81872.00  12253.69  14.97
2228.7  81300.30  12146.62  14.94
2231.1  80685.00  12015.30  14.89
2233.6  80102.40  11883.58  14.84
2236.0  79541.58  11738.03  14.76
2238.4  79016.00  11602.50  14.68
2240.9  78552.80  11453.13  14.58
2243.3  78006.47  11290.89  14.47
2245.7  77420.95  11127.42  14.37
2248.1  76912.77  10969.98  14.26
2250.5  76392.47  10801.97  14.14
2252.9  75746.67  10611.18  14.01
2255.3  75172.25  10427.60  13.87
2257.7  74700.00  10256.67  13.73
2260.1  74206.53  10086.84  13.59
2262.5  73570.00  9913.33  13.47
2264.9  73028.08  9753.72  13.36
2267.3  72410.00  9576.67  13.23
2269.7  71898.87  9431.33  13.12
2272.1  71338.70  9282.11  13.01
2274.5  70761.87  9144.73  12.92
2276.8  70276.93  9015.00  12.83
2279.2  69676.65  8877.50  12.74
2281.6  69238.53  8754.65  12.64
2284.0  68760.80  8625.40  12.54
2286.3  68278.40  8498.49  12.45
2288.7  67871.92  8380.88  12.35
2291.1  67304.63  8241.25  12.24
2293.4  66856.53  8110.67  12.13
2295.8  66229.00  7955.03  12.01
2298.2  65619.00  7807.35  11.90
2300.5  64935.90  7652.10  11.78
2302.9  64170.00  7498.56  11.69
2305.2  63417.10  7343.90  11.58
2307.6  62735.65  7204.47  11.48
2309.9  61948.33  7057.67  11.39
2312.2  61328.33  6940.55  11.32
2314.6  60713.10  6824.10  11.24
2316.9  60009.30  6696.45  11.16
2319.2  59421.73  6579.38  11.07
2321.6  58780.05  6454.97  10.98
2323.9  58218.75  6340.28  10.89
2326.2  57685.90  6239.14  10.82
2328.6  57151.05  6127.18  10.72
2330.9  56626.50  6020.00  10.63
2333.2  56144.58  5923.14  10.55
2335.5  55704.20  5842.20  10.49
2337.8  55243.02  5743.92  10.40
2340.1  54639.15  5632.49  10.31
2342.4  54177.50  5543.06  10.23
2344.8  53731.83  5454.69  10.15
2347.1  53155.43  5359.04  10.08
2349.4  52593.57  5251.28  9.98
2351.6  52009.68  5144.78  9.89
2353.9  51503.60  5056.95  9.82
2356.2  50981.03  4958.03  9.73
2358.5  50377.60  4868.27  9.66
2360.8  49761.60  4763.73  9.57
2363.1  49319.68  4681.09  9.49
2365.4  48861.20  4599.10  9.41
2367.7  48381.60  4514.40  9.33
2369.9  47826.65  4423.52  9.25
2372.2  47185.33  4326.76  9.17
2374.5  46581.15  4223.45  9.07
2376.7  45955.53  4131.66  8.99
2379.0  45323.47  4048.40  8.93
2381.3  44706.67  3943.34  8.82
2383.5  44164.27  3848.54  8.71
2385.8  43536.67  3745.72  8.60
2388.0  42999.20  3654.07  8.50
2390.3  42458.93  3567.91  8.40
2392.5  41964.00  3488.00  8.31
2394.8  41490.90  3408.17  8.21
2397.0  41010.67  3324.54  8.11
2399.3  40521.77  3244.83  8.01
2401.5  40069.75  3164.58  7.90
2403.8  39511.87  3083.27  7.80
2406.0  39013.17  3004.83  7.70
2408.2  38609.27  2937.98  7.61
2410.4  38199.00  2862.85  7.49
2412.7  37762.83  2793.99  7.40
2414.9  37393.40  2723.97  7.28
2417.1  36982.40  2662.77  7.20
2419.3  36556.80  2598.40  7.11
2421.6  36153.75  2531.67  7.00
2423.8  35762.07  2467.99  6.90
2426.0  35379.58  2406.24  6.80
2428.2  35018.67  2338.93  6.68
2430.4  34711.03  2298.19  6.62
2432.6  34426.67  2235.56  6.49
2434.8  34111.73  2187.68  6.41
2437.0  33757.97  2131.42  6.31
2439.2  33386.17  2072.55  6.21
2441.4  33060.83  2013.19  6.09
2443.6  32800.77  1966.57  6.00
2445.7  32556.42  1934.41  5.94
2447.9  32286.67  1883.39  5.83
2450.1  31977.80  1826.50  5.71
2452.3  31593.10  1778.70  5.63
2454.5  31217.52  1730.37  5.54
2456.6  30816.00  1683.47  5.46
2458.8  30444.70  1625.43  5.34
2461.0  30116.42  1595.45  5.30
2463.1  29827.50  1566.55  5.25
2465.3  29544.70  1526.74  5.17
2467.5  29308.25  1499.58  5.12
2469.6  29072.58  1461.83  5.03
2471.8  28771.93  1431.59  4.98
2473.9  28432.08  1397.72  4.92
2476.1  28058.33  1354.89  4.83
2478.2  27709.43  1320.22  4.76
2480.4  27399.75  1304.75  4.76
2482.5  27064.87  1269.64  4.69
2484.6  26725.42  1241.47  4.65
2486.8  26454.50  1219.37  4.61
2488.9  26121.42  1189.01  4.55
2491.1  25751.60  1168.84  4.54
2493.2  25371.03  1149.60  4.53
2495.3  24963.90  1122.33  4.50
2497.4  24633.00  1094.80  4.44
2499.5  24291.18  1062.70  4.37
2501.7  24157.00  1062.69  4.40
2503.8  24055.28  1047.58  4.35
2505.9  24002.08  1036.39  4.32
2508.0  24015.35  1027.64  4.28
2510.1  24053.08  1025.31  4.26
2512.2  24166.95  1015.37  4.20
2514.3  24355.62  1031.43  4.23
2516.4  24684.10  1083.50  4.39
