/*** Spectra Vista SIG Data ***/
name= 18_20221020_QURU_46_avg.sig
comm= Averaged Ref/Tar of files: HR.102022.0051_moc.sig,HR.102022.0052_moc.sig,HR.102022.0053_moc.sig
data=
337.3  3076.75  187.16  6.08
338.8  3174.60  184.61  5.82
340.3  3373.20  187.40  5.56
341.8  3566.55  191.61  5.37
343.2  3729.60  186.06  4.99
344.7  3838.50  179.94  4.69
346.2  4003.30  176.63  4.41
347.7  4207.78  171.53  4.08
349.2  4384.80  182.16  4.15
350.6  4627.35  185.37  4.01
352.1  4894.33  194.28  3.97
353.6  5170.30  192.01  3.71
355.1  5421.68  194.03  3.58
356.6  5702.85  191.03  3.35
358.0  5965.30  200.51  3.36
359.5  6272.70  198.35  3.16
361.0  6553.58  210.62  3.21
362.5  6908.90  224.44  3.25
364.0  7254.78  232.95  3.21
365.4  7587.00  237.38  3.13
366.9  7956.00  237.05  2.98
368.4  8291.60  245.48  2.96
369.9  8648.00  259.18  3.00
371.3  9051.30  272.85  3.01
372.8  9451.80  283.45  3.00
374.3  9836.25  288.72  2.94
375.8  10241.00  298.25  2.91
377.2  10652.40  303.07  2.85
378.7  11055.90  307.43  2.78
380.2  11432.50  320.49  2.80
381.7  11945.05  325.59  2.73
383.1  12370.05  332.64  2.69
384.6  12867.08  340.91  2.65
386.1  13296.30  345.92  2.60
387.6  13744.50  360.87  2.63
389.0  14177.20  367.54  2.59
390.5  14629.05  379.79  2.60
392.0  15182.30  386.17  2.54
393.4  15738.73  400.88  2.55
394.9  16234.20  416.11  2.56
396.4  16767.00  424.35  2.53
397.9  17271.25  439.53  2.54
399.3  17803.48  451.75  2.54
400.8  18344.80  464.32  2.53
402.2  18952.60  483.75  2.55
403.7  19524.83  494.11  2.53
405.2  20123.75  509.80  2.53
406.6  20694.40  520.78  2.52
408.1  21244.00  538.53  2.53
409.6  21818.30  552.51  2.53
411.0  22438.85  569.54  2.54
412.5  23094.93  586.87  2.54
414.0  23716.50  606.79  2.56
415.4  24386.63  627.67  2.57
416.9  24999.68  647.83  2.59
418.4  25696.80  666.08  2.59
419.8  26408.20  684.32  2.59
421.3  27094.00  702.31  2.59
422.7  27822.60  724.34  2.60
424.2  28569.38  746.04  2.61
425.7  29307.40  772.78  2.64
427.1  30067.50  794.27  2.64
428.6  30845.00  816.48  2.65
430.0  31564.00  834.63  2.64
431.5  32402.18  856.55  2.64
432.9  33240.85  882.49  2.65
434.4  34107.83  907.39  2.66
435.9  34930.00  932.13  2.67
437.3  35750.00  955.17  2.67
438.8  36584.63  980.24  2.68
440.2  37433.55  1003.05  2.68
441.7  38350.80  1028.99  2.68
443.1  39220.00  1056.09  2.69
444.6  40164.60  1085.30  2.70
446.0  41091.83  1114.00  2.71
447.5  42057.95  1143.07  2.72
448.9  42969.90  1174.15  2.73
450.4  43952.30  1203.24  2.74
451.8  44811.00  1231.78  2.75
453.3  45710.20  1260.31  2.76
454.7  46705.38  1292.78  2.77
456.2  47543.88  1318.85  2.77
457.6  48480.30  1348.62  2.78
459.1  49449.08  1375.52  2.78
460.5  50370.25  1403.49  2.79
462.0  51408.53  1435.97  2.79
463.4  52443.60  1465.77  2.79
464.8  53404.88  1491.76  2.79
466.3  54332.85  1518.44  2.79
467.7  55272.53  1548.79  2.80
469.2  56314.08  1579.62  2.81
470.6  57281.85  1605.71  2.80
472.0  58312.73  1636.72  2.81
473.5  59310.88  1666.08  2.81
474.9  60348.75  1700.36  2.82
476.4  61473.60  1733.90  2.82
477.8  62495.00  1763.48  2.82
479.2  63466.50  1791.51  2.82
480.7  64529.55  1824.40  2.83
482.1  65631.90  1861.44  2.84
483.6  66802.35  1898.32  2.84
485.0  67858.80  1930.97  2.85
486.4  69039.75  1970.07  2.85
487.9  70097.63  2006.55  2.86
489.3  71195.38  2047.76  2.88
490.7  72226.13  2089.69  2.89
492.2  73382.40  2139.06  2.91
493.6  74465.95  2182.15  2.93
495.0  75567.38  2227.74  2.95
496.5  76720.90  2281.06  2.97
497.9  77806.85  2338.22  3.01
499.3  78951.50  2399.71  3.04
500.7  80179.45  2471.39  3.08
502.2  81307.40  2546.66  3.13
503.6  82548.40  2633.14  3.19
505.0  83622.20  2722.25  3.26
506.5  84911.93  2831.60  3.33
507.9  86029.48  2946.51  3.42
509.3  87290.40  3085.02  3.53
510.7  88481.25  3239.09  3.66
512.2  89831.85  3417.20  3.80
513.6  91294.70  3618.39  3.96
515.0  92704.33  3845.90  4.15
516.4  94065.30  4096.98  4.36
517.8  95682.75  4390.59  4.59
519.3  96990.83  4695.29  4.84
520.7  98518.60  5036.59  5.11
522.1  99781.50  5380.77  5.39
523.5  101080.80  5741.36  5.68
524.9  102504.60  6117.41  5.97
526.3  103879.65  6484.01  6.24
527.8  105331.05  6853.91  6.51
529.2  106386.00  7204.79  6.77
530.6  107941.50  7573.18  7.02
532.0  109592.00  7926.13  7.23
533.4  110880.60  8225.29  7.42
534.8  111764.48  8474.20  7.58
536.3  113300.70  8758.24  7.73
537.7  115189.20  9055.56  7.86
539.1  116582.18  9298.80  7.98
540.5  117764.65  9512.16  8.08
541.9  119457.38  9764.05  8.17
543.3  120738.83  9980.08  8.27
544.7  122048.40  10195.62  8.35
546.1  123822.05  10455.36  8.44
547.5  125036.80  10665.81  8.53
549.0  126676.00  10902.99  8.61
550.4  128116.25  11114.86  8.68
551.8  129636.43  11308.26  8.72
553.2  131094.63  11468.13  8.75
554.6  132402.40  11578.37  8.74
556.0  133887.60  11665.34  8.71
557.4  135464.00  11723.01  8.65
558.8  137085.75  11750.80  8.57
560.2  138527.00  11734.42  8.47
561.6  140174.55  11708.17  8.35
563.0  141737.23  11653.59  8.22
564.4  143300.65  11578.88  8.08
565.8  144797.50  11471.26  7.92
567.2  146522.50  11357.12  7.75
568.6  147976.13  11197.31  7.57
570.0  149380.73  11011.17  7.37
571.4  151053.50  10831.10  7.17
572.8  152801.88  10656.69  6.97
574.2  154392.00  10478.19  6.79
575.6  155913.75  10311.11  6.61
577.0  157420.30  10159.45  6.45
578.4  159102.13  10040.12  6.31
579.8  160615.58  9924.45  6.18
581.2  162293.08  9838.64  6.06
582.5  163694.70  9754.57  5.96
583.9  165188.20  9686.23  5.86
585.3  166938.08  9648.35  5.78
586.7  168398.10  9604.08  5.70
588.1  169859.13  9570.90  5.63
589.5  171487.75  9564.57  5.58
590.9  173066.80  9571.74  5.53
592.3  174834.05  9600.87  5.49
593.7  176283.90  9623.10  5.46
595.0  177857.10  9661.01  5.43
596.4  179279.80  9693.38  5.41
597.8  180735.73  9730.42  5.38
599.2  182239.20  9761.21  5.36
600.6  183951.63  9793.49  5.32
602.0  185224.73  9783.50  5.28
603.3  186990.00  9778.84  5.23
604.7  188605.60  9747.80  5.17
606.1  190053.60  9684.71  5.10
607.5  191663.70  9617.93  5.02
608.9  193313.95  9538.34  4.93
610.2  194665.28  9433.40  4.85
611.6  196252.50  9336.35  4.76
613.0  197777.15  9233.83  4.67
614.4  199131.30  9132.97  4.59
615.8  200567.25  9042.71  4.51
617.1  202066.20  8975.12  4.44
618.5  203662.80  8924.26  4.38
619.9  205159.05  8883.93  4.33
621.3  206753.63  8859.22  4.28
622.6  208330.25  8855.75  4.25
624.0  209780.10  8861.09  4.22
625.4  211267.65  8879.37  4.20
626.8  212805.78  8915.73  4.19
628.1  214056.43  8952.03  4.18
629.5  215783.45  9009.90  4.18
630.9  217219.48  9060.58  4.17
632.2  218417.33  9097.95  4.17
633.6  219867.88  9133.01  4.15
635.0  221295.20  9149.42  4.13
636.3  222772.10  9153.35  4.11
637.7  224120.13  9126.51  4.07
639.1  225715.00  9083.83  4.02
640.4  227194.45  9011.39  3.97
641.8  228373.90  8913.86  3.90
643.2  229908.88  8823.84  3.84
644.5  231227.50  8728.37  3.77
645.9  232728.30  8633.72  3.71
647.2  233630.60  8532.70  3.65
648.6  235021.50  8454.28  3.60
650.0  236304.00  8388.62  3.55
651.3  237357.18  8330.91  3.51
652.7  239673.90  8317.98  3.47
654.0  241778.20  8298.96  3.43
655.4  243123.13  8240.86  3.39
656.8  243275.90  8130.71  3.34
658.1  244660.60  8060.88  3.29
659.5  246835.05  8012.19  3.25
660.8  248107.50  7932.43  3.20
662.2  249088.00  7838.72  3.15
663.5  250516.50  7767.27  3.10
664.9  251498.00  7705.74  3.06
666.2  252258.60  7648.43  3.03
667.6  253946.88  7634.51  3.01
668.9  254825.33  7622.46  2.99
670.3  256708.38  7643.51  2.98
671.6  257689.88  7663.26  2.97
673.0  258862.50  7708.35  2.98
674.3  260117.00  7763.41  2.98
675.7  261434.23  7837.89  3.00
677.0  262471.93  7919.77  3.02
678.4  263771.40  8022.98  3.04
679.7  264806.58  8140.65  3.07
681.1  266047.90  8278.55  3.11
682.4  267122.70  8450.20  3.16
683.8  268294.00  8646.57  3.22
685.1  269283.38  8889.83  3.30
686.4  270595.80  9199.89  3.40
687.8  271783.75  9588.69  3.53
689.1  272896.25  10086.45  3.70
690.5  274167.45  10755.46  3.92
691.8  274959.15  11629.85  4.23
693.1  276284.70  12812.57  4.64
694.5  277413.50  14318.42  5.16
695.8  278664.75  16167.88  5.80
697.1  279825.00  18372.68  6.57
698.5  280844.40  20915.13  7.45
699.8  281918.28  23759.52  8.43
701.1  283052.03  26883.05  9.50
702.5  283836.85  30157.94  10.63
703.8  284760.00  33590.57  11.80
705.1  285873.90  37117.65  12.98
706.5  286892.25  40677.54  14.18
707.8  287845.65  44253.64  15.37
709.1  288662.25  47807.61  16.56
710.5  289756.18  51397.68  17.74
711.8  290591.30  54919.59  18.90
713.1  291527.90  58453.61  20.05
714.4  292442.20  61938.57  21.18
715.8  293245.00  65371.71  22.29
717.1  294528.30  68872.48  23.38
718.4  295478.40  72244.48  24.45
719.7  296557.63  75589.85  25.49
721.0  297067.50  78727.07  26.50
722.4  297772.75  81832.66  27.48
723.7  298730.85  84900.18  28.42
725.0  299697.30  87876.28  29.32
726.3  300628.08  90722.42  30.18
727.6  301153.05  93333.60  30.99
729.0  302059.80  95925.41  31.76
730.3  302824.80  98355.13  32.48
731.6  303704.85  100683.98  33.15
732.9  304437.00  102852.45  33.78
734.2  305207.38  104907.22  34.37
735.5  306224.93  106917.09  34.91
736.8  307009.80  108732.44  35.42
738.1  307855.90  110454.87  35.88
739.5  308811.45  112099.02  36.30
740.8  309486.38  113545.82  36.69
742.1  310108.68  114892.06  37.05
743.4  310700.00  116130.95  37.38
744.7  311540.63  117379.04  37.68
746.0  312413.40  118550.84  37.95
747.3  313013.08  119535.52  38.19
748.6  313712.25  120498.23  38.41
749.9  314340.00  121351.41  38.61
751.2  314872.15  122121.75  38.78
752.5  315525.90  122900.02  38.95
753.8  315976.85  123532.67  39.10
755.1  316602.00  124176.00  39.22
756.4  317180.73  124743.08  39.33
757.7  318167.15  125444.59  39.43
759.0  319866.33  126399.76  39.52
760.3  320997.60  127088.59  39.59
761.6  322498.40  127894.57  39.66
762.9  322979.50  128279.50  39.72
764.2  323311.10  128580.72  39.77
765.5  323543.30  128824.57  39.82
766.8  323897.60  129106.74  39.86
768.1  324361.20  129420.12  39.90
769.3  324887.50  129733.80  39.93
770.6  325505.70  130083.56  39.96
771.9  326181.98  130423.42  39.98
773.2  326486.40  130628.37  40.01
774.5  327012.40  130913.64  40.03
775.8  327620.60  131212.82  40.05
777.1  328083.25  131471.22  40.07
778.4  328324.15  131630.64  40.09
779.6  328996.30  131958.62  40.11
780.9  329400.00  132170.86  40.12
782.2  329815.75  132388.12  40.14
783.5  330071.00  132522.79  40.15
784.8  330505.65  132743.02  40.16
786.0  330781.85  132911.71  40.18
787.3  331085.53  133079.30  40.19
788.6  331457.38  133247.34  40.20
789.9  331821.00  133426.07  40.21
791.2  332395.30  133690.59  40.22
792.4  332981.55  133957.96  40.23
793.7  333365.40  134162.39  40.24
795.0  333920.40  134408.96  40.25
796.2  334480.93  134667.23  40.26
797.5  335096.25  134928.12  40.27
798.8  335659.03  135196.24  40.28
800.0  336236.88  135458.66  40.29
801.3  336596.40  135638.70  40.30
802.6  337116.60  135877.73  40.31
803.8  337697.70  136130.96  40.31
805.1  338060.63  136311.79  40.32
806.4  338442.30  136497.06  40.33
807.7  338887.80  136713.04  40.34
808.9  339410.30  136936.70  40.35
810.2  339813.60  137134.92  40.36
811.4  340248.50  137335.24  40.36
812.7  340803.13  137601.13  40.38
814.0  341586.15  137915.99  40.38
815.2  342183.00  138193.69  40.39
816.5  342554.33  138366.08  40.39
817.7  342971.40  138571.19  40.40
819.0  343428.80  138778.89  40.41
820.2  343552.00  138858.55  40.42
821.5  344206.85  139152.79  40.43
822.7  344542.75  139321.53  40.44
824.0  344846.70  139463.87  40.44
825.2  345307.05  139674.43  40.45
826.5  345580.25  139818.29  40.46
827.7  346068.15  140061.48  40.47
829.0  346483.48  140244.47  40.48
830.2  346792.85  140389.96  40.48
831.5  347288.75  140620.12  40.49
832.7  347614.05  140774.16  40.50
834.0  348005.80  140946.69  40.50
835.2  348293.28  141123.17  40.52
836.4  348642.25  141278.42  40.52
837.7  348993.80  141479.55  40.54
838.9  349450.88  141696.96  40.55
840.1  349820.10  141877.71  40.56
841.4  350276.40  142085.26  40.56
842.6  350672.60  142284.88  40.57
843.8  351014.00  142479.48  40.59
845.1  351530.05  142727.14  40.60
846.3  352005.70  142909.21  40.60
847.5  352428.30  143118.48  40.61
848.8  352816.20  143313.61  40.62
850.0  353283.35  143508.48  40.62
851.2  353797.20  143776.49  40.64
852.5  354228.70  143963.41  40.64
853.7  354699.00  144218.66  40.66
854.9  355221.40  144441.72  40.66
856.1  355705.35  144655.36  40.67
857.4  355945.60  144769.56  40.67
858.6  356499.45  145031.30  40.68
859.8  356865.00  145220.38  40.69
861.0  357247.80  145425.65  40.71
862.2  357720.48  145637.42  40.71
863.5  358191.28  145831.43  40.71
864.7  358861.80  146066.36  40.70
865.9  359219.60  146253.34  40.71
867.1  359479.20  146410.23  40.73
868.3  359878.80  146623.31  40.74
869.5  360396.60  146828.00  40.74
870.8  361003.50  147080.36  40.74
872.0  361571.70  147301.92  40.74
873.2  361990.80  147499.57  40.75
874.4  362416.28  147711.83  40.76
875.6  362816.70  147891.46  40.76
876.8  363328.25  148121.79  40.77
878.0  363832.40  148314.50  40.76
879.2  364403.85  148529.13  40.76
880.4  364939.50  148767.28  40.76
881.6  365448.58  148953.49  40.76
882.8  365854.40  149135.58  40.76
884.0  366385.40  149383.10  40.77
885.2  366849.10  149589.47  40.78
886.5  367483.60  149837.49  40.77
887.7  368022.20  150027.09  40.77
888.8  368568.45  150304.72  40.78
890.0  369152.85  150517.40  40.77
891.2  369646.50  150748.13  40.78
892.4  370217.40  150960.34  40.78
893.6  370851.15  151207.10  40.77
894.8  371645.50  151557.19  40.78
896.0  372485.25  151894.09  40.78
897.2  373278.75  152216.94  40.78
898.4  373906.50  152488.38  40.78
899.6  374469.38  152700.21  40.78
900.8  374785.88  152835.13  40.78
902.0  374966.70  152898.78  40.78
903.2  375279.45  153010.95  40.77
904.3  375551.10  153137.57  40.78
905.5  376122.88  153370.20  40.78
906.7  376706.50  153566.58  40.77
907.9  377116.25  153743.89  40.77
909.1  377300.03  153840.50  40.77
910.2  377420.48  153897.24  40.78
911.4  377643.83  153992.84  40.78
912.6  377777.40  154033.95  40.77
913.8  377931.08  154106.36  40.78
915.0  378223.65  154209.72  40.77
916.2  378348.75  154240.26  40.77
917.3  378230.40  154198.14  40.77
918.5  378460.90  154261.43  40.76
919.7  378600.90  154325.69  40.76
920.8  378589.15  154317.87  40.76
922.0  378512.75  154315.70  40.77
923.2  378514.50  154317.80  40.77
924.4  378870.75  154380.38  40.75
925.5  379090.60  154442.24  40.74
926.7  379571.75  154632.81  40.74
927.9  380298.00  154903.78  40.73
929.0  381559.95  155424.03  40.73
930.2  383655.60  156205.50  40.72
931.4  385973.78  157124.21  40.71
932.5  388557.10  158149.79  40.70
933.7  389868.28  158595.14  40.68
934.9  390442.50  158763.92  40.66
936.0  389961.00  158477.54  40.64
937.2  387649.35  157550.94  40.64
938.3  385782.20  156783.52  40.64
939.5  384253.20  156091.03  40.62
940.7  384368.40  156098.30  40.61
941.8  385759.58  156587.70  40.59
943.0  387180.00  157014.46  40.55
944.2  387765.95  157247.73  40.55
945.3  387357.75  156956.15  40.52
946.5  386371.35  156507.25  40.51
947.6  386548.90  156441.20  40.47
948.8  386109.75  156201.21  40.46
949.9  386114.40  156087.00  40.43
951.1  385609.58  155733.44  40.39
952.2  385356.00  155552.91  40.37
953.4  385070.50  155275.65  40.32
954.5  384766.20  155033.69  40.29
955.7  384703.20  154772.76  40.23
956.8  384375.60  154472.42  40.19
958.0  384081.00  154107.04  40.12
959.1  383732.50  153845.56  40.09
960.3  383138.35  153616.73  40.09
961.4  382785.60  153415.80  40.08
962.6  382880.75  153378.35  40.06
963.7  382461.68  153113.18  40.03
964.9  382311.08  152945.95  40.01
966.0  382162.05  152793.79  39.98
967.2  381960.90  152759.20  39.99
968.3  381789.45  152604.66  39.97
969.5  381619.88  152496.18  39.96
970.6  381694.45  152466.05  39.94
971.8  381766.88  152467.21  39.94
972.9  381851.18  152359.86  39.90
974.0  382280.70  152406.36  39.87
975.2  381718.88  152375.66  39.92
976.3  381829.13  152386.78  39.91
977.5  381956.75  152426.14  39.91
978.6  382095.50  152354.27  39.87
979.7  382252.50  152342.79  39.85
980.9  381933.48  152292.41  39.87
982.0  381560.25  152285.85  39.91
983.2  381660.98  152056.15  39.84
984.3  381203.80  151813.42  39.82
985.4  380702.35  151801.55  39.87
986.6  380757.50  151677.18  39.84
987.7  381551.63  152030.54  39.85
988.9  381238.20  151910.93  39.85
990.0  381314.80  151916.04  39.84
993.1  387163.00  153898.42  39.75
996.9  385793.63  153703.43  39.84
1000.7  385727.83  153997.46  39.92
1004.5  385808.33  154331.56  40.00
1008.4  385426.92  154553.77  40.10
1012.2  385314.21  154788.74  40.17
1016.0  384958.20  154951.89  40.25
1019.8  384320.48  154937.48  40.31
1023.7  383059.07  154650.23  40.37
1027.5  381332.18  154159.93  40.43
1031.3  380252.35  153874.07  40.47
1035.1  379127.47  153578.17  40.51
1038.9  378638.70  153506.99  40.54
1042.7  378399.75  153520.70  40.57
1046.5  378247.83  153572.86  40.60
1050.3  378194.53  153657.14  40.63
1054.2  377894.42  153633.75  40.66
1058.0  377525.28  153538.70  40.67
1061.8  377505.11  153604.46  40.69
1065.6  376948.37  153384.52  40.69
1069.4  376077.47  153037.51  40.69
1073.2  374762.70  152494.67  40.69
1077.0  374081.48  152205.30  40.69
1080.8  374281.25  152258.63  40.68
1084.6  374444.93  152270.42  40.67
1088.4  374751.83  152400.53  40.67
1092.2  374312.25  152154.32  40.65
1096.0  373684.82  151805.07  40.62
1099.8  372985.38  151408.86  40.59
1103.6  372033.32  150901.77  40.56
1107.4  370879.09  150287.58  40.52
1111.2  370570.60  150027.16  40.49
1114.9  370070.17  149655.83  40.44
1118.7  369824.40  149344.68  40.38
1122.5  369524.13  148933.45  40.30
1126.3  368631.43  148208.91  40.21
1130.1  368242.93  147514.33  40.06
1133.9  366562.70  146076.00  39.85
1137.7  364991.40  144529.46  39.60
1141.4  362949.93  142644.27  39.30
1145.2  361992.68  141067.68  38.97
1149.0  360718.75  139470.84  38.66
1152.8  358896.45  137785.12  38.39
1156.6  357045.15  136316.77  38.18
1160.3  355218.00  135074.33  38.03
1164.1  352885.80  133806.08  37.92
1167.9  351253.13  132941.37  37.85
1171.7  349957.13  132259.50  37.79
1175.4  348477.10  131548.04  37.75
1179.2  347111.65  130848.70  37.70
1183.0  346787.67  130525.05  37.64
1186.7  346854.20  130374.17  37.59
1190.5  346510.47  130140.44  37.56
1194.3  345592.13  129707.28  37.53
1198.0  344064.05  129098.20  37.52
1201.8  342380.00  128456.86  37.52
1205.6  341342.67  128116.76  37.53
1209.3  340795.98  128039.50  37.57
1213.1  340362.53  128055.90  37.62
1216.8  339729.13  128091.15  37.70
1220.6  338594.67  127925.60  37.78
1224.3  337319.67  127695.57  37.86
1228.1  335775.20  127413.66  37.95
1231.9  334155.10  127032.64  38.02
1235.6  332411.85  126568.54  38.08
1239.4  330835.88  126179.05  38.14
1243.1  329431.53  125788.49  38.18
1246.9  328159.48  125418.55  38.22
1250.6  327139.87  125113.18  38.24
1254.3  325951.27  124736.36  38.27
1258.1  324692.78  124313.27  38.29
1261.8  323255.60  123793.75  38.30
1265.6  322118.77  123364.06  38.30
1269.3  321405.75  123066.51  38.29
1273.1  321769.85  123153.16  38.27
1276.8  321522.00  122941.43  38.24
1280.6  320344.77  122364.21  38.20
1284.3  318307.60  121444.34  38.15
1288.0  317102.30  120798.56  38.09
1291.8  316680.02  120404.12  38.02
1295.5  316003.60  119861.45  37.93
1299.2  314841.83  119085.24  37.82
1302.9  313181.21  118052.51  37.69
1306.7  311403.98  116898.13  37.54
1310.4  309661.28  115654.95  37.35
1314.1  308091.85  114418.47  37.14
1317.9  306660.83  113136.96  36.89
1321.6  305124.63  111715.18  36.61
1325.3  303449.48  110161.58  36.30
1329.0  302166.78  108699.43  35.97
1332.8  300238.40  106920.00  35.61
1336.5  298585.47  105222.23  35.24
1340.2  298495.17  104073.67  34.87
1343.9  298539.58  102962.59  34.49
1347.6  298895.70  101965.58  34.11
1351.4  300684.50  101500.64  33.76
1355.1  303145.70  101262.54  33.40
1358.8  305152.00  100825.14  33.04
1362.5  305545.75  99744.29  32.64
1366.2  303442.35  97656.74  32.18
1369.9  300053.38  94898.48  31.63
1373.6  297133.43  91902.88  30.93
1377.3  295708.20  88826.49  30.04
1381.0  295268.00  85362.31  28.91
1384.8  293247.50  80665.00  27.51
1388.4  289857.75  75121.67  25.92
1392.2  287521.75  69537.44  24.19
1395.9  286030.23  64081.69  22.40
1399.6  284160.21  58817.92  20.70
1403.3  282609.95  54102.86  19.14
1407.0  280810.20  49968.61  17.79
1410.7  278858.25  46505.49  16.68
1414.3  276840.38  43697.45  15.78
1418.1  275081.79  41534.35  15.10
1421.7  273618.63  39879.57  14.57
1425.4  272200.50  38632.66  14.19
1429.1  270922.88  37732.45  13.93
1432.8  269229.81  37039.43  13.76
1436.5  268416.51  36659.52  13.66
1440.2  267793.37  36459.36  13.61
1443.9  266689.04  36301.40  13.61
1447.6  265095.60  36174.60  13.65
1451.2  263841.78  36137.41  13.70
1454.9  262367.70  36126.26  13.77
1458.6  261131.11  36248.03  13.88
1462.3  259926.33  36492.34  14.04
1466.0  258570.13  36849.14  14.25
1469.7  256835.04  37301.35  14.52
1473.3  255786.00  37964.86  14.84
1477.0  253720.87  38574.75  15.20
1480.7  252038.28  39288.65  15.59
1484.4  250003.93  39958.34  15.98
1488.0  248394.67  40737.72  16.40
1491.7  246803.45  41500.78  16.82
1495.4  245133.22  42260.76  17.24
1499.0  243585.50  43013.21  17.66
1502.7  242329.75  43801.95  18.08
1506.4  240918.48  44539.55  18.49
1510.0  239449.23  45236.53  18.89
1513.7  237927.67  45890.54  19.29
1517.4  236543.00  46532.14  19.67
1521.0  235271.60  47171.71  20.05
1524.7  234022.75  47754.57  20.41
1528.3  232737.63  48301.45  20.75
1532.0  231499.22  48823.50  21.09
1535.7  230106.92  49258.24  21.41
1539.3  228812.83  49687.66  21.72
1543.0  227831.53  50163.84  22.02
1546.6  227121.92  50669.82  22.31
1550.3  226120.70  51069.74  22.59
1553.9  225052.57  51432.17  22.85
1557.6  223811.13  51722.52  23.11
1561.2  222530.40  51961.76  23.35
1564.9  221192.86  52176.62  23.59
1568.5  219856.47  52365.95  23.82
1572.2  218688.25  52577.11  24.04
1575.8  217588.00  52792.00  24.26
1579.5  216586.30  53001.97  24.47
1583.1  215509.63  53183.48  24.68
1586.8  214158.00  53286.00  24.88
1590.4  212941.80  53398.84  25.08
1594.0  211626.13  53474.20  25.27
1597.7  210823.41  53673.50  25.46
1601.3  209903.40  53838.68  25.65
1604.9  208923.05  53961.02  25.83
1608.6  207554.62  53953.69  25.99
1612.2  206181.53  53912.10  26.15
1615.8  204733.75  53837.69  26.30
1619.5  203461.67  53783.94  26.43
1623.1  202097.67  53691.86  26.57
1626.7  200876.65  53606.10  26.69
1630.3  199676.33  53515.55  26.80
1634.0  198562.00  53428.00  26.91
1637.6  197552.27  53344.82  27.00
1641.2  196517.35  53203.33  27.07
1644.8  195273.44  52974.78  27.13
1648.5  194183.17  52753.16  27.17
1652.1  193212.30  52510.41  27.18
1655.7  192268.00  52233.69  27.17
1659.3  191448.98  51961.08  27.14
1662.9  190003.33  51503.93  27.11
1666.6  188563.67  51039.90  27.07
1670.2  187130.48  50559.79  27.02
1673.8  185641.43  50048.19  26.96
1677.4  184462.45  49598.51  26.89
1681.0  183636.53  49192.12  26.79
1684.6  183224.17  48859.11  26.67
1688.2  182520.85  48397.04  26.52
1691.8  181833.55  47966.51  26.38
1695.4  181390.80  47578.12  26.23
1699.0  181005.30  47189.60  26.07
1702.6  180657.33  46784.00  25.90
1706.2  180017.72  46293.98  25.72
1709.8  179062.23  45728.51  25.54
1713.4  178309.32  45219.05  25.36
1717.0  177413.00  44700.93  25.20
1720.6  176576.03  44198.36  25.03
1724.2  175846.35  43723.85  24.86
1727.8  175121.80  43307.45  24.73
1731.4  174663.50  43019.82  24.63
1735.0  174489.52  42867.52  24.57
1738.6  174276.00  42668.49  24.48
1742.2  173755.37  42339.97  24.37
1745.8  173114.28  41950.50  24.23
1749.4  172174.20  41449.18  24.07
1753.0  170680.27  40797.19  23.90
1756.6  169005.96  40105.54  23.73
1760.1  167660.59  39519.66  23.57
1763.7  165922.00  38878.76  23.43
1767.3  164436.30  38351.56  23.32
1770.9  163170.00  37902.49  23.23
1774.5  161678.78  37412.93  23.14
1778.0  160515.15  37028.60  23.07
1781.6  159393.15  36682.48  23.01
1785.2  158243.30  36347.62  22.97
1788.8  157085.30  36045.86  22.95
1792.3  155837.00  35746.10  22.94
1795.9  155288.47  35619.77  22.94
1799.5  155131.33  35610.33  22.95
1803.1  156283.87  35925.52  22.99
1806.6  158581.85  36489.72  23.01
1810.2  160423.90  36935.50  23.02
1813.8  161245.00  37136.68  23.03
1817.3  160733.00  37016.54  23.03
1820.9  159472.43  36721.04  23.03
1824.5  158050.60  36378.39  23.02
1828.0  156934.71  36071.69  22.99
1831.6  156551.40  35908.60  22.94
1835.2  156385.83  35742.50  22.86
1838.7  156218.80  35500.78  22.73
1842.3  155985.00  35179.28  22.55
1845.8  154736.38  34522.03  22.31
1849.4  154084.58  33876.99  21.99
1852.9  153214.37  33019.09  21.55
1856.5  152109.10  31927.12  20.99
1860.0  151047.84  30615.04  20.27
1863.6  151056.41  29284.58  19.39
1867.1  151863.25  27844.25  18.34
1870.7  152859.40  26084.30  17.06
1874.2  151751.25  23658.17  15.59
1877.8  148915.20  20864.70  14.01
1881.3  145759.25  18015.70  12.36
1884.9  143805.29  15465.05  10.75
1888.4  142208.82  13134.21  9.24
1891.9  140600.07  11149.34  7.93
1895.5  139207.62  9585.33  6.89
1899.0  138603.50  8457.50  6.10
1901.3  176764.67  7743.06  4.38
1904.1  176697.75  6976.75  3.95
1906.8  175657.80  6382.60  3.63
1909.6  173477.85  5872.88  3.39
1912.4  171403.40  5496.55  3.21
1915.1  169942.85  5229.95  3.08
1917.9  168426.50  5028.50  2.99
1920.6  167128.73  4890.31  2.93
1923.3  165766.07  4787.77  2.89
1926.1  164025.97  4680.38  2.85
1928.8  162374.67  4615.11  2.84
1931.6  161102.33  4596.34  2.85
1934.3  159993.62  4604.76  2.88
1937.0  158935.47  4624.20  2.91
1939.8  157718.67  4652.64  2.95
1942.5  156167.00  4686.00  3.00
1945.2  154179.30  4719.92  3.06
1947.9  152556.83  4779.21  3.13
1950.7  151256.37  4863.80  3.22
1953.4  149371.55  4934.17  3.30
1956.1  147898.17  5034.78  3.40
1958.8  146588.43  5149.01  3.51
1961.5  145019.60  5256.27  3.62
1964.2  143425.10  5362.93  3.74
1966.9  141777.30  5487.32  3.87
1969.6  140490.00  5631.00  4.01
1972.3  139044.70  5773.13  4.15
1975.0  137962.65  5935.40  4.30
1977.7  136817.03  6092.32  4.45
1980.4  135655.40  6262.32  4.62
1983.1  134524.32  6429.99  4.78
1985.8  133579.80  6617.80  4.95
1988.4  132522.00  6794.67  5.13
1991.1  131572.00  6987.24  5.31
1993.8  130680.37  7180.56  5.49
1996.5  130034.12  7378.74  5.67
1999.1  129336.17  7576.92  5.86
2001.8  128636.67  7772.88  6.04
2004.5  127933.50  7972.42  6.23
2007.1  127172.30  8165.60  6.42
2009.8  126417.90  8336.92  6.59
2012.4  125820.57  8519.01  6.77
2015.1  125261.03  8699.52  6.95
2017.8  124449.50  8857.80  7.12
2020.4  123916.28  9027.39  7.29
2023.1  123551.63  9197.38  7.44
2025.7  123318.00  9362.89  7.59
2028.3  122980.00  9516.00  7.74
2031.0  122556.57  9661.65  7.88
2033.6  122252.40  9796.20  8.01
2036.2  122000.10  9920.90  8.13
2038.9  121382.40  10010.80  8.25
2041.5  121022.20  10120.05  8.36
2044.1  120451.50  10202.20  8.47
2046.8  120068.70  10286.30  8.57
2049.4  119407.50  10341.40  8.66
2052.0  119105.20  10424.69  8.75
2054.6  118685.00  10500.00  8.85
2057.2  118109.60  10567.33  8.95
2059.8  117777.73  10663.40  9.05
2062.4  116899.22  10704.07  9.16
2065.0  116354.20  10771.11  9.26
2067.6  115434.82  10805.76  9.36
2070.2  114833.37  10866.78  9.46
2072.8  114188.33  10921.98  9.56
2075.4  113741.25  10992.92  9.66
2078.0  113094.20  11040.65  9.76
2080.6  112525.60  11096.80  9.86
2083.2  111810.07  11127.82  9.95
2085.8  111302.40  11181.18  10.05
2088.4  110619.83  11227.17  10.15
2090.9  109811.58  11255.95  10.25
2093.5  108917.07  11265.17  10.34
2096.1  108122.83  11289.51  10.44
2098.7  107332.33  11307.08  10.53
2101.2  106372.00  11303.85  10.63
2103.8  105682.07  11335.87  10.73
2106.4  104992.13  11364.98  10.82
2108.9  104319.67  11391.18  10.92
2111.5  103446.33  11394.09  11.01
2114.0  102800.07  11423.20  11.11
2116.6  102261.25  11456.67  11.20
2119.1  101702.10  11490.18  11.30
2121.7  101193.75  11520.83  11.38
2124.2  100790.37  11560.31  11.47
2126.8  99971.90  11550.08  11.55
2129.3  99563.20  11589.60  11.64
2131.9  98964.80  11592.53  11.71
2134.4  98518.20  11614.15  11.79
2136.9  98125.30  11637.16  11.86
2139.4  97586.53  11630.11  11.92
2142.0  97125.47  11636.02  11.98
2144.5  96849.80  11670.87  12.05
2147.0  96605.07  11720.53  12.13
2149.5  96086.93  11723.51  12.20
2152.1  95924.03  11759.18  12.26
2154.6  95852.80  11801.78  12.31
2157.1  95311.42  11790.17  12.37
2159.6  94893.58  11799.25  12.43
2162.1  94712.80  11826.97  12.49
2164.6  94447.80  11836.80  12.53
2167.1  94119.98  11846.50  12.59
2169.6  93807.23  11858.78  12.64
2172.1  93330.53  11846.37  12.69
2174.6  92991.00  11864.42  12.76
2177.1  92536.27  11848.63  12.80
2179.5  92113.88  11857.01  12.87
2182.0  91620.65  11843.33  12.93
2184.5  91074.63  11826.13  12.99
2187.0  90465.67  11797.96  13.04
2189.5  89797.68  11765.66  13.10
2191.9  88996.00  11713.50  13.16
2194.4  88337.50  11686.02  13.23
2196.9  87590.40  11638.40  13.29
2199.3  86893.67  11596.78  13.35
2201.8  85984.27  11511.29  13.39
2204.3  85503.17  11478.95  13.43
2206.7  84838.05  11419.43  13.46
2209.2  84354.25  11395.48  13.51
2211.6  83714.40  11338.80  13.54
2214.1  83410.85  11316.47  13.57
2216.5  82834.07  11247.85  13.58
2219.0  82486.40  11201.49  13.58
2221.4  82090.17  11149.64  13.58
2223.9  81614.17  11070.31  13.56
2226.3  81098.50  10971.14  13.53
2228.7  80549.17  10855.19  13.48
2231.1  79932.60  10715.10  13.41
2233.6  79337.53  10562.45  13.31
2236.0  78758.17  10412.50  13.22
2238.4  78252.42  10257.14  13.11
2240.9  77797.87  10098.89  12.98
2243.3  77241.60  9920.09  12.84
2245.7  76654.80  9731.10  12.69
2248.1  76145.33  9541.42  12.53
2250.5  75613.77  9357.71  12.38
2252.9  74979.23  9146.08  12.20
2255.3  74416.05  8955.00  12.03
2257.7  73930.00  8776.67  11.87
2260.1  73423.93  8601.91  11.72
2262.5  72820.00  8403.33  11.54
2264.9  72279.33  8232.92  11.39
2267.3  71650.00  8060.00  11.25
2269.7  71126.30  7912.96  11.13
2272.1  70577.43  7759.58  10.99
2274.5  70003.13  7613.96  10.88
2276.8  69515.67  7492.47  10.78
2279.2  68922.90  7359.95  10.68
2281.6  68483.53  7241.29  10.57
2284.0  68013.40  7123.87  10.47
2286.3  67528.53  7012.26  10.38
2288.7  67118.35  6907.70  10.29
2291.1  66547.37  6777.88  10.19
2293.4  66096.80  6652.80  10.07
2295.8  65497.70  6516.47  9.95
2298.2  64884.15  6368.70  9.82
2300.5  64201.05  6227.25  9.70
2302.9  63436.33  6069.11  9.57
2305.2  62696.10  5932.80  9.46
2307.6  62003.17  5797.97  9.35
2309.9  61214.67  5676.44  9.27
2312.2  60625.67  5586.89  9.22
2314.6  60019.65  5516.55  9.19
2316.9  59305.50  5444.10  9.18
2319.2  58727.17  5380.30  9.16
2321.6  58094.75  5298.96  9.12
2323.9  57541.67  5222.22  9.08
2326.2  56997.30  5133.20  9.01
2328.6  56471.80  5047.35  8.94
2330.9  55954.50  4966.50  8.88
2333.2  55488.42  4882.45  8.80
2335.5  55030.10  4793.60  8.71
2337.8  54552.88  4708.72  8.63
2340.1  53959.80  4615.27  8.55
2342.4  53527.50  4528.33  8.46
2344.8  53087.75  4439.44  8.36
2347.1  52519.37  4346.46  8.28
2349.4  51965.62  4259.78  8.20
2351.6  51370.72  4171.65  8.12
2353.9  50885.73  4108.08  8.07
2356.2  50358.50  4046.47  8.04
2358.5  49750.40  3972.27  7.98
2360.8  49145.60  3890.13  7.92
2363.1  48702.77  3824.88  7.85
2365.4  48228.40  3755.37  7.79
2367.7  47766.00  3689.80  7.72
2369.9  47219.80  3614.38  7.65
2372.2  46600.53  3543.20  7.60
2374.5  46015.20  3457.30  7.51
2376.7  45363.08  3380.45  7.45
2379.0  44741.80  3296.11  7.37
2381.3  44135.00  3212.22  7.28
2383.5  43601.07  3136.71  7.19
2385.8  42971.87  3059.34  7.12
2388.0  42444.60  2981.47  7.02
2390.3  41924.93  2907.33  6.93
2392.5  41412.00  2848.00  6.88
2394.8  40946.40  2770.90  6.77
2397.0  40476.80  2705.73  6.68
2399.3  39997.88  2643.78  6.61
2401.5  39555.25  2580.67  6.52
2403.8  39019.20  2508.49  6.43
2406.0  38491.67  2437.81  6.33
2408.2  38085.67  2376.98  6.24
2410.4  37649.73  2313.58  6.15
2412.7  37222.47  2253.62  6.05
2414.9  36862.10  2192.67  5.95
2417.1  36487.10  2142.07  5.87
2419.3  36044.80  2082.13  5.78
2421.6  35637.08  2032.22  5.70
2423.8  35256.37  1975.26  5.60
2426.0  34886.22  1934.52  5.55
2428.2  34522.13  1885.96  5.46
2430.4  34221.40  1830.61  5.35
2432.6  33946.67  1777.78  5.24
2434.8  33630.53  1742.12  5.18
2437.0  33247.50  1688.12  5.08
2439.2  32899.57  1631.01  4.96
2441.4  32570.03  1590.55  4.88
2443.6  32331.00  1552.07  4.80
2445.7  32056.62  1513.28  4.72
2447.9  31785.67  1475.17  4.64
2450.1  31472.00  1437.78  4.57
2452.3  31113.13  1406.96  4.52
2454.5  30735.28  1366.33  4.45
2456.6  30330.93  1312.53  4.33
2458.8  29944.20  1277.47  4.27
2461.0  29640.67  1254.25  4.23
2463.1  29376.45  1227.05  4.18
2465.3  29105.70  1195.06  4.11
2467.5  28851.00  1155.42  4.00
2469.6  28610.17  1138.64  3.98
2471.8  28291.40  1106.23  3.91
2473.9  27979.58  1075.94  3.85
2476.1  27618.50  1056.61  3.83
2478.2  27267.67  1025.71  3.76
2480.4  26954.60  997.75  3.70
2482.5  26584.88  980.61  3.69
2484.6  26257.92  960.97  3.66
2486.8  26014.90  942.00  3.62
2488.9  25711.05  936.48  3.64
2491.1  25354.93  904.40  3.57
2493.2  24955.90  867.52  3.48
2495.3  24547.03  849.77  3.46
2497.4  24214.40  837.20  3.46
2499.5  23870.42  819.96  3.44
2501.7  23762.60  805.23  3.39
2503.8  23670.80  802.40  3.39
2505.9  23626.25  791.53  3.35
2508.0  23647.50  794.09  3.36
2510.1  23641.77  786.87  3.33
2512.2  23763.25  789.05  3.32
2514.3  23919.00  784.64  3.28
2516.4  24171.90  833.97  3.45
