/*** Spectra Vista SIG Data ***/
name= 30_20220721_QUPH_6_avg.sig
comm= Averaged Ref/Tar of files: HR.072122.0012_moc.sig,HR.072122.0013_moc.sig,HR.072122.0014_moc.sig
data=
337.3  3324.88  267.50  8.05
338.8  3463.20  265.24  7.66
340.3  3654.30  249.42  6.83
341.8  3840.90  261.29  6.80
343.2  4040.40  254.98  6.31
344.7  4179.70  255.90  6.12
346.2  4370.95  248.99  5.70
347.7  4561.70  235.95  5.17
349.2  4762.80  230.40  4.84
350.6  5031.33  232.24  4.62
352.1  5287.30  241.91  4.58
353.6  5552.00  239.60  4.32
355.1  5825.78  246.63  4.23
356.6  6128.93  244.10  3.98
358.0  6380.00  250.03  3.92
359.5  6674.40  248.08  3.72
361.0  6972.53  249.95  3.58
362.5  7348.03  262.36  3.57
364.0  7684.90  268.18  3.49
365.4  8036.60  271.90  3.38
366.9  8398.00  284.14  3.38
368.4  8700.73  295.35  3.39
369.9  9053.38  303.19  3.35
371.3  9478.50  313.28  3.31
372.8  9876.60  322.64  3.27
374.3  10266.25  326.60  3.18
375.8  10672.20  336.23  3.15
377.2  11082.80  344.32  3.11
378.7  11459.40  346.88  3.03
380.2  11862.90  352.01  2.97
381.7  12377.45  356.21  2.88
383.1  12828.20  362.16  2.82
384.6  13298.68  377.40  2.84
386.1  13728.70  382.47  2.79
387.6  14175.70  393.47  2.78
389.0  14632.80  400.72  2.74
390.5  15106.95  408.11  2.70
392.0  15658.40  417.66  2.67
393.4  16211.68  425.16  2.62
394.9  16704.00  435.75  2.61
396.4  17206.88  447.02  2.60
397.9  17732.50  463.20  2.61
399.3  18284.65  470.81  2.57
400.8  18818.38  481.88  2.56
402.2  19443.60  495.21  2.55
403.7  20006.33  507.41  2.54
405.2  20573.58  523.33  2.54
406.6  21158.40  542.66  2.56
408.1  21741.20  551.23  2.54
409.6  22323.15  565.06  2.53
411.0  22951.25  579.91  2.53
412.5  23594.73  596.59  2.53
414.0  24205.50  611.25  2.53
415.4  24883.50  633.35  2.55
416.9  25558.65  650.21  2.54
418.4  26219.70  669.10  2.55
419.8  26899.60  686.05  2.55
421.3  27610.93  710.96  2.57
422.7  28362.00  728.31  2.57
424.2  29092.50  752.46  2.59
425.7  29829.00  773.08  2.59
427.1  30542.25  790.34  2.59
428.6  31325.50  813.53  2.60
430.0  32034.43  834.63  2.61
431.5  32864.85  861.24  2.62
432.9  33709.65  884.02  2.62
434.4  34566.23  910.12  2.63
435.9  35364.00  929.20  2.63
437.3  36162.50  950.71  2.63
438.8  36964.73  974.04  2.64
440.2  37797.38  999.85  2.65
441.7  38739.40  1028.87  2.66
443.1  39604.25  1060.00  2.68
444.6  40531.40  1085.55  2.68
446.0  41416.20  1114.99  2.69
447.5  42342.30  1142.82  2.70
448.9  43227.90  1176.36  2.72
450.4  44185.40  1213.85  2.75
451.8  45019.00  1243.30  2.76
453.3  45906.33  1274.50  2.78
454.7  46863.48  1305.58  2.79
456.2  47715.80  1331.06  2.79
457.6  48652.88  1361.76  2.80
459.1  49595.65  1391.38  2.81
460.5  50490.63  1420.30  2.81
462.0  51489.68  1455.42  2.83
463.4  52457.30  1485.34  2.83
464.8  53418.75  1516.47  2.84
466.3  54374.93  1544.22  2.84
467.7  55342.90  1574.26  2.84
469.2  56370.38  1607.77  2.85
470.6  57295.90  1638.90  2.86
472.0  58284.58  1670.91  2.87
473.5  59240.25  1704.68  2.88
474.9  60220.50  1735.38  2.88
476.4  61329.60  1768.59  2.88
477.8  62364.50  1805.73  2.90
479.2  63350.50  1842.19  2.91
480.7  64413.75  1883.41  2.92
482.1  65501.85  1921.16  2.93
483.6  66643.40  1960.38  2.94
485.0  67685.10  2002.10  2.96
486.4  68836.05  2049.61  2.98
487.9  69878.25  2097.08  3.00
489.3  71003.95  2154.20  3.03
490.7  72034.70  2207.49  3.06
492.2  73206.00  2272.62  3.10
493.6  74275.50  2335.91  3.14
495.0  75333.38  2403.38  3.19
496.5  76471.43  2484.27  3.25
497.9  77542.70  2569.80  3.31
499.3  78658.00  2666.66  3.39
500.7  79857.15  2780.15  3.48
502.2  80942.40  2907.21  3.59
503.6  82139.60  3049.04  3.71
505.0  83153.40  3205.28  3.85
506.5  84424.35  3398.81  4.03
507.9  85584.73  3615.47  4.22
509.3  86920.40  3863.51  4.44
510.7  88144.88  4141.80  4.70
512.2  89484.45  4461.20  4.99
513.6  90892.90  4824.74  5.31
515.0  92249.13  5222.74  5.66
516.4  93540.83  5656.64  6.05
517.8  95075.38  6143.16  6.46
519.3  96329.30  6647.02  6.90
520.7  97830.15  7196.27  7.36
522.1  99068.78  7750.27  7.82
523.5  100385.80  8314.05  8.28
524.9  101765.25  8883.76  8.73
526.3  103104.75  9424.12  9.14
527.8  104514.30  9961.52  9.53
529.2  105611.20  10461.79  9.91
530.6  107088.95  10975.81  10.25
532.0  108710.00  11462.80  10.54
533.4  109998.23  11873.60  10.79
534.8  110931.30  12210.08  11.01
536.3  112539.60  12590.65  11.19
537.7  114433.20  12981.84  11.34
539.1  115781.05  13300.20  11.49
540.5  116921.15  13579.32  11.61
541.9  118562.48  13912.89  11.73
543.3  119812.83  14191.50  11.84
544.7  121033.80  14461.06  11.95
546.1  122739.65  14790.76  12.05
547.5  123928.00  15043.52  12.14
549.0  125631.00  15342.49  12.21
550.4  127064.38  15582.93  12.26
551.8  128510.25  15795.62  12.29
553.2  129984.28  15971.78  12.29
554.6  131268.80  16081.57  12.25
556.0  132728.40  16163.74  12.18
557.4  134255.98  16214.68  12.08
558.8  135812.70  16226.34  11.95
560.2  137188.63  16176.80  11.79
561.6  138788.03  16115.36  11.61
563.0  140291.68  16005.90  11.41
564.4  141802.55  15863.78  11.19
565.8  143256.88  15682.00  10.95
567.2  144910.00  15485.83  10.69
568.6  146355.75  15240.64  10.41
570.0  147723.50  14959.66  10.13
571.4  149384.95  14696.08  9.84
572.8  151055.25  14434.53  9.56
574.2  152588.80  14173.44  9.29
575.6  154057.50  13923.96  9.04
577.0  155510.60  13704.53  8.81
578.4  157179.75  13526.61  8.61
579.8  158618.93  13351.22  8.42
581.2  160267.45  13216.00  8.25
582.5  161612.10  13080.16  8.09
583.9  163052.40  12972.47  7.96
585.3  164767.73  12904.33  7.83
586.7  166173.48  12829.07  7.72
588.1  167616.00  12774.79  7.62
589.5  169172.50  12748.17  7.54
590.9  170723.20  12737.99  7.46
592.3  172462.10  12762.04  7.40
593.7  173837.63  12774.95  7.35
595.0  175394.70  12810.22  7.30
596.4  176767.50  12829.38  7.26
597.8  178199.18  12844.76  7.21
599.2  179678.40  12849.51  7.15
600.6  181339.93  12843.78  7.08
602.0  182580.00  12784.31  7.00
603.3  184293.55  12731.06  6.91
604.7  185884.28  12644.29  6.80
606.1  187321.20  12515.81  6.68
607.5  188878.70  12375.21  6.55
608.9  190489.90  12220.82  6.42
610.2  191801.93  12038.76  6.28
611.6  193330.20  11867.10  6.14
613.0  194814.90  11699.41  6.01
614.4  196134.00  11530.81  5.88
615.8  197525.25  11378.39  5.76
617.1  198979.20  11255.16  5.66
618.5  200540.00  11159.06  5.56
619.9  201980.03  11079.33  5.49
621.3  203512.50  11034.90  5.42
622.6  205021.00  11007.60  5.37
624.0  206412.00  10996.58  5.33
625.4  207787.80  11007.29  5.30
626.8  209302.28  11047.55  5.28
628.1  210568.05  11084.92  5.26
629.5  212346.25  11163.03  5.26
630.9  213881.25  11233.02  5.25
632.2  215209.05  11284.50  5.24
633.6  216785.38  11331.04  5.23
635.0  218250.80  11347.25  5.20
636.3  219692.70  11322.93  5.15
637.7  220992.63  11246.92  5.09
639.1  222565.00  11143.33  5.01
640.4  223977.60  10996.54  4.91
641.8  225129.75  10808.06  4.80
643.2  226646.35  10615.52  4.68
644.5  227942.50  10397.11  4.56
645.9  229591.80  10193.89  4.44
647.2  231456.05  10010.74  4.33
648.6  233300.25  9852.88  4.22
650.0  234705.60  9695.52  4.13
651.3  235051.85  9521.07  4.05
652.7  235939.80  9371.03  3.97
654.0  237839.40  9257.27  3.89
655.4  239365.25  9110.87  3.81
656.8  239780.10  8913.32  3.72
658.1  241028.60  8742.74  3.63
659.5  243200.48  8604.09  3.54
660.8  244845.00  8462.14  3.46
662.2  245683.20  8296.75  3.38
663.5  247216.15  8172.93  3.31
664.9  248536.60  8075.13  3.25
666.2  249283.80  7982.06  3.20
667.6  250866.03  7953.87  3.17
668.9  251942.13  7956.48  3.16
670.3  253038.88  7970.61  3.15
671.6  254570.25  8031.59  3.15
673.0  255698.63  8104.70  3.17
674.3  256868.30  8197.21  3.19
675.7  258145.05  8322.28  3.22
677.0  259212.23  8456.76  3.26
678.4  260511.70  8628.14  3.31
679.7  261590.93  8825.94  3.37
681.1  262824.95  9063.15  3.45
682.4  263918.20  9333.15  3.54
683.8  265155.80  9679.59  3.65
685.1  266097.38  10097.43  3.79
686.4  267376.80  10646.28  3.98
687.8  268624.25  11348.98  4.22
689.1  269625.50  12254.67  4.55
690.5  270949.05  13446.83  4.96
691.8  271745.23  14952.73  5.50
693.1  273000.45  16880.07  6.18
694.5  274160.25  19220.93  7.01
695.8  275320.50  21964.15  7.98
697.1  276458.00  25113.62  9.08
698.5  277484.80  28622.32  10.31
699.8  278517.03  32468.23  11.66
701.1  279650.78  36586.87  13.08
702.5  280409.25  40848.57  14.57
703.8  281340.00  45245.57  16.08
705.1  282420.45  49727.12  17.61
706.5  283446.50  54184.15  19.12
707.8  284403.75  58586.59  20.60
709.1  285268.85  62878.68  22.04
710.5  286362.78  67123.20  23.44
711.8  287224.00  71179.90  24.78
713.1  288182.90  75173.09  26.09
714.4  289052.60  79014.21  27.34
715.8  289855.40  82695.41  28.53
717.1  291175.80  86386.37  29.67
718.4  292073.60  89827.20  30.75
719.7  293141.43  93172.79  31.78
721.0  293670.00  96205.28  32.76
722.4  294412.80  99170.39  33.68
723.7  295333.35  102057.88  34.56
725.0  296356.73  104832.80  35.37
726.3  297272.80  107432.71  36.14
727.6  297820.60  109763.03  36.86
729.0  298735.68  112080.98  37.52
730.3  299509.20  114221.10  38.14
731.6  300394.40  116284.43  38.71
732.9  301178.50  118188.90  39.24
734.2  301981.63  119979.20  39.73
735.5  302978.48  121740.53  40.18
736.8  303715.50  123314.03  40.60
738.1  304533.80  124804.89  40.98
739.5  305451.13  126244.85  41.33
740.8  306157.78  127497.04  41.64
742.1  306887.93  128712.50  41.94
743.4  307650.00  129857.14  42.21
744.7  308620.33  131030.12  42.46
746.0  309472.80  132080.74  42.68
747.3  310026.65  132921.80  42.87
748.6  310725.25  133775.17  43.05
749.9  311480.00  134599.77  43.21
751.2  312257.15  135386.02  43.36
752.5  313146.25  136182.23  43.49
753.8  313786.55  136801.12  43.60
755.1  314470.00  137409.26  43.70
756.4  315050.78  137937.39  43.78
757.7  315976.85  138592.35  43.86
759.0  317742.10  139564.45  43.92
760.3  318885.60  140256.66  43.98
761.6  320450.20  141093.75  44.03
762.9  320973.25  141469.54  44.08
764.2  321374.30  141761.98  44.11
765.5  321651.55  142002.99  44.15
766.8  322075.20  142287.34  44.18
768.1  322635.00  142594.04  44.20
769.3  323228.50  142929.70  44.22
770.6  323884.60  143286.61  44.24
771.9  324632.35  143657.89  44.25
773.2  325038.00  143883.06  44.27
774.5  325639.60  144198.48  44.28
775.8  326351.20  144541.80  44.29
777.1  326946.40  144828.86  44.30
778.4  327323.70  145016.21  44.30
779.6  328074.83  145392.90  44.32
780.9  328560.00  145640.28  44.33
782.2  328999.00  145884.80  44.34
783.5  329369.50  146057.24  44.34
784.8  329919.98  146318.94  44.35
786.0  330345.75  146528.12  44.36
787.3  330770.78  146724.76  44.36
788.6  331202.78  146943.91  44.37
789.9  331692.20  147179.76  44.37
791.2  332362.73  147484.71  44.37
792.4  333014.53  147803.37  44.38
793.7  333532.40  148034.21  44.38
795.0  334191.00  148332.61  44.39
796.2  334857.40  148647.00  44.39
797.5  335582.40  148984.14  44.40
798.8  336293.08  149310.39  44.40
800.0  336986.05  149622.99  44.40
801.3  337462.80  149843.88  44.40
802.6  338070.15  150127.54  44.41
803.8  338738.60  150431.65  44.41
805.1  339227.00  150667.70  44.42
806.4  339699.60  150894.51  44.42
807.7  340311.38  151148.12  44.41
808.9  340851.45  151408.29  44.42
810.2  341395.60  151648.64  44.42
811.4  341892.60  151885.81  44.43
812.7  342468.75  152175.83  44.43
814.0  343314.45  152549.32  44.43
815.2  343978.25  152839.59  44.43
816.5  344456.70  153036.31  44.43
817.7  344942.50  153262.62  44.43
819.0  345427.50  153500.99  44.44
820.2  345576.00  153598.55  44.45
821.5  346260.75  153912.80  44.45
822.7  346625.40  154086.78  44.45
824.0  347004.00  154226.62  44.45
825.2  347542.65  154466.21  44.45
826.5  347849.45  154613.11  44.45
827.7  348373.35  154860.96  44.45
829.0  348724.83  155038.31  44.46
830.2  349067.55  155174.10  44.45
831.5  349545.50  155390.01  44.45
832.7  349854.75  155532.23  44.46
834.0  350178.25  155682.89  44.46
835.2  350551.85  155858.68  44.46
836.4  350829.60  155993.37  44.46
837.7  351216.00  156177.56  44.47
838.9  351708.95  156382.05  44.46
840.1  352061.10  156567.47  44.47
841.4  352495.50  156787.68  44.48
842.6  352869.00  156962.78  44.48
843.8  353182.20  157134.50  44.49
845.1  353666.65  157370.20  44.50
846.3  354109.20  157553.01  44.49
847.5  354498.90  157761.74  44.50
848.8  354917.40  157957.86  44.51
850.0  355225.50  158110.70  44.51
851.2  355764.15  158356.09  44.51
852.5  356157.70  158543.59  44.51
853.7  356591.25  158782.46  44.53
854.9  357006.10  158990.65  44.53
856.1  357446.05  159185.42  44.53
857.4  357641.23  159280.88  44.54
858.6  358147.05  159494.22  44.53
859.8  358599.38  159678.13  44.53
861.0  359073.00  159908.91  44.53
862.2  359497.35  160115.05  44.54
863.5  359843.25  160274.41  44.54
864.7  360313.80  160506.16  44.55
865.9  360761.00  160691.48  44.54
867.1  361036.35  160815.81  44.54
868.3  361450.65  161037.99  44.55
869.5  361985.25  161249.78  44.55
870.8  362533.50  161492.96  44.55
872.0  363040.88  161724.13  44.55
873.2  363553.80  161897.77  44.53
874.4  363916.80  162089.80  44.54
875.6  364252.65  162263.11  44.55
876.8  364779.95  162480.56  44.54
878.0  365302.10  162699.68  44.54
879.2  365808.90  162925.98  44.54
880.4  366361.13  163144.41  44.53
881.6  366886.35  163353.79  44.52
882.8  367309.60  163523.72  44.52
884.0  367770.60  163784.23  44.53
885.2  368340.00  164001.50  44.52
886.5  368905.20  164278.57  44.53
887.7  369462.60  164497.97  44.52
888.8  370211.40  164784.41  44.51
890.0  370724.50  165007.40  44.51
891.2  371333.10  165248.43  44.50
892.4  371927.85  165499.16  44.50
893.6  372392.75  165756.87  44.51
894.8  373405.00  166151.73  44.50
896.0  374371.00  166541.50  44.49
897.2  375092.25  166912.04  44.50
898.4  375850.20  167224.45  44.49
899.6  376339.13  167452.44  44.50
900.8  376788.95  167609.69  44.48
902.0  377105.70  167731.21  44.48
903.2  377558.48  167864.40  44.46
904.3  377973.30  168025.18  44.45
905.5  378581.93  168289.51  44.45
906.7  379090.00  168563.71  44.47
907.9  379649.55  168798.93  44.46
909.1  379985.85  168948.96  44.46
910.2  380262.68  169030.82  44.45
911.4  380641.95  169149.07  44.44
912.6  380937.70  169231.17  44.42
913.8  381258.15  169319.37  44.41
915.0  381597.30  169527.40  44.43
916.2  381897.75  169608.40  44.41
917.3  381956.18  169617.59  44.41
918.5  382233.80  169716.07  44.40
919.7  382547.40  169822.28  44.39
920.8  382712.93  169839.99  44.38
922.0  382824.75  169905.63  44.38
923.2  383019.00  169969.80  44.38
924.4  383437.13  170060.24  44.35
925.5  383720.50  170159.85  44.34
926.7  384270.13  170386.26  44.34
927.9  385214.40  170709.25  44.32
929.0  386563.05  171253.17  44.30
930.2  388759.00  172146.12  44.28
931.4  391030.20  173122.36  44.27
932.5  393723.25  174199.90  44.24
933.7  395126.00  174776.49  44.23
934.9  395784.38  174985.33  44.21
936.0  395705.38  174788.44  44.17
937.2  393771.00  173889.53  44.16
938.3  392133.90  173154.66  44.16
939.5  390682.80  172469.59  44.15
940.7  390900.60  172456.63  44.12
941.8  392425.73  172995.78  44.08
943.0  393991.50  173503.76  44.04
944.2  395071.95  173832.35  44.00
945.3  394767.75  173584.54  43.97
946.5  394065.00  173177.72  43.95
947.6  394367.60  173159.23  43.91
948.8  394258.80  173013.02  43.88
949.9  394405.20  172903.60  43.84
951.1  394232.15  172577.54  43.78
952.2  394128.00  172372.23  43.74
953.4  393982.25  172104.35  43.68
954.5  394032.60  171919.80  43.63
955.7  394128.00  171696.60  43.56
956.8  393963.20  171458.25  43.52
958.0  393605.50  171120.35  43.48
959.1  393438.68  170899.62  43.44
960.3  393257.25  170604.22  43.38
961.4  393105.80  170482.11  43.37
962.6  393429.75  170498.78  43.34
963.7  393255.98  170358.35  43.32
964.9  393105.15  170271.45  43.31
966.0  393220.58  170166.57  43.28
967.2  393319.35  170175.49  43.27
968.3  392914.80  170100.27  43.29
969.5  393082.45  170013.55  43.25
970.6  392954.73  170070.03  43.28
971.8  393145.03  170070.55  43.26
972.9  393091.28  170043.68  43.26
974.0  393361.30  170147.73  43.25
975.2  393658.25  170081.68  43.21
976.3  393301.93  170114.99  43.25
977.5  393680.18  170117.52  43.21
978.6  393698.40  170179.68  43.23
979.7  394144.80  170209.56  43.18
980.9  393206.60  170157.62  43.27
982.0  393559.00  170313.69  43.28
983.2  393412.25  170186.69  43.26
984.3  393167.40  170116.18  43.27
985.4  393431.00  170310.44  43.29
986.6  393654.13  170463.56  43.30
987.7  394596.13  170907.80  43.31
988.9  394336.80  171069.68  43.38
990.0  395141.10  171335.23  43.36
993.1  343410.43  146310.29  42.61
996.9  343990.65  146919.48  42.71
1000.7  344992.14  147673.61  42.80
1004.5  345557.58  148219.50  42.89
1008.4  345367.04  148474.65  42.99
1012.2  345449.21  148815.78  43.08
1016.0  345538.20  149157.77  43.17
1019.8  345714.60  149508.98  43.25
1023.7  345724.47  149712.40  43.30
1027.5  345448.85  149777.03  43.36
1031.3  345687.08  149975.73  43.38
1035.1  345570.11  150020.00  43.41
1038.9  345526.68  150089.37  43.44
1042.7  345367.17  150103.06  43.46
1046.5  345244.83  150117.24  43.48
1050.3  345299.83  150168.72  43.49
1054.2  344999.08  150122.50  43.51
1058.0  344519.93  149939.46  43.52
1061.8  344394.31  149936.91  43.54
1065.6  344121.93  149784.81  43.53
1069.4  344151.93  149780.41  43.52
1073.2  343769.74  149562.74  43.51
1077.0  343335.88  149318.61  43.49
1080.8  342894.79  149056.55  43.47
1084.6  341931.80  148579.67  43.45
1088.4  341332.94  148288.29  43.44
1092.2  340557.75  147871.28  43.42
1096.0  340054.92  147529.11  43.38
1099.8  339578.20  147179.75  43.34
1103.6  338945.63  146763.31  43.30
1107.4  338068.74  146203.14  43.25
1111.2  337801.50  145907.77  43.19
1114.9  337142.75  145406.25  43.13
1118.7  336501.00  144872.00  43.05
1122.5  335779.60  144247.13  42.96
1126.3  334722.03  143402.79  42.84
1130.1  334250.46  142646.96  42.68
1133.9  332789.10  141251.20  42.44
1137.7  331530.00  139741.91  42.15
1141.4  329908.58  137913.26  41.80
1145.2  329266.50  136353.13  41.41
1149.0  328216.88  134728.54  41.05
1152.8  326760.50  133085.55  40.73
1156.6  325249.28  131694.38  40.49
1160.3  323682.00  130530.95  40.33
1164.1  321455.17  129329.84  40.23
1167.9  319819.79  128522.77  40.19
1171.7  318677.63  127976.63  40.16
1175.4  317591.97  127487.37  40.14
1179.2  316659.15  127023.74  40.11
1183.0  316423.33  126812.76  40.08
1186.7  315934.73  126522.70  40.05
1190.5  314937.60  126058.80  40.03
1194.3  313829.17  125590.90  40.02
1198.0  312725.33  125142.95  40.02
1201.8  311340.55  124608.30  40.02
1205.6  310232.33  124227.57  40.04
1209.3  309356.18  124010.45  40.09
1213.1  308435.25  123807.60  40.14
1216.8  307485.93  123643.92  40.21
1220.6  306460.00  123440.53  40.28
1224.3  305326.92  123171.09  40.34
1228.1  304172.60  122943.34  40.42
1231.9  303030.20  122646.02  40.47
1235.6  301708.28  122241.48  40.52
1239.4  300458.50  121884.66  40.57
1243.1  299342.77  121526.88  40.60
1246.9  298215.99  121151.30  40.63
1250.6  297316.73  120845.05  40.65
1254.3  296353.11  120500.47  40.66
1258.1  295449.12  120148.18  40.67
1261.8  294278.40  119681.60  40.67
1265.6  292975.83  119122.23  40.66
1269.3  291634.68  118520.94  40.64
1273.1  291592.51  118412.67  40.61
1276.8  291805.20  118384.57  40.57
1280.6  291670.37  118176.69  40.52
1284.3  290362.00  117468.51  40.46
1288.0  289036.70  116712.62  40.38
1291.8  287851.06  115967.82  40.29
1295.5  286576.40  115159.73  40.18
1299.2  285379.59  114312.74  40.06
1302.9  283993.63  113327.65  39.90
1306.7  282542.98  112243.13  39.73
1310.4  281171.27  111087.48  39.51
1314.1  279895.37  109901.29  39.27
1317.9  278753.54  108670.06  38.98
1321.6  277445.41  107279.21  38.67
1325.3  275922.68  105711.53  38.31
1329.0  274672.07  104188.67  37.93
1332.8  272734.00  102311.00  37.51
1336.5  271013.87  100496.10  37.08
1340.2  270588.50  99151.00  36.64
1343.9  269993.54  97730.92  36.20
1347.6  268984.50  96165.21  35.75
1351.4  268615.00  94873.29  35.32
1355.1  268238.30  93613.46  34.90
1358.8  267872.00  92317.71  34.46
1362.5  267194.83  90827.25  33.99
1366.2  265812.85  88903.44  33.45
1369.9  264477.50  86745.54  32.80
1373.6  262766.12  84093.56  32.00
1377.3  260871.30  80871.94  31.00
1381.0  259588.17  77168.12  29.73
1384.8  257822.50  72595.71  28.16
1388.4  255893.17  67556.98  26.40
1392.2  254309.67  62256.29  24.48
1395.9  252874.50  56907.07  22.50
1399.6  251479.79  51840.02  20.61
1403.3  250510.23  47362.79  18.91
1407.0  249677.10  43549.56  17.44
1410.7  248809.28  40443.74  16.25
1414.3  247905.99  38025.42  15.34
1418.1  246991.00  36230.33  14.67
1421.7  246310.46  34954.89  14.19
1425.4  245560.90  34076.34  13.88
1429.1  244846.88  33510.91  13.69
1432.8  243528.71  33116.91  13.60
1436.5  242818.84  32975.95  13.58
1440.2  242077.23  32965.75  13.62
1443.9  240957.38  32992.82  13.69
1447.6  239531.60  33039.60  13.79
1451.2  238612.55  33172.33  13.90
1454.9  237476.25  33304.03  14.02
1458.6  236486.42  33533.69  14.18
1462.3  235406.97  33852.92  14.38
1466.0  234135.38  34276.39  14.64
1469.7  232598.60  34812.19  14.97
1473.3  231667.00  35551.26  15.35
1477.0  229961.30  36260.60  15.77
1480.7  228525.32  37062.66  16.22
1484.4  226785.80  37822.91  16.68
1488.0  225368.00  38659.24  17.15
1491.7  223894.53  39466.29  17.63
1495.4  222349.43  40251.71  18.10
1499.0  220922.00  41022.57  18.57
1502.7  219738.83  41843.35  19.04
1506.4  218447.68  42597.08  19.50
1510.0  217152.17  43325.76  19.95
1513.7  215847.04  44002.00  20.39
1517.4  214641.67  44662.67  20.81
1521.0  213529.20  45312.97  21.22
1524.7  212390.75  45907.64  21.61
1528.3  211211.13  46465.20  22.00
1532.0  210098.35  46982.28  22.36
1535.7  208831.55  47416.09  22.71
1539.3  207660.28  47847.08  23.04
1543.0  206763.00  48316.74  23.37
1546.6  206123.67  48812.83  23.68
1550.3  205200.25  49211.13  23.98
1553.9  204227.10  49561.72  24.27
1557.6  203078.33  49839.53  24.54
1561.2  201898.35  50070.54  24.80
1564.9  200710.24  50280.01  25.05
1568.5  199489.62  50456.00  25.29
1572.2  198442.20  50650.25  25.52
1575.8  197456.00  50848.00  25.75
1579.5  196531.50  51037.25  25.97
1583.1  195606.80  51224.39  26.19
1586.8  194474.00  51340.00  26.40
1590.4  193505.63  51480.28  26.60
1594.0  192297.08  51536.02  26.80
1597.7  191267.36  51632.57  26.99
1601.3  190086.75  51686.10  27.19
1604.9  188870.61  51708.36  27.38
1608.6  187628.37  51692.39  27.55
1612.2  186658.73  51722.20  27.71
1615.8  185574.03  51701.51  27.86
1619.5  184535.00  51668.61  28.00
1623.1  183340.43  51572.92  28.13
1626.7  182206.05  51471.92  28.25
1630.3  181097.58  51358.46  28.36
1634.0  180068.00  51246.00  28.46
1637.6  179124.93  51124.29  28.54
1641.2  178196.15  50959.35  28.60
1644.8  177073.69  50691.24  28.63
1648.5  176061.28  50430.05  28.64
1652.1  175164.30  50153.70  28.63
1655.7  174276.60  49850.11  28.60
1659.3  173482.06  49562.26  28.57
1662.9  172167.50  49123.93  28.53
1666.6  170825.60  48690.76  28.50
1670.2  169501.33  48270.29  28.48
1673.8  168151.85  47825.52  28.44
1677.4  167082.60  47448.86  28.40
1681.0  166338.35  47125.11  28.33
1684.6  165986.17  46867.32  28.24
1688.2  165399.35  46490.83  28.11
1691.8  164778.70  46113.95  27.99
1695.4  164407.60  45780.80  27.85
1699.0  164096.10  45463.30  27.71
1702.6  163787.00  45119.28  27.55
1706.2  163232.01  44694.65  27.38
1709.8  162382.10  44187.37  27.21
1713.4  161728.86  43724.83  27.04
1717.0  160937.25  43232.25  26.86
1720.6  160220.10  42756.74  26.69
1724.2  159593.03  42308.11  26.51
1727.8  158928.00  41877.70  26.35
1731.4  158479.75  41526.77  26.20
1735.0  158268.55  41263.25  26.07
1738.6  158007.15  40960.16  25.92
1742.2  157440.60  40545.43  25.75
1745.8  156789.80  40092.86  25.57
1749.4  155856.53  39552.50  25.38
1753.0  154447.93  38879.93  25.17
1756.6  152882.92  38177.67  24.97
1760.1  151655.99  37581.12  24.78
1763.7  150082.67  36916.10  24.60
1767.3  148760.53  36352.80  24.44
1770.9  147623.53  35847.76  24.28
1774.5  146293.08  35316.75  24.14
1778.0  145217.14  34873.56  24.01
1781.6  144182.55  34466.25  23.90
1785.2  143113.13  34076.70  23.81
1788.8  142030.60  33718.30  23.74
1792.3  140862.63  33363.18  23.68
1795.9  140354.50  33185.36  23.64
1799.5  139825.00  33018.62  23.61
1803.1  139106.92  32837.70  23.61
1806.6  139347.54  32885.29  23.60
1810.2  140212.57  33074.20  23.59
1813.8  140879.35  33203.31  23.57
1817.3  140780.40  33147.77  23.55
1820.9  139941.72  32904.09  23.51
1824.5  138764.98  32560.49  23.46
1828.0  137861.17  32266.47  23.41
1831.6  136955.13  31948.71  23.33
1835.2  136155.83  31613.93  23.22
1838.7  135755.87  31300.65  23.06
1842.3  135465.00  30955.71  22.85
1845.8  134887.79  30445.71  22.57
1849.4  134462.28  29855.70  22.20
1852.9  133975.63  29100.88  21.72
1856.5  133236.48  28116.67  21.10
1860.0  132603.80  26949.24  20.32
1863.6  132234.68  25637.68  19.39
1867.1  131763.45  24098.20  18.29
1870.7  131487.13  22268.46  16.94
1874.2  130995.00  20107.86  15.35
1877.8  130319.27  17825.61  13.68
1881.3  129332.00  15488.02  11.98
1884.9  128564.06  13309.83  10.35
1888.4  127642.36  11282.91  8.84
1891.9  126652.07  9576.42  7.56
1895.5  125506.88  8221.09  6.55
1899.0  124822.75  7259.95  5.82
1901.3  150079.00  5863.04  3.91
1904.1  149914.13  5297.06  3.53
1906.8  149234.40  4899.75  3.28
1909.6  147814.01  4566.19  3.09
1912.4  146485.06  4317.40  2.95
1915.1  145466.89  4141.23  2.85
1917.9  144343.38  4011.50  2.78
1920.6  143464.80  3945.46  2.75
1923.3  142626.58  3901.45  2.74
1926.1  141582.73  3879.99  2.74
1928.8  140657.00  3875.67  2.76
1931.6  139924.84  3896.30  2.78
1934.3  139217.04  3930.71  2.82
1937.0  138487.45  3978.89  2.87
1939.8  137688.19  4031.00  2.93
1942.5  136653.00  4094.75  3.00
1945.2  135290.93  4156.49  3.07
1947.9  134170.75  4236.58  3.16
1950.7  133263.73  4331.52  3.25
1953.4  131768.51  4419.27  3.35
1956.1  130592.69  4517.65  3.46
1958.8  129555.24  4637.37  3.58
1961.5  128284.80  4751.80  3.70
1964.2  126972.30  4873.05  3.84
1966.9  125602.69  4997.86  3.98
1969.6  124537.50  5136.75  4.12
1972.3  123300.60  5282.15  4.28
1975.0  122368.95  5442.75  4.45
1977.7  121385.66  5594.18  4.61
1980.4  120375.10  5753.13  4.78
1983.1  119394.36  5925.15  4.96
1985.8  118565.78  6103.05  5.15
1988.4  117656.50  6283.33  5.34
1991.1  116828.43  6455.58  5.53
1993.8  116034.19  6639.14  5.72
1996.5  115471.95  6835.17  5.92
1999.1  114851.55  7026.89  6.12
2001.8  114231.95  7213.15  6.31
2004.5  113622.08  7400.08  6.51
2007.1  112966.84  7570.91  6.70
2009.8  112302.40  7746.26  6.90
2012.4  111781.86  7925.18  7.09
2015.1  111298.78  8095.91  7.27
2017.8  110580.05  8238.36  7.45
2020.4  110121.00  8399.10  7.63
2023.1  109796.58  8557.80  7.79
2025.7  109564.00  8710.00  7.95
2028.3  109258.50  8848.67  8.10
2031.0  108921.56  8972.06  8.24
2033.6  108667.35  9098.03  8.37
2036.2  108432.45  9217.65  8.50
2038.9  107890.88  9302.48  8.62
2041.5  107594.18  9396.57  8.73
2044.1  107101.35  9461.25  8.83
2046.8  106768.58  9535.20  8.93
2049.4  106194.38  9583.05  9.02
2052.0  105920.05  9648.15  9.11
2054.6  105557.81  9708.13  9.20
2057.2  105068.55  9768.23  9.30
2059.8  104793.45  9851.20  9.40
2062.4  104011.63  9871.62  9.49
2065.0  103542.40  9921.07  9.58
2067.6  102743.35  9947.89  9.68
2070.2  102207.28  9991.48  9.78
2072.8  101631.98  10032.88  9.87
2075.4  101239.69  10082.19  9.96
2078.0  100657.00  10120.60  10.05
2080.6  100148.40  10153.00  10.14
2083.2  99538.93  10178.10  10.23
2085.8  99102.35  10219.41  10.31
2088.4  98507.13  10248.88  10.40
2090.9  97785.65  10260.40  10.49
2093.5  97007.55  10252.62  10.57
2096.1  96302.66  10261.13  10.66
2098.7  95597.80  10265.52  10.74
2101.2  94726.10  10252.93  10.82
2103.8  94130.05  10268.22  10.91
2106.4  93534.00  10287.87  11.00
2108.9  92951.05  10296.60  11.08
2111.5  92178.15  10285.68  11.16
2114.0  91601.75  10298.78  11.24
2116.6  91146.56  10320.63  11.32
2119.1  90656.10  10335.90  11.40
2121.7  90221.25  10355.62  11.48
2124.2  89847.38  10375.35  11.55
2126.8  89148.64  10357.75  11.62
2129.3  88789.80  10379.60  11.69
2131.9  88248.60  10370.80  11.75
2134.4  87867.23  10376.63  11.81
2136.9  87525.26  10384.62  11.86
2139.4  87068.45  10389.52  11.93
2142.0  86662.80  10398.38  12.00
2144.5  86414.55  10426.35  12.07
2147.0  86202.20  10463.17  12.14
2149.5  85753.30  10469.87  12.21
2152.1  85606.68  10499.27  12.26
2154.6  85537.20  10533.20  12.31
2157.1  85060.88  10525.32  12.37
2159.6  84693.00  10532.13  12.44
2162.1  84534.45  10558.28  12.49
2164.6  84316.65  10569.55  12.54
2167.1  84027.50  10576.91  12.59
2169.6  83738.03  10580.73  12.64
2172.1  83307.75  10569.86  12.69
2174.6  83031.65  10575.58  12.74
2177.1  82637.91  10576.04  12.80
2179.5  82263.84  10567.43  12.85
2182.0  81828.86  10558.49  12.90
2184.5  81339.43  10537.48  12.95
2187.0  80768.20  10508.73  13.01
2189.5  80157.88  10474.35  13.07
2191.9  79479.38  10431.00  13.12
2194.4  78923.59  10404.73  13.18
2196.9  78264.00  10358.40  13.24
2199.3  77669.25  10309.50  13.27
2201.8  76854.40  10237.03  13.32
2204.3  76430.11  10221.60  13.37
2206.7  75854.85  10177.51  13.42
2209.2  75451.84  10152.65  13.46
2211.6  74881.13  10100.48  13.49
2214.1  74610.08  10069.40  13.50
2216.5  74097.70  10017.77  13.52
2219.0  73807.15  9983.00  13.53
2221.4  73452.75  9934.02  13.52
2223.9  73021.38  9857.17  13.50
2226.3  72560.25  9770.40  13.47
2228.7  72056.91  9668.37  13.42
2231.1  71517.60  9548.55  13.35
2233.6  70991.05  9426.73  13.28
2236.0  70514.94  9294.40  13.18
2238.4  70061.25  9155.56  13.07
2240.9  69650.05  9019.47  12.95
2243.3  69165.80  8877.92  12.84
2245.7  68655.00  8726.15  12.71
2248.1  68224.33  8568.84  12.56
2250.5  67769.36  8410.96  12.41
2252.9  67192.78  8234.96  12.26
2255.3  66692.36  8061.99  12.09
2257.7  66285.00  7922.50  11.95
2260.1  65843.75  7775.84  11.81
2262.5  65310.00  7610.00  11.65
2264.9  64834.26  7465.04  11.51
2267.3  64275.00  7322.50  11.39
2269.7  63842.10  7193.90  11.27
2272.1  63345.40  7054.24  11.14
2274.5  62842.59  6923.44  11.02
2276.8  62413.85  6806.33  10.91
2279.2  61882.88  6698.33  10.82
2281.6  61494.75  6598.70  10.73
2284.0  61084.80  6499.35  10.64
2286.3  60670.80  6401.73  10.55
2288.7  60313.34  6308.58  10.46
2291.1  59811.28  6193.73  10.36
2293.4  59405.50  6085.57  10.24
2295.8  58849.05  5963.70  10.13
2298.2  58319.66  5850.34  10.03
2300.5  57737.48  5728.73  9.92
2302.9  57055.50  5603.25  9.82
2305.2  56407.95  5482.18  9.72
2307.6  55818.33  5374.98  9.63
2309.9  55102.50  5267.42  9.56
2312.2  54536.75  5174.42  9.49
2314.6  53980.43  5087.03  9.42
2316.9  53328.38  4993.88  9.36
2319.2  52800.03  4908.62  9.30
2321.6  52230.76  4825.66  9.24
2323.9  51734.38  4747.40  9.18
2326.2  51253.75  4661.09  9.09
2328.6  50779.16  4582.33  9.02
2330.9  50313.38  4499.25  8.94
2333.2  49895.13  4418.54  8.86
2335.5  49506.23  4341.53  8.77
2337.8  49074.95  4262.12  8.68
2340.1  48549.26  4175.85  8.60
2342.4  48165.00  4097.71  8.51
2344.8  47782.25  4020.07  8.41
2347.1  47269.08  3945.26  8.35
2349.4  46765.75  3872.36  8.28
2351.6  46236.95  3792.49  8.20
2353.9  45785.58  3726.51  8.14
2356.2  45322.65  3657.39  8.07
2358.5  44788.80  3584.00  8.00
2360.8  44251.20  3511.20  7.93
2363.1  43845.95  3454.73  7.88
2365.4  43417.43  3384.35  7.79
2367.7  42989.40  3314.55  7.71
2369.9  42516.71  3243.21  7.63
2372.2  41942.20  3176.27  7.57
2374.5  41406.75  3106.95  7.50
2376.7  40835.49  3020.33  7.40
2379.0  40274.60  2946.15  7.32
2381.3  39716.25  2870.00  7.23
2383.5  39256.80  2816.00  7.17
2385.8  38697.63  2741.64  7.08
2388.0  38214.30  2657.95  6.96
2390.3  37744.90  2589.90  6.86
2392.5  37305.00  2538.00  6.80
2394.8  36880.80  2477.48  6.72
2397.0  36454.60  2405.43  6.60
2399.3  36038.30  2354.43  6.53
2401.5  35619.94  2290.75  6.43
2403.8  35130.21  2229.32  6.35
2406.0  34670.44  2160.50  6.23
2408.2  34295.80  2106.87  6.14
2410.4  33901.61  2044.15  6.03
2412.7  33524.73  1988.68  5.93
2414.9  33206.25  1941.78  5.85
2417.1  32823.15  1892.30  5.77
2419.3  32448.00  1843.20  5.68
2421.6  32094.69  1785.73  5.56
2423.8  31742.40  1737.54  5.47
2426.0  31403.44  1697.57  5.41
2428.2  31085.60  1652.93  5.32
2430.4  30797.28  1607.85  5.22
2432.6  30540.00  1566.67  5.13
2434.8  30255.45  1520.46  5.03
2437.0  29932.83  1467.59  4.90
2439.2  29591.36  1426.01  4.82
2441.4  29284.40  1390.60  4.75
2443.6  29066.81  1357.49  4.67
2445.7  28842.63  1322.39  4.58
2447.9  28598.75  1290.77  4.51
2450.1  28314.26  1246.94  4.40
2452.3  27972.18  1210.51  4.33
2454.5  27657.50  1177.22  4.26
2456.6  27306.40  1148.47  4.21
2458.8  26984.10  1115.40  4.13
2461.0  26696.06  1088.46  4.08
2463.1  26419.16  1058.51  4.01
2465.3  26153.43  1035.31  3.96
2467.5  25930.50  1010.38  3.90
2469.6  25708.88  988.23  3.84
2471.8  25419.46  964.82  3.80
2473.9  25136.38  935.17  3.72
2476.1  24797.50  906.21  3.65
2478.2  24472.35  887.34  3.63
2480.4  24187.76  867.28  3.59
2482.5  23863.69  851.59  3.57
2484.6  23550.31  822.02  3.49
2486.8  23290.95  804.63  3.45
2488.9  23012.10  785.22  3.41
2491.1  22705.20  769.53  3.39
2493.2  22345.35  754.43  3.38
2495.3  21969.68  721.50  3.28
2497.4  21650.48  712.43  3.29
2499.5  21349.86  699.93  3.28
2501.7  21248.30  694.31  3.27
2503.8  21150.76  685.38  3.24
2505.9  21063.75  670.52  3.18
2508.0  21033.14  674.39  3.21
2510.1  21044.21  675.10  3.21
2512.2  21111.68  692.71  3.28
2514.3  21256.59  692.89  3.26
2516.4  21453.30  669.80  3.12
