/*** Spectra Vista SIG Data ***/
name= 10_20220926_ACSA_07_avg.sig
comm= Averaged Ref/Tar of files: HR.092622.0027_moc.sig,HR.092622.0028_moc.sig
data=
337.3  6016.50  464.13  7.71
338.8  6253.00  445.27  7.12
340.3  6522.23  442.92  6.79
341.8  6804.38  443.26  6.51
343.2  7194.83  433.98  6.03
344.7  7557.00  444.10  5.88
346.2  7896.00  425.35  5.39
347.7  8231.60  431.94  5.25
349.2  8542.80  412.56  4.83
350.6  8912.10  438.30  4.92
352.1  9409.75  424.50  4.51
353.6  9976.00  426.56  4.28
355.1  10444.43  444.77  4.26
356.6  10997.68  462.96  4.21
358.0  11525.15  463.18  4.02
359.5  12012.08  466.90  3.89
361.0  12690.20  474.40  3.74
362.5  13265.25  477.88  3.60
364.0  13974.03  488.16  3.49
365.4  14605.80  515.32  3.53
366.9  15169.00  549.49  3.62
368.4  15874.65  578.79  3.65
369.9  16589.00  602.69  3.63
371.3  17385.78  612.29  3.52
372.8  18130.55  633.79  3.50
374.3  18936.00  638.72  3.37
375.8  19809.38  667.11  3.37
377.2  20533.50  679.94  3.31
378.7  21386.05  690.80  3.23
380.2  22144.50  717.06  3.24
381.7  22999.00  727.95  3.17
383.1  23989.88  735.14  3.06
384.6  24920.55  740.56  2.97
386.1  25887.98  768.28  2.97
387.6  26760.68  791.63  2.96
389.0  27732.83  817.83  2.95
390.5  28717.80  847.27  2.95
392.0  29808.00  870.88  2.92
393.4  30876.38  879.25  2.85
394.9  31812.50  892.93  2.81
396.4  32991.20  902.13  2.73
397.9  34017.90  937.59  2.76
399.3  35020.75  973.82  2.78
400.8  36165.53  1001.32  2.77
402.2  37323.00  1023.99  2.74
403.7  38499.00  1043.63  2.71
405.2  39646.00  1060.30  2.67
406.6  40905.90  1088.50  2.66
408.1  41955.83  1115.72  2.66
409.6  43117.20  1154.93  2.68
411.0  44307.18  1178.13  2.66
412.5  45659.30  1217.66  2.67
414.0  46994.68  1239.42  2.64
415.4  48297.60  1271.57  2.63
416.9  49570.53  1313.38  2.65
418.4  50818.68  1356.48  2.67
419.8  52176.60  1383.70  2.65
421.3  53603.55  1437.48  2.68
422.7  55094.00  1464.99  2.66
424.2  56536.88  1513.27  2.68
425.7  57937.00  1554.15  2.68
427.1  59404.50  1606.05  2.70
428.6  60830.65  1670.25  2.75
430.0  62381.00  1725.99  2.77
431.5  64011.03  1772.69  2.77
432.9  65631.38  1830.60  2.79
434.4  67288.58  1872.63  2.78
435.9  68915.30  1927.97  2.80
437.3  70556.25  1982.42  2.81
438.8  72124.88  2048.70  2.84
440.2  73792.25  2099.41  2.85
441.7  75649.15  2156.96  2.85
443.1  77411.70  2215.43  2.86
444.6  79191.28  2276.36  2.87
446.0  80967.18  2324.81  2.87
447.5  82875.00  2395.72  2.89
448.9  84595.45  2456.90  2.90
450.4  86425.00  2522.86  2.92
451.8  88213.88  2578.55  2.92
453.3  90004.28  2640.88  2.93
454.7  91809.68  2698.68  2.94
456.2  93564.10  2760.86  2.95
457.6  95469.30  2821.50  2.96
459.1  97266.23  2881.20  2.96
460.5  99090.53  2944.05  2.97
462.0  101059.20  2995.54  2.96
463.4  103031.08  3057.75  2.97
464.8  104958.00  3127.32  2.98
466.3  106865.03  3192.53  2.99
467.7  108881.60  3260.12  2.99
469.2  110744.85  3317.73  3.00
470.6  112731.50  3368.93  2.99
472.0  114760.03  3431.04  2.99
473.5  116709.73  3499.77  3.00
474.9  118878.25  3567.33  3.00
476.4  120930.00  3641.80  3.01
477.8  123032.00  3708.80  3.01
479.2  125075.58  3781.78  3.02
480.7  127174.35  3844.57  3.02
482.1  129320.68  3918.28  3.03
483.6  131520.60  3985.72  3.03
485.0  133776.45  4071.56  3.04
486.4  135854.93  4142.27  3.05
487.9  138114.25  4228.62  3.06
489.3  140277.38  4332.78  3.09
490.7  142449.15  4422.76  3.10
492.2  144655.75  4531.90  3.13
493.6  146905.30  4638.78  3.16
495.0  149178.90  4753.43  3.19
496.5  151360.65  4871.34  3.22
497.9  153650.63  5011.84  3.26
499.3  155892.25  5154.52  3.31
500.7  158168.70  5322.02  3.36
502.2  160543.80  5499.85  3.43
503.6  162826.80  5696.40  3.50
505.0  165106.43  5918.31  3.58
506.5  167531.40  6165.17  3.68
507.9  169985.40  6450.24  3.79
509.3  172278.68  6767.38  3.93
510.7  174909.15  7127.73  4.08
512.2  177529.35  7513.29  4.23
513.6  180351.13  7975.30  4.42
515.0  183065.93  8482.71  4.63
516.4  185854.20  9057.66  4.87
517.8  188624.50  9698.67  5.14
519.3  191515.20  10390.40  5.43
520.7  194171.50  11113.33  5.72
522.1  196836.58  11891.35  6.04
523.5  199390.23  12682.86  6.36
524.9  202233.68  13526.35  6.69
526.3  204795.00  14341.19  7.00
527.8  207502.63  15192.52  7.32
529.2  210153.60  16025.15  7.63
530.6  213016.50  16876.31  7.92
532.0  215934.88  17677.11  8.19
533.4  218300.20  18399.89  8.43
534.8  220686.68  19097.22  8.65
536.3  223652.03  19807.54  8.86
537.7  226713.25  20480.17  9.03
539.1  229610.55  21105.76  9.19
540.5  232383.75  21698.90  9.34
541.9  235253.13  22291.47  9.48
543.3  237740.30  22842.21  9.61
544.7  240614.00  23428.12  9.74
546.1  243365.50  23977.88  9.85
547.5  246304.80  24538.22  9.96
549.0  249418.00  25074.76  10.05
550.4  252252.00  25559.82  10.13
551.8  255120.33  26002.98  10.19
553.2  257937.38  26391.78  10.23
554.6  260750.25  26718.06  10.25
556.0  263659.20  26982.66  10.23
557.4  266719.70  27199.32  10.20
558.8  269525.48  27324.58  10.14
560.2  272660.00  27420.00  10.06
561.6  275529.38  27415.00  9.95
563.0  278291.65  27327.43  9.82
564.4  281418.90  27223.46  9.67
565.8  284377.70  27057.69  9.51
567.2  287506.55  26845.01  9.34
568.6  290480.85  26582.52  9.15
570.0  293299.50  26258.38  8.95
571.4  296679.88  25939.70  8.74
572.8  299749.80  25608.47  8.54
574.2  302598.45  25268.51  8.35
575.6  305582.88  24956.49  8.17
577.0  308581.90  24686.43  8.00
578.4  311937.50  24482.50  7.85
579.8  314966.10  24270.52  7.71
581.2  318019.25  24106.29  7.58
582.5  320872.50  23946.43  7.46
583.9  323883.60  23822.68  7.36
585.3  326714.30  23710.66  7.26
586.7  329683.20  23632.62  7.17
588.1  332630.80  23581.60  7.09
589.5  335917.20  23568.17  7.02
590.9  338862.98  23556.12  6.95
592.3  341768.70  23570.12  6.90
593.7  344685.25  23614.71  6.85
595.0  347598.00  23668.72  6.81
596.4  350886.75  23757.76  6.77
597.8  353508.40  23801.97  6.73
599.2  356598.45  23868.84  6.69
600.6  359737.95  23905.32  6.65
602.0  362696.40  23909.97  6.59
603.3  365560.00  23873.95  6.53
604.7  368566.15  23817.55  6.46
606.1  371550.15  23732.95  6.39
607.5  374844.85  23631.77  6.30
608.9  377892.90  23484.23  6.21
610.2  381068.33  23323.27  6.12
611.6  383955.00  23127.50  6.02
613.0  386708.30  22942.84  5.93
614.4  389469.98  22756.48  5.84
615.8  392725.60  22605.25  5.76
617.1  395404.03  22442.10  5.68
618.5  398660.63  22329.87  5.60
619.9  401357.85  22232.40  5.54
621.3  404284.73  22178.87  5.49
622.6  407189.25  22174.85  5.45
624.0  409891.50  22185.74  5.41
625.4  412989.90  22265.81  5.39
626.8  415938.25  22354.75  5.37
628.1  418780.60  22476.06  5.37
629.5  421530.90  22577.94  5.36
630.9  424444.30  22690.55  5.35
632.2  427514.30  22788.54  5.33
633.6  430007.50  22812.44  5.31
635.0  432895.80  22798.92  5.27
636.3  435919.50  22704.97  5.21
637.7  438623.65  22502.95  5.13
639.1  441652.20  22238.86  5.04
640.4  444372.25  21900.67  4.93
641.8  447165.00  21533.30  4.82
643.2  449771.90  21119.92  4.70
644.5  452655.00  20736.00  4.58
645.9  455343.35  20363.62  4.47
647.2  458284.75  20049.37  4.37
648.6  461060.40  19796.87  4.29
650.0  463804.20  19611.77  4.23
651.3  466344.75  19468.15  4.17
652.7  469758.00  19358.75  4.12
654.0  472790.70  19247.65  4.07
655.4  475011.08  19090.83  4.02
656.8  476405.48  18904.08  3.97
658.1  478889.25  18747.21  3.91
659.5  482284.80  18585.88  3.85
660.8  485647.05  18399.57  3.79
662.2  488314.80  18183.03  3.72
663.5  491026.95  17991.84  3.66
664.9  493043.93  17809.15  3.61
666.2  495062.10  17673.49  3.57
667.6  497610.00  17587.35  3.53
668.9  500428.80  17581.17  3.51
670.3  503181.00  17617.95  3.50
671.6  505535.20  17689.28  3.50
673.0  507782.40  17809.21  3.51
674.3  510232.80  17978.18  3.52
675.7  512802.90  18190.21  3.55
677.0  515102.78  18443.88  3.58
678.4  517372.00  18729.57  3.62
679.7  519747.53  19084.50  3.67
681.1  522290.50  19517.87  3.74
682.4  524560.13  20034.90  3.82
683.8  526933.13  20654.79  3.92
685.1  529224.15  21403.29  4.04
686.4  531336.00  22348.23  4.21
687.8  533821.58  23570.01  4.42
689.1  536226.60  25178.36  4.70
690.5  538238.85  27257.50  5.06
691.8  540982.75  30033.77  5.55
693.1  543402.00  33605.62  6.18
694.5  545769.30  38048.97  6.97
695.8  548172.80  43425.32  7.92
697.1  550401.50  49716.87  9.03
698.5  552728.75  56916.92  10.30
699.8  555071.60  64900.47  11.69
701.1  556975.65  73438.82  13.19
702.5  559060.38  82437.29  14.75
703.8  561535.33  91754.93  16.34
705.1  563409.55  101042.51  17.93
706.5  565703.98  110354.46  19.51
707.8  567542.78  119449.70  21.05
709.1  569823.10  128409.96  22.54
710.5  572017.38  137148.95  23.98
711.8  574007.00  145558.69  25.36
713.1  575985.00  153728.69  26.69
714.4  578040.88  161686.72  27.97
715.8  580349.48  169436.13  29.20
717.1  582611.30  176897.74  30.36
718.4  584861.63  184089.38  31.48
719.7  587106.00  191004.24  32.53
721.0  588849.73  197492.82  33.54
722.4  590715.45  203760.70  34.49
723.7  592720.45  209778.40  35.39
725.0  594454.05  215423.48  36.24
726.3  596744.20  221007.58  37.04
727.6  598525.50  226126.35  37.78
729.0  600430.60  231029.51  38.48
730.3  602487.05  235697.64  39.12
731.6  604039.70  239955.87  39.73
732.9  605977.45  244139.90  40.29
734.2  607662.00  247979.56  40.81
735.5  609518.80  251671.06  41.29
736.8  611534.18  255220.46  41.73
738.1  613413.53  258508.99  42.14
739.5  615185.85  261585.28  42.52
740.8  617095.33  264560.50  42.87
742.1  618711.53  267226.73  43.19
743.4  620530.75  269851.82  43.49
744.7  622496.00  272381.20  43.76
746.0  624059.90  274569.73  44.00
747.3  625723.00  276679.90  44.22
748.6  627376.50  278652.03  44.42
749.9  629180.80  280606.30  44.60
751.2  630560.75  282251.49  44.76
752.5  632191.95  283948.23  44.91
753.8  633591.00  285458.83  45.05
755.1  635229.18  286987.56  45.18
756.4  636376.65  288227.82  45.29
757.7  638430.38  289798.54  45.39
759.0  642041.55  292032.33  45.48
760.3  644838.95  293802.60  45.56
761.6  647712.45  295600.13  45.64
762.9  649258.50  296705.36  45.70
764.2  650043.50  297497.56  45.77
765.5  650962.48  298272.59  45.82
766.8  651565.85  298860.93  45.87
768.1  652720.95  299690.28  45.91
769.3  654113.10  300561.24  45.95
770.6  655581.40  301490.00  45.99
771.9  656824.45  302306.68  46.03
773.2  658285.88  303218.79  46.06
774.5  659258.85  303874.04  46.09
775.8  660454.63  304604.72  46.12
777.1  661775.13  305393.32  46.15
778.4  663206.13  306214.31  46.17
779.6  664527.60  307029.95  46.20
780.9  665295.53  307539.47  46.23
782.2  666340.48  308240.75  46.26
783.5  667347.75  308895.55  46.29
784.8  668290.88  309461.55  46.31
786.0  669200.15  310040.13  46.33
787.3  670098.88  310607.64  46.35
788.6  671092.63  311219.17  46.37
789.9  671825.70  311746.45  46.40
791.2  673298.25  312574.94  46.42
792.4  674555.75  313292.77  46.44
793.7  676218.00  314197.99  46.46
795.0  677433.50  314836.44  46.47
796.2  678886.50  315652.97  46.50
797.5  680160.00  316391.97  46.52
798.8  681572.50  317240.30  46.55
800.0  682780.00  317942.00  46.57
801.3  684156.38  318688.43  46.58
802.6  685224.00  319315.89  46.60
803.8  686402.85  319995.38  46.62
805.1  687480.75  320632.28  46.64
806.4  688539.65  321275.04  46.66
807.7  689773.03  321958.14  46.68
808.9  691020.75  322655.64  46.69
810.2  691996.20  323229.78  46.71
811.4  693046.00  323868.00  46.73
812.7  694455.45  324633.60  46.75
814.0  695795.10  325372.74  46.76
815.2  697178.85  326174.54  46.78
816.5  698416.25  326854.63  46.80
817.7  699190.75  327393.10  46.82
819.0  699938.40  327853.04  46.84
820.2  700881.90  328365.76  46.85
821.5  702048.80  329029.25  46.87
822.7  703068.98  329666.58  46.89
824.0  704007.20  330237.00  46.91
825.2  704696.85  330691.53  46.93
826.5  705412.05  331125.07  46.94
827.7  706479.85  331720.64  46.95
829.0  707542.80  332248.57  46.96
830.2  708487.60  332829.72  46.98
831.5  709402.05  333359.98  46.99
832.7  710377.65  333947.60  47.01
834.0  710926.88  334325.65  47.03
835.2  712009.80  334928.04  47.04
836.4  712624.80  335368.59  47.06
837.7  713390.63  335828.73  47.08
838.9  714591.05  336467.32  47.09
840.1  715479.60  337038.53  47.11
841.4  716474.00  337602.68  47.12
842.6  717346.70  338104.38  47.13
843.8  718034.20  338614.23  47.16
845.1  718832.40  339122.48  47.18
846.3  719730.90  339606.81  47.19
847.5  720658.25  340170.07  47.20
848.8  721437.55  340655.50  47.22
850.0  722496.80  341302.45  47.24
851.2  723394.85  341840.20  47.25
852.5  724470.00  342454.61  47.27
853.7  725074.20  342903.67  47.29
854.9  726152.70  343504.98  47.30
856.1  727130.90  344083.53  47.32
857.4  728167.73  344523.07  47.31
858.6  728974.40  345056.16  47.33
859.8  730024.10  345588.03  47.34
861.0  730877.00  346124.45  47.36
862.2  731921.40  346676.76  47.37
863.5  732743.20  347211.86  47.39
864.7  733700.00  347735.36  47.39
865.9  734579.88  348281.12  47.41
867.1  735256.25  348597.32  47.41
868.3  736285.30  349220.62  47.43
869.5  737454.10  349773.37  47.43
870.8  738383.85  350354.83  47.45
872.0  739245.33  350868.37  47.46
873.2  740231.65  351294.65  47.46
874.4  740951.15  351723.12  47.47
875.6  742233.48  352272.14  47.46
876.8  743592.30  352974.27  47.47
878.0  744457.70  353454.20  47.48
879.2  745443.20  353996.47  47.49
880.4  746336.00  354533.32  47.50
881.6  747322.90  355031.75  47.51
882.8  748730.15  355618.28  47.50
884.0  749593.00  356046.85  47.50
885.2  750843.25  356719.62  47.51
886.5  752209.50  357377.71  47.51
887.7  753095.33  357819.33  47.51
888.8  754469.10  358493.36  47.52
890.0  755396.25  358837.50  47.50
891.2  756445.95  359361.05  47.51
892.4  757967.10  359988.49  47.49
893.6  759614.45  360859.32  47.51
894.8  760980.68  361612.37  47.52
896.0  762455.35  362393.33  47.53
897.2  764210.70  363197.70  47.53
898.4  766319.40  364087.56  47.51
899.6  767599.00  364687.85  47.51
900.8  768207.05  364929.09  47.50
902.0  768897.45  365295.53  47.51
903.2  769099.90  365388.06  47.51
904.3  770225.63  365923.77  47.51
905.5  771383.25  366487.40  47.51
906.7  772558.38  367079.15  47.51
907.9  773728.78  367482.64  47.50
909.1  774475.63  367948.30  47.51
910.2  774900.00  368138.25  47.51
911.4  775166.18  368233.83  47.50
912.6  775757.50  368558.43  47.51
913.8  776779.85  368969.55  47.50
915.0  777379.80  369126.25  47.48
916.2  777645.15  369256.77  47.48
917.3  778238.60  369546.00  47.48
918.5  778550.25  369767.74  47.49
919.7  778791.00  369786.85  47.48
920.8  779252.30  369867.68  47.46
922.0  779406.38  369769.00  47.44
923.2  779863.73  369984.22  47.44
924.4  780635.75  370250.71  47.43
925.5  781471.00  370584.41  47.42
926.7  782286.90  370939.66  47.42
927.9  783682.33  371593.53  47.42
929.0  786663.90  372936.96  47.41
930.2  791027.00  374743.95  47.37
931.4  796481.85  376999.66  47.33
932.5  800839.05  378973.51  47.32
933.7  803638.58  380346.15  47.33
934.9  804842.50  380896.50  47.33
936.0  804273.75  380405.07  47.30
937.2  801175.08  378743.34  47.27
938.3  797709.25  376670.27  47.22
939.5  795319.20  375479.08  47.21
940.7  795279.10  375261.87  47.19
941.8  798245.50  376617.15  47.18
943.0  800625.75  377437.86  47.14
944.2  802638.00  377962.97  47.09
945.3  802224.00  377448.52  47.05
946.5  800660.00  376486.50  47.02
947.6  801478.50  376713.49  47.00
948.8  800327.28  375968.73  46.98
949.9  800762.55  375805.10  46.93
951.1  801522.25  375409.32  46.84
952.2  800700.35  374756.80  46.80
953.4  800609.10  374347.54  46.76
954.5  799183.88  373226.18  46.70
955.7  799091.15  372618.55  46.63
956.8  799468.45  372376.42  46.58
958.0  799309.80  371527.74  46.48
959.1  798789.60  371005.92  46.45
960.3  798275.00  370726.79  46.44
961.4  799131.60  370674.54  46.38
962.6  798372.00  370221.33  46.37
963.7  799121.40  370254.64  46.33
964.9  799092.43  370114.34  46.32
966.0  799856.05  370156.80  46.28
967.2  800633.40  370316.76  46.25
968.3  802051.00  370905.43  46.24
969.5  802765.93  370944.39  46.21
970.6  802514.85  371045.01  46.24
971.8  802697.18  371003.67  46.22
972.9  803278.00  371303.40  46.22
974.0  805075.93  371493.54  46.14
975.2  803958.75  370845.00  46.13
976.3  805416.85  371061.85  46.07
977.5  803860.43  370988.88  46.15
978.6  804647.25  371229.18  46.14
979.7  804619.20  370881.28  46.09
980.9  805757.33  371096.23  46.06
982.0  806134.70  370805.23  46.00
983.2  806155.00  370905.60  46.01
984.3  804316.45  370089.88  46.01
985.4  804862.80  370021.72  45.97
986.6  804409.08  370625.09  46.07
987.7  804047.38  370062.38  46.02
988.9  805738.15  370302.66  45.96
990.0  806409.25  370335.26  45.92
993.1  831358.20  381912.95  45.94
996.9  832563.30  383202.75  46.03
1000.7  833073.68  384167.43  46.11
1004.5  832518.47  384544.86  46.19
1008.4  833600.08  385768.90  46.28
1012.2  835180.13  387134.37  46.35
1016.0  835726.68  387885.90  46.41
1019.8  835351.52  388146.80  46.47
1023.7  835045.11  388361.30  46.51
1027.5  833735.33  388194.66  46.56
1031.3  833043.90  388229.77  46.60
1035.1  832686.00  388335.36  46.64
1038.9  832384.80  388512.94  46.67
1042.7  832128.90  388620.77  46.70
1046.5  831411.00  388502.25  46.73
1050.3  829874.39  387903.31  46.74
1054.2  828012.08  387199.79  46.76
1058.0  827092.80  386802.00  46.77
1061.8  825921.58  386369.73  46.78
1065.6  824340.83  385625.57  46.78
1069.4  822642.45  384774.75  46.77
1073.2  821486.25  384088.37  46.76
1077.0  820327.20  383360.06  46.73
1080.8  819494.50  382667.22  46.70
1084.6  818409.17  381896.82  46.66
1088.4  817134.22  381133.36  46.64
1092.2  815583.77  380164.90  46.61
1096.0  814311.30  379273.60  46.58
1099.8  812936.63  378273.35  46.53
1103.6  811277.25  377115.38  46.48
1107.4  809946.03  376053.05  46.43
1111.2  808572.65  374962.83  46.37
1114.9  807372.00  373876.07  46.31
1118.7  806605.42  372782.86  46.22
1122.5  806345.69  371799.49  46.11
1126.3  803905.20  369539.55  45.97
1130.1  803294.80  367729.40  45.78
1133.9  800019.03  364150.98  45.52
1137.7  797524.40  360461.45  45.20
1141.4  794072.55  355866.57  44.82
1145.2  793368.97  352132.74  44.38
1149.0  791580.60  348108.91  43.98
1152.8  788388.10  343940.51  43.63
1156.6  785018.21  340463.22  43.37
1160.3  781930.20  337743.55  43.19
1164.1  777296.07  334937.49  43.09
1167.9  774199.17  333125.92  43.03
1171.7  771734.97  331788.11  42.99
1175.4  769683.42  330684.99  42.96
1179.2  767971.50  329724.00  42.93
1183.0  768311.38  329541.83  42.89
1186.7  768184.67  329153.00  42.85
1190.5  766413.00  328156.31  42.82
1194.3  763434.70  326714.85  42.80
1198.0  760597.40  325447.36  42.79
1201.8  758244.67  324511.00  42.80
1205.6  756629.33  324116.84  42.84
1209.3  755257.50  324058.66  42.91
1213.1  753547.17  323934.42  42.99
1216.8  751315.20  323725.69  43.09
1220.6  749005.50  323451.08  43.18
1224.3  746625.00  323095.54  43.27
1228.1  744585.27  322889.69  43.37
1231.9  742527.50  322481.53  43.43
1235.6  740235.38  321906.63  43.49
1239.4  738012.50  321406.74  43.55
1243.1  735977.70  320839.46  43.59
1246.9  734109.57  320219.90  43.62
1250.6  732213.97  319516.54  43.64
1254.3  730360.80  318843.26  43.66
1258.1  728543.33  318080.15  43.66
1261.8  726236.70  317057.10  43.66
1265.6  723934.20  315895.16  43.64
1269.3  721344.73  314573.30  43.61
1273.1  721609.77  314468.88  43.58
1276.8  722061.00  314348.11  43.53
1280.6  722029.92  313888.70  43.47
1284.3  719871.37  312420.54  43.40
1288.0  717904.63  310906.03  43.31
1291.8  715932.00  309282.30  43.20
1295.5  713833.68  307570.56  43.09
1299.2  711397.05  305583.11  42.96
1302.9  708654.93  303249.16  42.79
1306.7  705699.23  300618.34  42.60
1310.4  702829.23  297754.93  42.37
1314.1  700494.38  294944.47  42.11
1317.9  698184.61  291836.52  41.80
1321.6  695547.13  288330.91  41.45
1325.3  692818.65  284495.58  41.06
1329.0  690171.53  280557.20  40.65
1332.8  686393.75  275898.75  40.20
1336.5  682776.83  271305.63  39.74
1340.2  680701.10  267321.53  39.27
1343.9  679632.40  263711.75  38.80
1347.6  678560.15  260115.07  38.33
1351.4  677621.25  256673.31  37.88
1355.1  677933.94  253758.53  37.43
1358.8  676447.81  250028.00  36.96
1362.5  676012.69  246365.45  36.44
1366.2  673722.75  241492.14  35.84
1369.9  669885.00  235343.79  35.13
1373.6  665947.43  228164.93  34.26
1377.3  663237.37  219969.22  33.17
1381.0  660505.90  209906.81  31.78
1384.8  656895.20  197626.27  30.08
1388.4  652731.65  183989.64  28.19
1392.2  648623.10  169483.02  26.13
1395.9  646775.10  155378.57  24.02
1399.6  642967.87  141564.85  22.02
1403.3  640770.00  129495.86  20.21
1407.0  638661.38  119187.16  18.66
1410.7  637539.55  111009.16  17.41
1414.3  635757.00  104635.07  16.46
1418.1  633791.67  99960.94  15.77
1421.7  632071.53  96641.35  15.29
1425.4  630814.04  94461.51  14.97
1429.1  627469.50  92822.63  14.79
1432.8  626282.55  92131.14  14.71
1436.5  623041.25  91574.09  14.70
1440.2  619679.83  91366.29  14.74
1443.9  617438.00  91529.00  14.82
1447.6  613897.60  91663.54  14.93
1451.2  610970.80  91921.36  15.05
1454.9  609306.02  92460.30  15.17
1458.6  605654.26  92930.89  15.34
1462.3  604801.93  94103.09  15.56
1466.0  604783.21  95800.71  15.84
1469.7  603033.20  97628.30  16.19
1473.3  600913.13  99738.10  16.60
1477.0  596817.49  101777.52  17.05
1480.7  593747.96  104115.40  17.54
1484.4  590192.31  106383.99  18.03
1488.0  587110.57  108826.14  18.54
1491.7  583583.37  111124.87  19.04
1495.4  580200.27  113430.09  19.55
1499.0  577250.38  115725.89  20.05
1502.7  574474.41  118034.41  20.55
1506.4  571754.92  120252.28  21.03
1510.0  569037.08  122396.74  21.51
1513.7  566385.33  124450.61  21.97
1517.4  563909.50  126417.20  22.42
1521.0  561557.79  128346.04  22.86
1524.7  559090.90  130093.75  23.27
1528.3  556700.15  131783.63  23.67
1532.0  554184.70  133338.59  24.06
1535.7  551513.25  134704.69  24.42
1539.3  548972.33  136029.43  24.78
1543.0  547385.13  137511.94  25.12
1546.6  546026.83  138980.80  25.45
1550.3  544484.46  140301.88  25.77
1553.9  542176.67  141329.55  26.07
1557.6  539959.10  142313.63  26.36
1561.2  537502.87  143109.99  26.62
1564.9  534850.03  143817.09  26.89
1568.5  532202.67  144433.72  27.14
1572.2  529875.38  145074.48  27.38
1575.8  528098.35  145835.54  27.62
1579.5  526269.95  146509.29  27.84
1583.1  523982.55  147048.20  28.06
1586.8  521874.38  147558.90  28.27
1590.4  519790.70  148012.15  28.48
1594.0  517534.35  148365.37  28.67
1597.7  515363.17  148734.09  28.86
1601.3  512941.95  149020.77  29.05
1604.9  510239.40  149158.98  29.23
1608.6  507372.98  149182.52  29.40
1612.2  504749.38  149198.54  29.56
1615.8  502467.60  149248.93  29.70
1619.5  500354.39  149271.03  29.83
1623.1  497643.30  149078.62  29.96
1626.7  494853.72  148759.02  30.06
1630.3  492307.80  148490.36  30.16
1634.0  489965.99  148175.14  30.24
1637.6  487763.33  147827.86  30.31
1641.2  485602.37  147336.98  30.34
1644.8  483087.80  146597.64  30.35
1648.5  480482.10  145737.30  30.33
1652.1  478337.35  144887.34  30.29
1655.7  476474.26  144076.66  30.24
1659.3  474656.18  143319.04  30.19
1662.9  471502.45  142203.19  30.16
1666.6  467928.73  141014.72  30.14
1670.2  464650.45  139872.21  30.10
1673.8  461423.27  138700.79  30.06
1677.4  458910.08  137639.01  29.99
1681.0  457252.00  136671.73  29.89
1684.6  456333.63  135703.66  29.74
1688.2  454927.20  134308.20  29.52
1691.8  453263.57  132866.74  29.31
1695.4  452409.38  131680.51  29.11
1699.0  451637.95  130526.36  28.90
1702.6  451066.80  129374.83  28.68
1706.2  449573.27  127831.50  28.43
1709.8  447495.87  126121.57  28.18
1713.4  445915.60  124757.38  27.98
1717.0  444325.98  123628.69  27.82
1720.6  442625.43  122659.12  27.71
1724.2  441287.83  121820.62  27.61
1727.8  440014.00  121054.01  27.51
1731.4  439310.46  120441.09  27.42
1735.0  439227.75  119972.60  27.31
1738.6  438606.38  119197.05  27.18
1742.2  437647.23  118166.65  27.00
1745.8  435895.47  116840.23  26.80
1749.4  433464.88  115287.86  26.60
1753.0  429775.20  113373.94  26.38
1756.6  426006.00  111529.88  26.18
1760.1  422786.00  109928.40  26.00
1763.7  419047.28  108228.26  25.83
1767.3  416015.92  106771.57  25.67
1770.9  413447.67  105423.73  25.50
1774.5  410412.19  104032.33  25.35
1778.0  408262.25  102963.50  25.22
1781.6  406076.70  102074.35  25.14
1785.2  403500.87  101251.10  25.09
1788.8  400702.08  100522.28  25.09
1792.3  398432.74  99925.81  25.08
1795.9  397943.70  99784.76  25.08
1799.5  398150.14  99851.09  25.08
1803.1  398855.46  100065.61  25.09
1806.6  399632.05  100327.17  25.10
1810.2  400818.08  100682.44  25.12
1813.8  400241.40  100547.79  25.12
1817.3  399856.33  100396.91  25.11
1820.9  399093.75  100097.55  25.08
1824.5  398206.29  99690.77  25.03
1828.0  398735.93  99566.55  24.97
1831.6  399433.53  99391.63  24.88
1835.2  398760.53  98734.92  24.76
1838.7  399079.92  98088.00  24.58
1842.3  397509.00  96789.75  24.35
1845.8  396272.43  95260.97  24.04
1849.4  395822.70  93563.30  23.64
1852.9  394326.04  91160.94  23.12
1856.5  392925.00  88249.09  22.46
1860.0  392711.95  84980.08  21.64
1863.6  391917.08  80904.51  20.64
1867.1  391463.18  76197.35  19.46
1870.7  391968.24  70692.62  18.04
1874.2  391143.66  64080.42  16.38
1877.8  388280.92  56868.04  14.65
1881.3  385502.08  49568.96  12.86
1884.9  383370.55  42728.08  11.15
1888.4  381512.42  36435.59  9.55
1891.9  380066.58  31158.54  8.20
1895.5  378688.10  27008.13  7.13
1899.0  377950.95  24047.05  6.36
1901.3  387247.20  16906.67  4.37
1904.1  387346.33  15344.08  3.96
1906.8  386028.63  14085.35  3.65
1909.6  382883.27  13221.50  3.45
1912.4  379745.72  12549.15  3.30
1915.1  376470.90  12054.72  3.20
1917.9  373204.35  11715.23  3.14
1920.6  370854.53  11543.72  3.11
1923.3  369018.27  11439.04  3.10
1926.1  366494.55  11310.68  3.09
1928.8  363620.40  11272.30  3.10
1931.6  363165.05  11365.92  3.13
1934.3  360139.97  11436.35  3.18
1937.0  356927.40  11547.90  3.24
1939.8  354221.25  11700.64  3.30
1942.5  350300.58  11819.96  3.37
1945.2  347089.00  11969.42  3.45
1947.9  344643.43  12182.85  3.53
1950.7  340712.43  12377.08  3.63
1953.4  337374.40  12647.14  3.75
1956.1  334793.10  12929.40  3.86
1958.8  332685.50  13262.96  3.99
1961.5  329836.15  13589.28  4.12
1964.2  326573.40  13916.30  4.26
1966.9  323647.20  14262.14  4.41
1969.6  320978.70  14655.70  4.57
1972.3  318483.80  15067.92  4.73
1975.0  316034.67  15489.67  4.90
1977.7  313888.75  15926.38  5.07
1980.4  311737.07  16406.13  5.26
1983.1  309421.97  16857.50  5.45
1985.8  307305.60  17329.80  5.64
1988.4  305351.75  17846.95  5.84
1991.1  303627.10  18361.35  6.05
1993.8  302165.50  18889.15  6.25
1996.5  300643.00  19416.95  6.46
1999.1  299244.18  19950.97  6.67
2001.8  298045.10  20495.44  6.88
2004.5  296852.20  21043.05  7.09
2007.1  295334.00  21541.17  7.29
2009.8  293407.92  21988.75  7.49
2012.4  292093.17  22493.01  7.70
2015.1  290929.80  22987.50  7.90
2017.8  289757.23  23432.94  8.09
2020.4  288631.30  23875.38  8.27
2023.1  288156.58  24353.29  8.45
2025.7  287891.13  24843.09  8.63
2028.3  287066.47  25265.73  8.80
2031.0  286464.17  25657.68  8.96
2033.6  286184.00  26062.00  9.11
2036.2  285770.10  26435.97  9.25
2038.9  284793.60  26717.60  9.38
2041.5  283895.83  27000.00  9.51
2044.1  283083.33  27260.42  9.63
2046.8  281961.75  27467.59  9.74
2049.4  281136.60  27700.50  9.85
2052.0  280924.87  27981.28  9.96
2054.6  280523.73  28218.80  10.06
2057.2  279480.85  28417.50  10.17
2059.8  278040.00  28591.50  10.28
2062.4  276642.38  28719.28  10.38
2065.0  275291.90  28870.08  10.49
2067.6  273433.33  28973.42  10.60
2070.2  271939.97  29099.62  10.70
2072.8  271068.42  29274.21  10.80
2075.4  270065.50  29432.25  10.90
2078.0  269442.67  29608.85  10.99
2080.6  268173.03  29742.40  11.09
2083.2  266884.67  29843.34  11.18
2085.8  265594.00  29943.38  11.27
2088.4  264525.90  30048.03  11.36
2090.9  262880.50  30100.00  11.45
2093.5  260994.40  30099.10  11.53
2096.1  259223.25  30094.35  11.61
2098.7  257778.52  30141.12  11.69
2101.2  255879.80  30131.20  11.78
2103.8  254430.00  30176.09  11.86
2106.4  252999.07  30221.00  11.95
2108.9  251978.02  30312.99  12.03
2111.5  251035.75  30378.54  12.10
2114.0  250466.67  30485.00  12.17
2116.6  248329.03  30427.28  12.25
2119.1  247249.80  30466.80  12.32
2121.7  246701.33  30544.49  12.38
2124.2  246563.83  30697.67  12.45
2126.8  245422.95  30708.05  12.51
2129.3  244344.75  30721.71  12.57
2131.9  244506.93  30876.00  12.63
2134.4  243668.25  30940.41  12.70
2136.9  243401.67  31036.52  12.75
2139.4  242346.58  31024.67  12.80
2142.0  241920.67  31105.69  12.86
2144.5  241393.25  31198.88  12.92
2147.0  240942.37  31291.66  12.99
2149.5  240529.83  31383.85  13.05
2152.1  240851.43  31556.20  13.10
2154.6  240885.60  31656.40  13.14
2157.1  240793.50  31802.04  13.21
2159.6  239718.63  31778.67  13.26
2162.1  239558.97  31892.77  13.31
2164.6  238835.27  31912.12  13.36
2167.1  237869.50  31905.00  13.41
2169.6  237976.13  32045.33  13.47
2172.1  237159.70  32073.80  13.52
2174.6  236824.47  32144.59  13.57
2177.1  235727.67  32091.04  13.61
2179.5  235257.20  32157.64  13.67
2182.0  234937.17  32266.63  13.73
2184.5  233986.05  32258.70  13.79
2187.0  233227.70  32283.35  13.84
2189.5  232220.08  32278.47  13.90
2191.9  230997.98  32224.68  13.95
2194.4  229371.00  32130.63  14.01
2196.9  228305.18  32109.00  14.06
2199.3  226879.60  31996.50  14.10
2201.8  225772.63  31922.45  14.14
2204.3  225101.70  31954.50  14.20
2206.7  223872.80  31872.25  14.24
2209.2  222648.30  31753.80  14.26
2211.6  220715.87  31508.07  14.28
2214.1  220091.90  31485.60  14.31
2216.5  219735.77  31469.36  14.32
2219.0  218389.23  31303.62  14.33
2221.4  218424.75  31320.53  14.34
2223.9  217297.60  31138.47  14.33
2226.3  216088.23  30862.07  14.28
2228.7  215148.27  30654.87  14.25
2231.1  214509.50  30466.57  14.20
2233.6  213492.80  30137.60  14.12
2236.0  212453.30  29815.86  14.03
2238.4  211609.53  29493.29  13.94
2240.9  210897.80  29167.30  13.83
2243.3  210082.60  28747.57  13.68
2245.7  209294.87  28351.80  13.55
2248.1  208332.80  27913.60  13.40
2250.5  207523.07  27490.47  13.25
2252.9  206841.47  27029.79  13.07
2255.3  206073.03  26547.57  12.88
2257.7  205228.10  26129.95  12.73
2260.1  204366.40  25659.40  12.56
2262.5  203287.20  25190.80  12.39
2264.9  202360.03  24722.79  12.22
2267.3  201458.40  24281.40  12.05
2269.7  200532.43  23919.49  11.93
2272.1  199757.33  23556.83  11.79
2274.5  198977.93  23194.37  11.66
2276.8  198292.80  22904.54  11.55
2279.2  197511.30  22590.30  11.44
2281.6  196961.60  22323.10  11.33
2284.0  196673.40  22037.40  11.21
2286.3  196153.13  21731.60  11.08
2288.7  195588.00  21430.17  10.96
2291.1  195047.50  21182.25  10.86
2293.4  194300.30  20860.65  10.74
2295.8  193583.87  20572.93  10.63
2298.2  192870.60  20266.75  10.51
2300.5  191750.65  19923.58  10.39
2302.9  190404.25  19592.55  10.29
2305.2  189026.25  19234.25  10.18
2307.6  187575.73  18928.94  10.09
2309.9  186561.12  18697.73  10.02
2312.2  185601.67  18511.92  9.97
2314.6  184587.10  18319.53  9.92
2316.9  183513.17  18107.07  9.87
2319.2  182788.83  17885.09  9.78
2321.6  182174.78  17684.30  9.71
2323.9  181362.00  17451.50  9.62
2326.2  180521.50  17245.35  9.55
2328.6  179777.35  17060.40  9.49
2330.9  179488.80  16927.74  9.43
2333.2  179066.75  16749.50  9.35
2335.5  178490.43  16598.83  9.30
2337.8  178033.40  16450.10  9.24
2340.1  177448.00  16230.00  9.15
2342.4  177001.20  16074.45  9.08
2344.8  176339.22  15896.72  9.01
2347.1  175608.40  15703.30  8.94
2349.4  175007.20  15527.27  8.87
2351.6  174230.00  15352.00  8.81
2353.9  173198.80  15146.30  8.75
2356.2  172444.03  14963.99  8.68
2358.5  171668.17  14809.82  8.63
2360.8  170960.42  14626.04  8.56
2363.1  170524.00  14489.75  8.50
2365.4  170059.50  14337.00  8.43
2367.7  169510.47  14191.00  8.37
2369.9  168797.20  14004.01  8.30
2372.2  167674.15  13801.55  8.23
2374.5  166472.50  13557.50  8.14
2376.7  165590.20  13382.55  8.08
2379.0  164414.80  13208.80  8.03
2381.3  162998.00  12947.83  7.94
2383.5  161994.00  12745.84  7.87
2385.8  161385.58  12531.75  7.77
2388.0  160552.63  12317.05  7.67
2390.3  159792.08  12070.63  7.55
2392.5  159329.00  11869.92  7.45
2394.8  158357.33  11657.92  7.36
2397.0  157877.33  11503.87  7.29
2399.3  157306.12  11350.99  7.22
2401.5  156527.50  11141.80  7.12
2403.8  155903.87  10982.32  7.04
2406.0  155397.37  10779.45  6.94
2408.2  154555.80  10521.53  6.81
2410.4  153688.23  10363.34  6.74
2412.7  153276.40  10204.40  6.66
2414.9  152662.27  9960.87  6.52
2417.1  152684.27  9840.14  6.44
2419.3  152257.67  9646.65  6.34
2421.6  151350.73  9508.22  6.28
2423.8  150668.10  9300.50  6.17
2426.0  150329.80  9132.45  6.07
2428.2  149976.75  9009.00  6.01
2430.4  149961.35  8822.99  5.88
2432.6  149929.70  8685.50  5.79
2434.8  149366.25  8509.35  5.70
2437.0  148778.50  8340.15  5.61
2439.2  148286.23  8148.62  5.50
2441.4  147580.00  7944.20  5.38
2443.6  147481.47  7816.14  5.30
2445.7  147409.37  7698.55  5.22
2447.9  147318.60  7549.75  5.12
2450.1  146616.50  7390.75  5.04
2452.3  145668.42  7232.96  4.97
2454.5  145055.87  7051.80  4.86
2456.6  144384.17  6908.34  4.78
2458.8  143238.67  6744.74  4.71
2461.0  142820.60  6639.54  4.65
2463.1  142517.33  6465.00  4.54
2465.3  141990.67  6358.34  4.48
2467.5  141587.33  6224.84  4.40
2469.6  141143.00  6180.63  4.38
2471.8  140661.67  6082.67  4.32
2473.9  140065.25  5961.05  4.26
2476.1  139315.00  5843.75  4.19
2478.2  138422.32  5711.79  4.13
2480.4  137683.75  5627.08  4.09
2482.5  136837.15  5590.15  4.09
2484.6  135874.00  5494.00  4.04
2486.8  135095.23  5355.65  3.96
2488.9  134467.40  5304.60  3.94
2491.1  133142.77  5182.97  3.89
2493.2  131889.10  5032.95  3.82
2495.3  130398.63  4905.14  3.76
2497.4  128999.57  4857.18  3.77
2499.5  128341.07  4830.52  3.76
2501.7  128329.00  4796.50  3.74
2503.8  128575.07  4770.62  3.71
2505.9  129103.90  4767.50  3.69
2508.0  129910.00  4822.42  3.71
2510.1  130722.30  4751.70  3.63
2512.2  131558.50  4780.17  3.63
2514.3  132665.87  4845.75  3.65
2516.4  134156.03  5039.25  3.76
