/*** Spectra Vista SIG Data ***/
name= 27_20220825_ACRU_32_avg.sig
comm= Averaged Ref/Tar of files: HR.082522.0002_moc.sig,HR.082522.0003_moc.sig,HR.082522.0004_moc.sig
data=
337.3  3424.13  290.19  8.47
338.8  3559.40  281.27  7.90
340.3  3748.00  278.42  7.43
341.8  3932.35  265.64  6.76
343.2  4129.20  252.02  6.10
344.7  4307.65  247.78  5.75
346.2  4493.50  253.66  5.65
347.7  4679.68  254.68  5.44
349.2  4914.00  248.40  5.05
350.6  5178.23  246.23  4.76
352.1  5465.93  246.33  4.51
353.6  5760.20  242.57  4.21
355.1  6027.83  239.89  3.98
356.6  6358.35  254.08  4.00
358.0  6635.20  248.52  3.75
359.5  6952.50  247.79  3.56
361.0  7271.78  257.64  3.54
362.5  7640.78  271.00  3.55
364.0  8029.00  273.10  3.40
365.4  8401.90  285.28  3.40
366.9  8757.13  294.14  3.36
368.4  9137.13  297.69  3.26
369.9  9539.83  310.92  3.26
371.3  9959.10  312.26  3.14
372.8  10407.60  329.73  3.17
374.3  10857.50  336.32  3.10
375.8  11292.05  347.01  3.07
377.2  11728.40  341.25  2.91
378.7  12158.80  350.98  2.89
380.2  12589.20  354.57  2.82
381.7  13107.13  364.97  2.78
383.1  13609.75  371.14  2.73
384.6  14161.88  381.25  2.69
386.1  14674.58  391.73  2.67
387.6  15145.90  397.83  2.63
389.0  15651.20  411.44  2.63
390.5  16168.95  416.20  2.57
392.0  16769.30  427.73  2.55
393.4  17367.78  437.92  2.52
394.9  17930.70  444.45  2.48
396.4  18526.50  450.96  2.43
397.9  19065.00  461.74  2.42
399.3  19652.20  473.70  2.41
400.8  20239.10  484.26  2.39
402.2  20941.15  494.74  2.36
403.7  21547.13  499.38  2.32
405.2  22207.15  516.79  2.33
406.6  22782.40  526.31  2.31
408.1  23413.60  538.10  2.30
409.6  24035.25  553.56  2.30
411.0  24766.00  562.42  2.27
412.5  25448.15  577.94  2.27
414.0  26120.75  587.58  2.25
415.4  26871.00  609.88  2.27
416.9  27563.25  623.78  2.26
418.4  28311.30  637.44  2.25
419.8  29047.20  657.63  2.26
421.3  29821.23  677.69  2.27
422.7  30641.40  696.33  2.27
424.2  31438.13  714.21  2.27
425.7  32241.40  730.55  2.27
427.1  33042.60  747.24  2.26
428.6  33867.50  771.16  2.28
430.0  34629.35  795.46  2.30
431.5  35551.35  820.16  2.31
432.9  36463.85  841.61  2.31
434.4  37402.58  860.59  2.30
435.9  38262.00  879.73  2.30
437.3  39160.00  898.86  2.30
438.8  40019.10  923.62  2.31
440.2  40937.05  950.44  2.32
441.7  41942.00  975.01  2.32
443.1  42890.25  1000.69  2.33
444.6  43911.20  1025.04  2.33
446.0  44880.53  1053.32  2.35
447.5  45883.75  1079.05  2.35
448.9  46865.70  1106.21  2.36
450.4  47915.00  1133.93  2.37
451.8  48828.00  1160.10  2.38
453.3  49789.60  1185.72  2.38
454.7  50855.50  1213.86  2.39
456.2  51762.65  1237.10  2.39
457.6  52781.40  1263.27  2.39
459.1  53806.35  1291.64  2.40
460.5  54784.00  1314.06  2.40
462.0  55898.83  1340.39  2.40
463.4  56992.00  1372.09  2.41
464.8  58025.25  1400.45  2.41
466.3  59059.28  1425.74  2.41
467.7  60086.18  1448.79  2.41
469.2  61212.18  1478.01  2.41
470.6  62227.45  1502.15  2.41
472.0  63323.43  1534.85  2.42
473.5  64381.75  1562.90  2.43
474.9  65464.50  1591.66  2.43
476.4  66686.40  1625.97  2.44
477.8  67802.00  1656.31  2.44
479.2  68875.00  1692.50  2.46
480.7  70030.05  1725.14  2.46
482.1  71209.60  1759.60  2.47
483.6  72466.75  1797.03  2.48
485.0  73619.85  1836.26  2.49
486.4  74874.30  1878.20  2.51
487.9  76006.13  1923.26  2.53
489.3  77232.63  1970.06  2.55
490.7  78366.45  2021.11  2.58
492.2  79659.30  2079.84  2.61
493.6  80824.05  2139.46  2.65
495.0  81987.75  2207.12  2.69
496.5  83221.93  2285.11  2.75
497.9  84366.58  2364.77  2.80
499.3  85599.28  2459.81  2.87
500.7  86903.80  2570.03  2.96
502.2  88125.60  2697.80  3.06
503.6  89439.60  2846.03  3.18
505.0  90566.30  3007.30  3.32
506.5  91930.05  3202.66  3.48
507.9  93175.13  3428.39  3.68
509.3  94616.40  3689.85  3.90
510.7  95940.00  3986.36  4.16
512.2  97402.28  4330.09  4.45
513.6  98943.25  4714.45  4.76
515.0  100442.73  5141.32  5.12
516.4  101875.73  5597.64  5.49
517.8  103564.50  6107.65  5.90
519.3  104929.13  6619.81  6.31
520.7  106555.20  7170.85  6.73
522.1  107914.95  7708.08  7.14
523.5  109337.40  8247.33  7.54
524.9  110818.80  8773.35  7.92
526.3  112245.70  9264.91  8.25
527.8  113840.10  9752.91  8.57
529.2  115117.40  10196.99  8.86
530.6  116712.65  10642.08  9.12
532.0  118468.00  11059.20  9.34
533.4  119840.10  11397.05  9.51
534.8  120770.70  11662.94  9.66
536.3  122485.50  11982.75  9.78
537.7  124563.60  12318.24  9.89
539.1  126072.43  12589.11  9.99
540.5  127308.25  12830.84  10.08
541.9  129159.98  13131.48  10.17
543.3  130473.40  13384.01  10.26
544.7  131863.80  13645.47  10.35
546.1  133732.78  13954.80  10.43
547.5  134993.60  14198.83  10.52
549.0  136807.00  14482.50  10.59
550.4  138337.50  14717.75  10.64
551.8  139940.40  14929.26  10.67
553.2  141527.73  15096.77  10.67
554.6  142937.60  15192.72  10.63
556.0  144527.40  15253.53  10.55
557.4  146191.68  15263.69  10.44
558.8  147870.45  15223.37  10.30
560.2  149368.88  15109.95  10.12
561.6  151089.53  14962.95  9.90
563.0  152735.98  14759.97  9.66
564.4  154378.15  14518.61  9.40
565.8  155953.75  14231.43  9.13
567.2  157767.00  13937.94  8.83
568.6  159307.88  13607.01  8.54
570.0  160794.73  13257.59  8.25
571.4  162567.60  12939.66  7.96
572.8  164383.00  12642.87  7.69
574.2  166073.60  12358.40  7.44
575.6  167670.00  12098.57  7.22
577.0  169240.10  11869.95  7.01
578.4  171023.13  11682.45  6.83
579.8  172584.00  11507.35  6.67
581.2  174354.23  11372.16  6.52
582.5  175815.90  11238.02  6.39
583.9  177377.60  11130.21  6.27
585.3  179244.68  11060.49  6.17
586.7  180771.83  10983.75  6.08
588.1  182299.38  10931.44  6.00
589.5  183995.00  10899.70  5.92
590.9  185665.20  10884.37  5.86
592.3  187534.65  10890.05  5.81
593.7  189034.95  10879.98  5.76
595.0  190707.75  10880.24  5.71
596.4  192203.90  10863.45  5.65
597.8  193719.20  10836.06  5.59
599.2  195320.40  10795.84  5.53
600.6  197130.05  10749.59  5.45
602.0  198461.78  10653.57  5.37
603.3  200309.65  10571.32  5.28
604.7  202034.45  10459.16  5.18
606.1  203563.80  10322.40  5.07
607.5  205240.58  10184.08  4.96
608.9  207012.70  10040.80  4.85
610.2  208415.03  9884.16  4.74
611.6  210076.13  9743.18  4.64
613.0  211663.60  9600.86  4.54
614.4  213070.20  9466.92  4.44
615.8  214563.38  9341.06  4.35
617.1  216163.50  9240.28  4.27
618.5  217841.20  9168.95  4.21
619.9  219397.50  9115.91  4.15
621.3  221059.80  9092.95  4.11
622.6  222695.75  9078.54  4.08
624.0  224179.50  9081.66  4.05
625.4  225704.33  9096.87  4.03
626.8  227313.45  9138.22  4.02
628.1  228658.93  9172.84  4.01
629.5  230556.80  9242.04  4.01
630.9  232199.55  9288.24  4.00
632.2  233592.98  9301.01  3.98
633.6  235246.13  9301.97  3.95
635.0  236809.60  9249.34  3.91
636.3  238394.00  9166.69  3.85
637.7  239792.38  9034.67  3.77
639.1  241482.50  8880.33  3.68
640.4  242995.90  8697.78  3.58
641.8  244238.15  8483.34  3.47
643.2  245879.03  8295.28  3.37
644.5  247269.25  8098.13  3.28
645.9  249019.65  7935.61  3.19
647.2  250645.50  7808.03  3.12
648.6  252497.25  7714.29  3.06
650.0  254016.00  7632.00  3.00
651.3  254635.70  7559.64  2.97
652.7  256108.55  7509.03  2.93
654.0  258243.30  7491.57  2.90
655.4  259748.88  7459.35  2.87
656.8  259960.40  7390.26  2.84
658.1  261140.80  7346.15  2.81
659.5  263630.85  7337.09  2.78
660.8  265432.50  7308.43  2.75
662.2  266336.00  7266.56  2.73
663.5  268059.30  7257.18  2.71
664.9  269332.70  7262.27  2.70
666.2  270129.60  7273.57  2.69
667.6  271985.48  7338.33  2.70
668.9  273093.10  7419.09  2.72
670.3  274384.63  7511.18  2.74
671.6  275920.88  7633.76  2.77
673.0  277137.75  7782.94  2.81
674.3  278393.70  7947.58  2.85
675.7  279734.40  8134.95  2.91
677.0  280884.83  8348.52  2.97
678.4  282316.45  8604.01  3.05
679.7  283461.75  8888.45  3.14
681.1  284789.58  9234.92  3.24
682.4  285974.00  9631.81  3.37
683.8  287255.80  10103.28  3.52
685.1  288244.50  10702.18  3.71
686.4  289599.00  11472.11  3.96
687.8  290896.50  12448.98  4.28
689.1  292009.00  13694.98  4.69
690.5  293410.80  15304.43  5.22
691.8  294265.18  17328.01  5.89
693.1  295673.10  19878.93  6.72
694.5  296864.75  22894.73  7.71
695.8  298116.00  26371.80  8.85
697.1  299344.50  30282.63  10.12
698.5  300434.50  34574.48  11.51
699.8  301577.50  39204.86  13.00
701.1  302779.28  44096.61  14.56
702.5  303590.65  49095.86  16.17
703.8  304582.50  54201.86  17.80
705.1  305787.30  59356.63  19.41
706.5  306850.75  64443.84  21.00
707.8  307871.25  69460.39  22.56
709.1  308777.08  74360.96  24.08
710.5  309982.63  79233.76  25.56
711.8  310862.00  83918.51  27.00
713.1  311910.10  88556.49  28.39
714.4  312846.70  93055.99  29.74
715.8  313694.10  97432.31  31.06
717.1  315090.30  101843.63  32.32
718.4  316086.40  106018.99  33.54
719.7  317212.15  110123.22  34.72
721.0  317767.50  113900.57  35.84
722.4  318563.85  117626.81  36.92
723.7  319546.20  121303.05  37.96
725.0  320627.03  124855.05  38.94
726.3  321627.08  128230.85  39.87
727.6  322197.70  131288.53  40.75
729.0  323173.73  134344.87  41.57
730.3  324007.80  137188.65  42.34
731.6  324910.25  139941.53  43.07
732.9  325733.63  142492.21  43.75
734.2  326572.13  144913.42  44.37
735.5  327632.68  147290.25  44.96
736.8  328458.30  149403.90  45.49
738.1  329342.00  151412.19  45.97
739.5  330327.20  153343.18  46.42
740.8  331048.85  155019.52  46.83
742.1  331811.58  156620.94  47.20
743.4  332550.00  158102.38  47.54
744.7  333593.93  159598.47  47.84
746.0  334493.25  160954.63  48.12
747.3  335117.73  162049.23  48.36
748.6  335883.00  163156.41  48.58
749.9  336648.00  164161.03  48.76
751.2  337413.45  165085.70  48.93
752.5  338328.70  166040.55  49.08
753.8  338948.93  166789.11  49.21
755.1  339664.00  167517.75  49.32
756.4  340246.53  168144.83  49.42
757.7  341295.68  168929.74  49.50
759.0  343127.90  170092.35  49.57
760.3  344361.60  170909.58  49.63
761.6  345986.20  171896.80  49.68
762.9  346546.25  172321.46  49.73
764.2  346956.20  172642.66  49.76
765.5  347244.23  172887.93  49.79
766.8  347697.60  173194.06  49.81
768.1  348226.60  173539.07  49.84
769.3  348887.70  173902.17  49.84
770.6  349542.70  174289.28  49.86
771.9  350327.95  174704.32  49.87
773.2  350740.00  174933.72  49.88
774.5  351379.60  175276.05  49.88
775.8  352085.40  175641.55  49.89
777.1  352656.70  175962.17  49.90
778.4  353011.73  176152.62  49.90
779.6  353816.68  176571.03  49.90
780.9  354330.00  176830.29  49.91
782.2  354832.50  177089.84  49.91
783.5  355142.00  177256.12  49.91
784.8  355689.68  177541.43  49.91
786.0  356137.95  177747.83  49.91
787.3  356517.33  177968.04  49.92
788.6  356981.03  178198.78  49.92
789.9  357452.20  178443.81  49.92
791.2  358129.55  178785.87  49.92
792.4  358833.95  179129.62  49.92
793.7  359350.60  179379.63  49.92
795.0  360033.30  179718.35  49.92
796.2  360697.28  180069.13  49.92
797.5  361452.53  180447.64  49.92
798.8  362183.45  180792.82  49.92
800.0  362886.10  181141.34  49.92
801.3  363382.60  181386.34  49.92
802.6  364036.05  181701.92  49.91
803.8  364649.58  182035.71  49.92
805.1  365150.63  182283.45  49.92
806.4  365683.80  182531.66  49.92
807.7  366243.53  182808.28  49.91
808.9  366870.05  183094.68  49.91
810.2  367419.50  183362.09  49.91
811.4  367917.50  183621.34  49.91
812.7  368550.00  183952.32  49.91
814.0  369403.55  184388.06  49.92
815.2  370113.75  184705.18  49.90
816.5  370540.38  184922.12  49.91
817.7  371081.00  185165.05  49.90
819.0  371584.40  185439.63  49.91
820.2  371756.00  185524.95  49.91
821.5  372514.95  185895.38  49.90
822.7  372930.18  186081.97  49.90
824.0  373212.90  186243.84  49.90
825.2  373764.38  186504.04  49.90
826.5  374087.08  186657.91  49.90
827.7  374691.05  186926.11  49.89
829.0  375133.78  187132.77  49.88
830.2  375473.85  187292.11  49.88
831.5  376024.70  187538.07  49.87
832.7  376335.75  187694.03  49.87
834.0  376713.18  187871.11  49.87
835.2  377129.50  188055.51  49.86
836.4  377397.90  188227.95  49.88
837.7  377828.20  188433.27  49.87
838.9  378310.18  188676.46  49.87
840.1  378785.03  188888.55  49.87
841.4  379238.50  189115.01  49.87
842.6  379630.40  189310.96  49.87
843.8  380021.00  189493.42  49.86
845.1  380552.20  189775.30  49.87
846.3  380973.90  189989.26  49.87
847.5  381416.70  190216.80  49.87
848.8  381862.20  190406.39  49.86
850.0  382290.30  190594.43  49.86
851.2  382920.75  190880.56  49.85
852.5  383292.30  191092.25  49.86
853.7  383800.50  191357.74  49.86
854.9  384305.40  191595.57  49.86
856.1  384828.60  191817.49  49.84
857.4  385042.53  191905.99  49.84
858.6  385607.05  192144.16  49.83
859.8  386002.50  192360.36  49.83
861.0  386521.20  192612.75  49.83
862.2  387003.38  192866.41  49.84
863.5  387424.05  193060.13  49.83
864.7  388047.00  193295.77  49.81
865.9  388506.20  193500.58  49.81
867.1  388842.60  193634.60  49.80
868.3  389294.85  193882.89  49.80
869.5  389824.45  194129.43  49.80
870.8  390379.50  194436.77  49.81
872.0  391032.53  194685.20  49.79
873.2  391453.35  194886.75  49.79
874.4  391952.93  195092.32  49.77
875.6  392413.23  195301.36  49.77
876.8  392926.80  195541.69  49.77
878.0  393471.35  195792.03  49.76
879.2  393992.55  196056.82  49.76
880.4  394542.75  196321.24  49.76
881.6  395134.40  196541.02  49.74
882.8  395643.20  196716.95  49.72
884.0  396340.35  197024.91  49.71
885.2  396930.20  197278.23  49.70
886.5  397603.75  197563.48  49.69
887.7  398090.55  197820.08  49.69
888.8  398689.20  198124.12  49.69
890.0  399384.00  198404.74  49.68
891.2  400099.00  198656.49  49.65
892.4  400815.45  198957.01  49.64
893.6  401394.10  199235.28  49.64
894.8  402339.00  199691.15  49.63
896.0  403252.75  200108.80  49.62
897.2  404108.25  200513.61  49.62
898.4  405005.70  200907.46  49.61
899.6  405631.88  201145.53  49.59
900.8  406097.10  201339.66  49.58
902.0  406303.05  201432.69  49.58
903.2  406643.18  201534.03  49.56
904.3  407149.80  201722.07  49.54
905.5  407755.20  202021.07  49.54
906.7  408373.00  202313.21  49.54
907.9  409012.80  202558.72  49.52
909.1  409296.38  202710.28  49.53
910.2  409513.65  202786.46  49.52
911.4  409783.73  202890.26  49.51
912.6  410109.70  202937.56  49.48
913.8  410339.25  203051.33  49.48
915.0  410960.55  203252.00  49.46
916.2  411177.00  203328.73  49.45
917.3  411120.00  203281.71  49.45
918.5  411506.30  203379.75  49.42
919.7  411751.50  203456.48  49.41
920.8  411845.40  203431.97  49.40
922.0  412065.50  203459.67  49.38
923.2  412230.00  203538.40  49.37
924.4  412495.88  203608.93  49.36
925.5  412902.90  203630.08  49.32
926.7  413599.38  203897.27  49.30
927.9  414279.00  204268.85  49.31
929.0  415993.05  204919.69  49.26
930.2  418328.70  205957.21  49.23
931.4  420909.08  207145.61  49.21
932.5  423624.30  208444.09  49.20
933.7  425079.10  209052.61  49.18
934.9  425731.25  209321.33  49.17
936.0  425576.13  208970.20  49.10
937.2  423386.55  207805.20  49.08
938.3  421719.45  206855.29  49.05
939.5  420123.60  206030.81  49.04
940.7  420467.40  206057.35  49.01
941.8  421897.13  206747.55  49.00
943.0  423388.50  207335.91  48.97
944.2  424478.60  207598.25  48.91
945.3  424037.25  207236.53  48.87
946.5  423150.75  206729.54  48.85
947.6  423544.70  206638.89  48.79
948.8  423556.58  206446.30  48.74
949.9  423620.40  206382.64  48.72
951.1  423107.75  205910.53  48.67
952.2  423096.00  205600.91  48.59
953.4  422997.25  205173.55  48.50
954.5  422884.80  204955.92  48.47
955.7  422830.80  204726.24  48.42
956.8  422726.00  204369.45  48.35
958.0  422400.50  203995.17  48.29
959.1  422105.75  203677.04  48.25
960.3  422004.13  203359.23  48.19
961.4  421955.45  203138.17  48.14
962.6  421960.00  203129.90  48.14
963.7  421959.00  202923.49  48.09
964.9  421722.00  202799.51  48.09
966.0  421509.83  202634.31  48.07
967.2  421583.40  202570.35  48.05
968.3  421406.55  202416.76  48.03
969.5  421599.10  202401.65  48.01
970.6  421538.50  202387.98  48.01
971.8  421590.40  202456.93  48.02
972.9  421503.75  202327.75  48.00
974.0  422040.50  202405.63  47.96
975.2  421971.63  202361.85  47.96
976.3  421983.93  202406.14  47.97
977.5  422421.48  202485.70  47.93
978.6  422505.60  202427.74  47.91
979.7  422601.38  202573.60  47.93
980.9  422516.73  202589.87  47.95
982.0  422356.00  202566.33  47.96
983.2  422534.98  202520.94  47.93
984.3  422532.60  202407.54  47.90
985.4  422359.75  202457.17  47.93
986.6  422518.00  202333.72  47.89
987.7  423294.03  203022.11  47.96
988.9  423291.60  202959.36  47.95
990.0  424249.10  203340.17  47.93
993.1  376775.70  179059.77  47.52
996.9  377335.98  179722.31  47.63
1000.7  378286.94  180592.06  47.74
1004.5  378840.75  181196.47  47.83
1008.4  378724.29  181470.66  47.92
1012.2  378907.33  181855.81  47.99
1016.0  379045.20  182226.07  48.08
1019.8  379267.35  182593.31  48.14
1023.7  379226.96  182794.52  48.20
1027.5  378784.47  182804.51  48.26
1031.3  378845.03  182990.39  48.30
1035.1  378555.28  182988.61  48.34
1038.9  378474.62  183025.32  48.36
1042.7  378302.50  183036.33  48.38
1046.5  378151.33  183006.89  48.40
1050.3  378163.02  183051.91  48.41
1054.2  377894.42  182956.00  48.41
1058.0  377403.72  182709.40  48.41
1061.8  377295.17  182647.82  48.41
1065.6  376948.37  182430.09  48.40
1069.4  376845.33  182345.36  48.39
1073.2  376334.59  182031.08  48.37
1077.0  375882.98  181720.35  48.34
1080.8  375519.79  181401.04  48.31
1084.6  374596.02  180817.01  48.27
1088.4  374034.43  180418.04  48.24
1092.2  373230.00  179858.72  48.19
1096.0  372586.93  179373.23  48.14
1099.8  372048.73  178921.33  48.09
1103.6  371332.90  178365.22  48.03
1107.4  370323.93  177650.25  47.97
1111.2  370072.00  177262.85  47.90
1114.9  369412.17  176633.83  47.81
1118.7  368817.08  175978.08  47.71
1122.5  368153.93  175217.15  47.59
1126.3  367031.93  174197.82  47.46
1130.1  366527.47  173308.63  47.28
1133.9  364879.20  171687.81  47.05
1137.7  363423.70  169939.82  46.76
1141.4  361612.12  167822.23  46.41
1145.2  360840.00  166040.10  46.01
1149.0  359727.08  164131.46  45.63
1152.8  358037.20  162157.04  45.29
1156.6  356289.27  160449.30  45.03
1160.3  354512.33  159030.31  44.86
1164.1  352037.63  157547.06  44.75
1167.9  350222.92  156531.58  44.69
1171.7  348964.88  155847.00  44.66
1175.4  347703.80  155244.72  44.65
1179.2  346596.30  154677.14  44.63
1183.0  346290.67  154445.66  44.60
1186.7  345864.40  154126.75  44.56
1190.5  344928.33  153579.94  44.53
1194.3  343703.40  152940.97  44.50
1198.0  342420.65  152305.43  44.48
1201.8  340893.35  151606.84  44.47
1205.6  339667.67  151103.08  44.49
1209.3  338748.43  150794.94  44.52
1213.1  337783.20  150485.05  44.55
1216.8  336769.31  150226.37  44.61
1220.6  335576.27  149897.57  44.67
1224.3  334246.92  149500.65  44.73
1228.1  332904.00  149147.51  44.80
1231.9  331567.70  148741.68  44.86
1235.6  330058.73  148200.56  44.90
1239.4  328638.13  147719.90  44.95
1243.1  327371.67  147232.88  44.97
1246.9  326140.20  146742.36  44.99
1250.6  325149.27  146328.03  45.00
1254.3  324058.26  145848.42  45.01
1258.1  323036.82  145365.18  45.00
1261.8  321718.53  144754.31  44.99
1265.6  320331.70  144059.34  44.97
1269.3  318968.55  143332.18  44.94
1273.1  318946.43  143173.59  44.89
1276.8  319111.20  143073.08  44.83
1280.6  318839.03  142765.65  44.78
1284.3  317356.40  141893.58  44.71
1288.0  315949.14  140976.89  44.62
1291.8  314779.74  140095.72  44.51
1295.5  313454.53  139113.38  44.38
1299.2  312153.32  138113.37  44.25
1302.9  310637.05  136939.34  44.08
1306.7  309014.42  135647.93  43.90
1310.4  307442.48  134272.86  43.67
1314.1  305991.95  132882.08  43.43
1317.9  304698.96  131439.59  43.14
1321.6  303271.24  129839.56  42.81
1325.3  301607.25  128018.81  42.45
1329.0  300241.08  126267.26  42.06
1332.8  298159.40  124106.64  41.62
1336.5  296326.00  122027.44  41.18
1340.2  295962.33  120539.61  40.73
1343.9  295513.13  119018.73  40.28
1347.6  294940.50  117429.32  39.81
1351.4  295275.00  116253.94  39.37
1355.1  295782.67  115163.99  38.94
1358.8  296128.00  113936.25  38.48
1362.5  295695.18  112306.11  37.98
1366.2  293962.30  109961.51  37.41
1369.9  291877.75  107214.96  36.73
1373.6  289703.52  103992.49  35.90
1377.3  287821.80  100267.17  34.84
1381.0  286699.67  95998.44  33.48
1384.8  284700.00  90554.55  31.81
1388.4  282169.77  84409.25  29.91
1392.2  280252.08  78011.31  27.84
1395.9  278642.70  71552.39  25.68
1399.6  276954.58  65349.95  23.60
1403.3  275739.32  59827.89  21.70
1407.0  274498.80  55072.11  20.06
1410.7  273230.93  51193.80  18.74
1414.3  271900.36  48183.79  17.72
1418.1  270662.50  45976.94  16.99
1421.7  269675.82  44416.56  16.47
1425.4  268671.98  43352.15  16.14
1429.1  267724.88  42668.55  15.94
1432.8  266194.37  42185.08  15.85
1436.5  265404.10  41996.82  15.82
1440.2  264571.07  41952.91  15.86
1443.9  263265.38  41924.14  15.92
1447.6  261630.60  41911.96  16.02
1451.2  260494.12  42010.80  16.13
1454.9  259171.05  42116.28  16.25
1458.6  258037.32  42352.73  16.41
1462.3  256844.50  42713.52  16.63
1466.0  255469.20  43213.81  16.92
1469.7  253777.66  43844.17  17.28
1473.3  252730.33  44739.22  17.70
1477.0  250797.07  45589.39  18.18
1480.7  249207.88  46557.46  18.68
1484.4  247276.72  47470.74  19.20
1488.0  245725.33  48473.10  19.73
1491.7  244074.81  49433.32  20.25
1495.4  242352.58  50360.51  20.78
1499.0  240758.00  51273.38  21.30
1502.7  239432.00  52222.43  21.81
1506.4  238003.73  53104.64  22.31
1510.0  236561.53  53945.92  22.80
1513.7  235055.04  54722.79  23.28
1517.4  233690.67  55490.93  23.75
1521.0  232446.80  56243.05  24.20
1524.7  231206.08  56932.21  24.62
1528.3  229912.63  57570.81  25.04
1532.0  228661.77  58168.96  25.44
1535.7  227285.25  58671.63  25.81
1539.3  225995.32  59166.55  26.18
1543.0  225029.87  59699.96  26.53
1546.6  224305.25  60272.42  26.87
1550.3  223324.75  60717.41  27.19
1553.9  222231.87  61097.35  27.49
1557.6  220954.80  61383.85  27.78
1561.2  219684.60  61625.12  28.05
1564.9  218379.62  61822.69  28.31
1568.5  217038.15  61981.59  28.56
1572.2  215878.25  62155.64  28.79
1575.8  214788.00  62337.78  29.02
1579.5  213774.75  62501.53  29.24
1583.1  212755.78  62648.21  29.45
1586.8  211512.00  62703.78  29.65
1590.4  210443.87  62777.11  29.83
1594.0  209128.40  62761.86  30.01
1597.7  208052.25  62802.21  30.19
1601.3  206784.90  62772.53  30.36
1604.9  205512.87  62706.35  30.51
1608.6  204142.68  62584.52  30.66
1612.2  203025.90  62505.42  30.79
1615.8  201826.95  62378.86  30.91
1619.5  200678.33  62242.40  31.02
1623.1  199360.20  62027.74  31.11
1626.7  198123.58  61805.22  31.20
1630.3  196906.92  61551.43  31.26
1634.0  195790.00  61274.22  31.30
1637.6  194767.07  60957.79  31.30
1641.2  193735.45  60553.71  31.26
1644.8  192508.21  60007.67  31.17
1648.5  191407.11  59469.52  31.07
1652.1  190434.60  58962.62  30.96
1655.7  189499.00  58529.69  30.89
1659.3  188617.32  58246.48  30.88
1662.9  187170.00  57888.15  30.93
1666.6  185708.13  57577.99  31.00
1670.2  184290.69  57258.03  31.07
1673.8  182815.12  56870.13  31.11
1677.4  181638.40  56510.66  31.11
1681.0  180821.53  56174.67  31.07
1684.6  180421.58  55893.40  30.98
1688.2  179761.60  55432.74  30.84
1691.8  179090.07  54970.91  30.69
1695.4  178650.20  54551.89  30.54
1699.0  178272.50  54144.96  30.37
1702.6  177934.00  53713.83  30.19
1706.2  177323.36  53159.43  29.98
1709.8  176390.52  52506.69  29.77
1713.4  175665.21  51935.64  29.57
1717.0  174802.25  51380.81  29.39
1720.6  174005.18  50871.03  29.24
1724.2  173309.10  50406.70  29.08
1727.8  172578.35  49976.99  28.96
1731.4  172092.25  49654.65  28.85
1735.0  171887.47  49446.92  28.77
1738.6  171618.60  49189.37  28.66
1742.2  170994.88  48763.86  28.52
1745.8  170292.18  48262.40  28.34
1749.4  169290.00  47629.36  28.13
1753.0  167775.53  46829.30  27.91
1756.6  166099.79  46002.77  27.70
1760.1  164760.53  45275.22  27.48
1763.7  163024.00  44470.32  27.28
1767.3  161583.40  43792.64  27.10
1770.9  160329.63  43192.81  26.94
1774.5  158874.49  42555.22  26.79
1778.0  157735.08  42031.24  26.65
1781.6  156635.85  41563.18  26.53
1785.2  155463.68  41112.69  26.45
1788.8  154291.80  40710.56  26.39
1792.3  153064.53  40303.05  26.33
1795.9  152577.43  40113.58  26.29
1799.5  152092.00  39937.81  26.26
1803.1  151675.42  39777.84  26.23
1806.6  152315.33  39892.11  26.19
1810.2  153421.10  40126.48  26.15
1813.8  154226.10  40293.18  26.13
1817.3  154100.00  40223.39  26.10
1820.9  153228.90  39950.04  26.07
1824.5  152009.95  39576.36  26.04
1828.0  151112.96  39250.50  25.97
1831.6  150397.65  38945.10  25.89
1835.2  149770.00  38606.19  25.78
1838.7  149417.20  38261.88  25.61
1842.3  149100.00  37842.14  25.38
1845.8  148268.00  37196.37  25.09
1849.4  147755.30  36490.54  24.70
1852.9  147096.54  35588.82  24.19
1856.5  146210.40  34421.11  23.54
1860.0  145409.93  33050.72  22.73
1863.6  145181.90  31568.98  21.74
1867.1  145123.30  29843.72  20.56
1870.7  145220.03  27768.81  19.12
1874.2  144500.40  25172.83  17.42
1877.8  143116.67  22338.51  15.61
1881.3  141438.25  19413.75  13.73
1884.9  140323.79  16696.16  11.90
1888.4  139235.25  14139.75  10.16
1891.9  138106.33  11944.36  8.65
1895.5  136984.65  10179.06  7.43
1899.0  136389.63  8908.41  6.53
1901.3  167919.00  7160.78  4.26
1904.1  167829.00  6364.00  3.79
1906.8  167028.60  5781.00  3.46
1909.6  165327.05  5342.75  3.23
1912.4  163737.93  4998.89  3.05
1915.1  162616.85  4782.25  2.94
1917.9  161326.33  4633.00  2.87
1920.6  160304.63  4549.40  2.84
1923.3  159305.07  4478.52  2.81
1926.1  158032.80  4452.07  2.82
1928.8  156889.33  4453.78  2.84
1931.6  156003.98  4481.20  2.87
1934.3  155150.83  4539.84  2.93
1937.0  154360.20  4616.05  2.99
1939.8  153456.00  4702.83  3.06
1942.5  152218.00  4796.00  3.15
1945.2  150574.05  4894.08  3.25
1947.9  149235.80  5009.98  3.36
1950.7  148170.10  5143.78  3.47
1953.4  146468.35  5271.60  3.60
1956.1  145110.83  5424.00  3.74
1958.8  143905.23  5583.79  3.88
1961.5  142443.60  5743.87  4.03
1964.2  140940.80  5908.93  4.19
1966.9  139370.00  6087.63  4.37
1969.6  138132.00  6282.00  4.55
1972.3  136739.60  6464.37  4.73
1975.0  135688.20  6678.80  4.92
1977.7  134586.42  6900.51  5.13
1980.4  133454.97  7118.53  5.33
1983.1  132371.30  7342.34  5.55
1985.8  131457.00  7580.60  5.77
1988.4  130450.67  7814.44  5.99
1991.1  129517.27  8049.14  6.21
1993.8  128646.83  8297.85  6.45
1996.5  128000.58  8553.48  6.68
1999.1  127311.25  8811.98  6.92
2001.8  126625.10  9062.12  7.16
2004.5  125926.70  9301.63  7.39
2007.1  125200.10  9540.95  7.62
2009.8  124458.13  9772.93  7.85
2012.4  123864.58  10009.69  8.08
2015.1  123309.90  10230.50  8.30
2017.8  122507.00  10431.94  8.52
2020.4  121986.15  10647.33  8.73
2023.1  121635.03  10860.74  8.93
2025.7  121402.67  11073.11  9.12
2028.3  121073.33  11263.78  9.30
2031.0  120663.60  11438.84  9.48
2033.6  120381.90  11614.50  9.65
2036.2  120112.20  11776.90  9.80
2038.9  119520.60  11895.80  9.95
2041.5  119174.27  12031.90  10.10
2044.1  118607.10  12130.70  10.23
2046.8  118233.00  12246.70  10.36
2049.4  117606.60  12333.70  10.49
2052.0  117323.60  12442.09  10.60
2054.6  116926.25  12535.83  10.72
2057.2  116362.93  12616.76  10.84
2059.8  116031.07  12724.47  10.97
2062.4  115147.17  12761.20  11.08
2065.0  114616.27  12838.00  11.20
2067.6  113726.35  12865.80  11.31
2070.2  113124.90  12926.82  11.43
2072.8  112479.87  12970.40  11.53
2075.4  112026.25  13028.75  11.63
2078.0  111399.02  13066.67  11.73
2080.6  110827.20  13117.87  11.84
2083.2  110144.40  13138.31  11.93
2085.8  109642.35  13177.93  12.02
2088.4  108985.67  13197.00  12.11
2090.9  108171.68  13198.55  12.20
2093.5  107277.70  13179.22  12.29
2096.1  106506.70  13163.29  12.36
2098.7  105742.55  13148.65  12.43
2101.2  104773.80  13105.82  12.51
2103.8  104083.87  13088.35  12.57
2106.4  103411.40  13065.07  12.63
2108.9  102773.87  13038.87  12.69
2111.5  101935.47  12986.47  12.74
2114.0  101289.20  12954.44  12.79
2116.6  100756.25  12920.83  12.82
2119.1  100194.23  12872.39  12.85
2121.7  99706.25  12833.33  12.87
2124.2  99300.03  12808.10  12.90
2126.8  98513.87  12727.05  12.92
2129.3  98111.20  12707.20  12.95
2131.9  97539.20  12674.93  12.99
2134.4  97102.20  12661.40  13.04
2136.9  96712.85  12655.79  13.09
2139.4  96185.60  12649.78  13.15
2142.0  95724.53  12643.87  13.21
2144.5  95452.50  12667.67  13.27
2147.0  95220.40  12706.18  13.34
2149.5  94720.13  12697.25  13.41
2152.1  94549.58  12732.38  13.47
2154.6  94492.80  12768.89  13.51
2157.1  93958.00  12759.06  13.58
2159.6  93540.17  12746.94  13.63
2162.1  93375.10  12773.37  13.68
2164.6  93114.33  12771.44  13.72
2167.1  92806.77  12770.96  13.76
2169.6  92480.03  12762.01  13.80
2172.1  92019.40  12735.85  13.84
2174.6  91693.67  12738.58  13.89
2177.1  91245.88  12721.26  13.94
2179.5  90828.18  12704.83  13.99
2182.0  90358.40  12684.83  14.04
2184.5  89826.65  12661.25  14.10
2187.0  89211.03  12621.80  14.15
2189.5  88526.92  12574.90  14.20
2191.9  87751.50  12514.67  14.26
2194.4  87115.10  12478.67  14.32
2196.9  86371.20  12412.80  14.37
2199.3  85704.67  12354.00  14.41
2201.8  84816.27  12270.49  14.47
2204.3  84354.62  12244.66  14.52
2206.7  83725.00  12194.30  14.56
2209.2  83247.32  12159.79  14.61
2211.6  82615.50  12104.40  14.65
2214.1  82336.25  12095.88  14.69
2216.5  81751.33  12025.95  14.71
2219.0  81403.67  11999.47  14.74
2221.4  81039.00  11962.81  14.76
2223.9  80563.00  11883.47  14.75
2226.3  80037.42  11797.53  14.74
2228.7  79481.77  11698.57  14.72
2231.1  78893.10  11569.80  14.67
2233.6  78304.47  11436.58  14.61
2236.0  77746.67  11298.39  14.53
2238.4  77240.92  11156.25  14.44
2240.9  76804.53  10999.51  14.32
2243.3  76258.20  10840.58  14.22
2245.7  75679.70  10666.40  14.09
2248.1  75208.47  10491.58  13.95
2250.5  74695.30  10322.77  13.82
2252.9  74072.27  10146.07  13.70
2255.3  73500.65  9986.48  13.59
2257.7  73040.00  9833.33  13.46
2260.1  72561.07  9672.13  13.33
2262.5  71940.00  9500.00  13.21
2264.9  71410.78  9351.06  13.09
2267.3  70800.00  9196.67  12.99
2269.7  70313.60  9050.07  12.87
2272.1  69756.07  8904.81  12.77
2274.5  69194.48  8768.69  12.67
2276.8  68704.32  8637.71  12.57
2279.2  68128.95  8505.65  12.48
2281.6  67698.33  8385.53  12.39
2284.0  67225.60  8255.07  12.28
2286.3  66768.53  8126.94  12.17
2288.7  66364.78  7993.92  12.05
2291.1  65820.80  7838.73  11.91
2293.4  65357.60  7703.42  11.79
2295.8  64756.10  7543.03  11.65
2298.2  64170.00  7376.10  11.49
2300.5  63486.90  7207.05  11.35
2302.9  62733.67  7030.11  11.21
2305.2  62026.60  6880.40  11.09
2307.6  61363.53  6729.91  10.97
2309.9  60584.33  6578.89  10.86
2312.2  59985.00  6465.22  10.78
2314.6  59367.60  6365.25  10.72
2316.9  58663.80  6258.30  10.67
2319.2  58105.17  6161.26  10.60
2321.6  57461.37  6053.48  10.53
2323.9  56906.25  5940.97  10.44
2326.2  56371.30  5835.71  10.35
2328.6  55844.80  5733.57  10.27
2330.9  55314.00  5631.50  10.18
2333.2  54853.42  5545.67  10.11
2335.5  54409.50  5449.87  10.02
2337.8  53959.80  5352.13  9.92
2340.1  53377.50  5247.89  9.83
2342.4  52942.50  5171.11  9.77
2344.8  52509.17  5076.25  9.67
2347.1  51938.13  4978.87  9.59
2349.4  51381.73  4880.38  9.50
2351.6  50808.87  4792.25  9.43
2353.9  50323.03  4718.59  9.38
2356.2  49791.55  4646.77  9.33
2358.5  49212.80  4565.87  9.28
2360.8  48641.60  4480.00  9.21
2363.1  48186.80  4404.41  9.14
2365.4  47708.60  4324.13  9.06
2367.7  47253.00  4233.20  8.96
2369.9  46704.55  4148.72  8.88
2372.2  46084.53  4055.38  8.80
2374.5  45483.90  3957.80  8.70
2376.7  44851.95  3864.48  8.62
2379.0  44241.57  3765.32  8.51
2381.3  43633.33  3671.11  8.41
2383.5  43108.27  3570.84  8.28
2385.8  42501.20  3479.01  8.19
2388.0  41972.60  3390.53  8.08
2390.3  41450.27  3294.98  7.95
2392.5  40956.00  3212.00  7.84
2394.8  40498.70  3137.93  7.75
2397.0  40003.60  3057.60  7.64
2399.3  39534.92  2976.79  7.53
2401.5  39114.25  2903.25  7.42
2403.8  38600.43  2820.52  7.31
2406.0  38069.50  2752.36  7.23
2408.2  37649.33  2680.33  7.12
2410.4  37237.78  2609.02  7.01
2412.7  36820.33  2538.46  6.89
2414.9  36457.30  2475.18  6.79
2417.1  36042.60  2413.00  6.69
2419.3  35622.40  2333.87  6.55
2421.6  35236.67  2277.64  6.46
2423.8  34867.37  2217.30  6.36
2426.0  34509.70  2155.23  6.25
2428.2  34143.20  2099.38  6.15
2430.4  33824.40  2037.93  6.03
2432.6  33546.67  1991.11  5.94
2434.8  33256.27  1920.35  5.77
2437.0  32884.80  1867.23  5.68
2439.2  32521.10  1811.23  5.57
2441.4  32201.93  1767.79  5.49
2443.6  31957.95  1708.66  5.35
2445.7  31667.88  1670.63  5.28
2447.9  31382.08  1628.25  5.19
2450.1  31092.65  1573.60  5.06
2452.3  30717.87  1524.60  4.96
2454.5  30366.52  1479.80  4.87
2456.6  29960.00  1431.42  4.78
2458.8  29615.30  1387.10  4.68
2461.0  29323.50  1345.56  4.59
2463.1  29027.25  1309.50  4.51
2465.3  28739.87  1282.85  4.46
2467.5  28497.00  1248.83  4.38
2469.6  28237.25  1223.17  4.33
2471.8  27915.98  1181.31  4.23
2473.9  27602.50  1166.44  4.23
2476.1  27269.67  1122.34  4.12
2478.2  26917.30  1091.72  4.06
2480.4  26601.55  1064.27  4.00
2482.5  26244.25  1032.22  3.93
2484.6  25899.50  997.33  3.85
2486.8  25653.80  983.87  3.84
2488.9  25332.25  962.78  3.80
2491.1  24942.40  936.13  3.75
2493.2  24556.73  910.10  3.71
2495.3  24162.23  887.18  3.67
2497.4  23828.00  858.67  3.60
2499.5  23498.20  846.93  3.60
2501.7  23368.20  843.58  3.61
2503.8  23269.60  835.83  3.59
2505.9  23216.25  808.61  3.48
2508.0  23192.07  805.76  3.47
2510.1  23176.80  804.75  3.47
2512.2  23267.80  813.52  3.50
2514.3  23406.45  803.63  3.43
2516.4  23580.90  853.67  3.62
