/*** Spectra Vista SIG Data ***/
name= 24_20221020_LIST_48_avg.sig
comm= Averaged Ref/Tar of files: HR.102022.0068_moc.sig,HR.102022.0069_moc.sig,HR.102022.0070_moc.sig
data=
337.3  2977.50  212.68  7.14
338.8  3174.60  206.14  6.49
340.3  3326.35  209.71  6.30
341.8  3520.83  209.03  5.94
343.2  3685.20  202.97  5.51
344.7  3881.15  203.10  5.23
346.2  4003.30  198.41  4.96
347.7  4207.78  202.24  4.81
349.2  4384.80  198.00  4.52
350.6  4627.35  192.37  4.16
352.1  4894.33  193.94  3.96
353.6  5170.30  191.68  3.71
355.1  5421.68  198.84  3.67
356.6  5702.85  206.01  3.61
358.0  5965.30  212.67  3.57
359.5  6272.70  211.89  3.38
361.0  6553.58  216.60  3.31
362.5  6908.90  225.84  3.27
364.0  7226.10  229.40  3.17
365.4  7558.90  238.18  3.15
366.9  7928.38  247.31  3.12
368.4  8318.88  254.57  3.06
369.9  8648.00  259.95  3.01
371.3  9024.60  272.09  3.01
372.8  9451.80  288.26  3.05
374.3  9863.13  291.79  2.96
375.8  10267.95  297.73  2.90
377.2  10679.30  309.99  2.90
378.7  11055.90  304.87  2.76
380.2  11459.40  307.43  2.68
381.7  11945.05  316.58  2.65
383.1  12370.05  320.83  2.59
384.6  12867.08  336.55  2.62
386.1  13296.30  347.46  2.61
387.6  13744.50  356.77  2.60
389.0  14230.80  362.44  2.55
390.5  14682.15  369.17  2.51
392.0  15182.30  375.34  2.47
393.4  15712.45  387.87  2.47
394.9  16234.20  395.23  2.43
396.4  16792.88  406.61  2.42
397.9  17322.50  419.76  2.42
399.3  17854.13  436.55  2.45
400.8  18369.73  443.90  2.42
402.2  18977.15  453.59  2.39
403.7  19572.98  456.28  2.33
405.2  20171.10  473.50  2.35
406.6  20717.60  488.31  2.36
408.1  21289.20  507.96  2.39
409.6  21862.20  518.44  2.37
411.0  22502.90  532.73  2.37
412.5  23178.23  549.38  2.37
414.0  23798.00  570.50  2.40
415.4  24446.25  590.57  2.42
416.9  25096.05  616.80  2.46
418.4  25771.50  634.95  2.46
419.8  26481.00  653.47  2.47
421.3  27183.13  677.35  2.49
422.7  27927.00  702.63  2.52
424.2  28670.63  724.82  2.53
425.7  29388.90  757.56  2.58
427.1  30146.63  782.21  2.59
428.6  30938.00  810.43  2.62
430.0  31655.05  835.35  2.64
431.5  32506.65  859.97  2.65
432.9  33343.40  890.16  2.67
434.4  34208.10  919.53  2.69
435.9  35014.00  950.67  2.72
437.3  35846.25  976.90  2.73
438.8  36679.65  1005.84  2.74
440.2  37527.88  1031.80  2.75
441.7  38471.40  1061.79  2.76
443.1  39339.25  1090.29  2.77
444.6  40282.50  1121.61  2.78
446.0  41208.60  1152.92  2.80
447.5  42148.43  1187.87  2.82
448.9  43060.20  1219.97  2.83
450.4  44042.95  1250.60  2.84
451.8  44902.00  1276.47  2.84
453.3  45801.73  1305.01  2.85
454.7  46797.60  1337.57  2.86
456.2  47636.45  1365.32  2.87
457.6  48586.50  1394.51  2.87
459.1  49542.35  1426.41  2.88
460.5  50463.88  1454.69  2.88
462.0  51516.73  1483.88  2.88
463.4  52539.50  1516.13  2.89
464.8  53502.00  1542.11  2.88
466.3  54459.08  1572.14  2.89
467.7  55399.20  1603.21  2.89
469.2  56454.83  1634.04  2.89
470.6  57422.35  1665.93  2.90
472.0  58453.48  1693.02  2.90
473.5  59466.25  1721.91  2.90
474.9  60477.00  1756.14  2.90
476.4  61603.20  1793.83  2.91
477.8  62654.50  1825.62  2.91
479.2  63626.00  1853.24  2.91
480.7  64688.78  1881.75  2.91
482.1  65805.30  1914.28  2.91
483.6  66975.75  1951.44  2.91
485.0  68032.50  1987.90  2.92
486.4  69214.35  2025.91  2.93
487.9  70258.50  2064.21  2.94
489.3  71386.80  2099.37  2.94
490.7  72417.55  2133.02  2.95
492.2  73617.60  2178.40  2.96
493.6  74700.35  2224.01  2.98
495.0  75801.38  2268.97  2.99
496.5  76955.70  2321.45  3.02
497.9  78041.65  2377.35  3.05
499.3  79171.63  2433.26  3.07
500.7  80399.20  2494.69  3.10
502.2  81541.00  2561.26  3.14
503.6  82796.60  2639.12  3.19
505.0  83856.60  2720.71  3.24
506.5  85148.33  2821.32  3.31
507.9  86281.50  2925.47  3.39
509.3  87586.40  3045.98  3.48
510.7  88788.38  3177.11  3.58
512.2  90150.30  3329.25  3.69
513.6  91624.75  3500.03  3.82
515.0  93031.50  3698.50  3.98
516.4  94391.33  3916.35  4.15
517.8  95979.38  4166.20  4.34
519.3  97300.48  4432.96  4.56
520.7  98841.75  4732.84  4.79
522.1  100116.90  5044.31  5.04
523.5  101442.20  5373.34  5.30
524.9  102881.25  5723.49  5.56
526.3  104267.10  6074.83  5.83
527.8  105702.30  6446.31  6.10
529.2  106728.70  6804.34  6.38
530.6  108288.30  7196.10  6.65
532.0  109928.00  7588.00  6.90
533.4  111233.55  7947.19  7.14
534.8  112081.88  8265.00  7.37
536.3  113623.20  8614.74  7.58
537.7  115504.20  8985.60  7.78
539.1  116902.63  9314.18  7.97
540.5  118065.90  9618.19  8.15
541.9  119763.53  9959.41  8.32
543.3  121051.35  10263.17  8.48
544.7  122333.40  10568.35  8.64
546.1  124103.93  10909.90  8.79
547.5  125316.80  11193.60  8.93
549.0  126929.00  11504.95  9.06
550.4  128392.50  11782.62  9.18
551.8  129931.13  12038.60  9.27
553.2  131398.40  12255.75  9.33
554.6  132693.60  12413.64  9.36
556.0  134177.40  12545.19  9.35
557.4  135742.78  12642.72  9.31
558.8  137365.20  12711.77  9.25
560.2  138796.75  12731.61  9.17
561.6  140424.75  12737.36  9.07
563.0  141978.15  12707.67  8.95
564.4  143543.30  12659.00  8.82
565.8  145031.25  12571.91  8.67
567.2  146748.25  12480.24  8.50
568.6  148193.63  12335.36  8.32
570.0  149589.25  12149.85  8.12
571.4  151263.45  11968.73  7.91
572.8  152991.00  11786.14  7.70
574.2  154571.20  11601.07  7.51
575.6  156093.75  11427.86  7.32
577.0  157589.80  11268.79  7.15
578.4  159261.38  11145.33  7.00
579.8  160741.80  11025.84  6.86
581.2  162420.40  10937.82  6.73
582.5  163823.40  10845.34  6.62
583.9  165306.20  10776.21  6.52
585.3  167045.40  10735.91  6.43
586.7  168506.33  10691.95  6.35
588.1  169956.13  10664.22  6.27
589.5  171573.50  10661.00  6.21
590.9  173166.00  10668.72  6.16
592.3  174921.90  10705.75  6.12
593.7  176359.95  10733.91  6.09
595.0  177934.05  10781.55  6.06
596.4  179344.55  10818.80  6.03
597.8  180801.10  10857.23  6.01
599.2  182292.00  10890.63  5.97
600.6  184004.93  10920.15  5.93
602.0  185265.00  10907.49  5.89
603.3  187017.10  10901.94  5.83
604.7  188660.30  10857.95  5.76
606.1  190095.00  10783.71  5.67
607.5  191719.40  10698.38  5.58
608.9  193370.15  10597.71  5.48
610.2  194707.80  10477.35  5.38
611.6  196281.15  10353.56  5.27
613.0  197820.50  10230.60  5.17
614.4  199160.40  10104.63  5.07
615.8  200596.50  9992.36  4.98
617.1  202095.60  9898.00  4.90
618.5  203692.40  9831.43  4.83
619.9  205173.98  9778.01  4.77
621.3  206753.63  9744.19  4.71
622.6  208299.75  9732.40  4.67
624.0  209749.20  9736.44  4.64
625.4  211189.28  9752.84  4.62
626.8  212710.23  9790.08  4.60
628.1  213959.08  9829.26  4.59
629.5  215684.30  9892.96  4.59
630.9  217152.38  9949.97  4.58
632.2  218383.38  9992.62  4.58
633.6  219867.88  10035.25  4.56
635.0  221278.00  10061.18  4.55
636.3  222754.80  10062.01  4.52
637.7  224085.38  10031.16  4.48
639.1  225680.00  9978.33  4.42
640.4  227106.08  9903.05  4.36
641.8  228302.60  9793.57  4.29
643.2  229836.78  9683.72  4.21
644.5  231172.75  9557.78  4.13
645.9  232691.40  9441.13  4.06
647.2  233630.60  9308.60  3.98
648.6  235041.75  9214.71  3.92
650.0  236347.20  9129.60  3.86
651.3  237380.00  9045.22  3.81
652.7  239627.80  8998.28  3.76
654.0  241755.30  8937.54  3.70
655.4  243077.58  8849.71  3.64
656.8  243275.90  8718.96  3.58
658.1  244637.90  8610.87  3.52
659.5  246812.48  8501.10  3.44
660.8  248085.00  8361.43  3.37
662.2  249065.60  8226.13  3.30
663.5  250538.65  8111.12  3.24
664.9  251564.30  8000.20  3.18
666.2  252325.20  7905.32  3.13
667.6  254013.85  7869.03  3.10
668.9  254892.90  7825.83  3.07
670.3  256730.75  7820.60  3.05
671.6  257712.00  7823.82  3.04
673.0  258884.63  7851.21  3.03
674.3  260139.10  7894.96  3.03
675.7  261456.30  7951.20  3.04
677.0  262493.95  8017.10  3.05
678.4  263793.43  8101.01  3.07
679.7  264806.58  8205.88  3.10
681.1  266047.90  8340.14  3.13
682.4  267100.60  8499.03  3.18
683.8  268294.00  8713.71  3.25
685.1  269283.38  8968.00  3.33
686.4  270595.80  9315.55  3.44
687.8  271783.75  9768.81  3.59
689.1  272874.00  10360.02  3.80
690.5  274167.45  11160.10  4.07
691.8  274959.15  12204.99  4.44
693.1  276307.35  13613.73  4.93
694.5  277459.00  15387.67  5.55
695.8  278687.50  17593.33  6.31
697.1  279847.75  20228.00  7.23
698.5  280889.80  23296.68  8.29
699.8  281918.28  26760.82  9.49
701.1  283074.70  30598.29  10.81
702.5  283859.40  34681.90  12.22
703.8  284782.50  38991.43  13.69
705.1  285918.75  43489.55  15.21
706.5  286892.25  48070.03  16.76
707.8  287845.65  52684.27  18.30
709.1  288662.25  57281.70  19.84
710.5  289756.18  61918.92  21.37
711.8  290591.30  66458.25  22.87
713.1  291550.20  70994.71  24.35
714.4  292419.90  75441.96  25.80
715.8  293245.00  79804.27  27.21
717.1  294505.95  84210.54  28.59
718.4  295456.00  88422.40  29.93
719.7  296512.68  92567.03  31.22
721.0  297022.50  96420.00  32.46
722.4  297750.20  100222.94  33.66
723.7  298685.55  103946.25  34.80
725.0  299697.30  107543.36  35.88
726.3  300605.25  110962.11  36.91
727.6  301107.40  114064.13  37.88
729.0  301991.03  117118.37  38.78
730.3  302755.73  119971.21  39.63
731.6  303635.40  122697.20  40.41
732.9  304390.45  125223.93  41.14
734.2  305160.63  127611.92  41.82
735.5  306154.35  129934.18  42.44
736.8  306915.00  132024.80  43.02
738.1  307736.40  134001.61  43.54
739.5  308666.40  135902.64  44.03
740.8  309315.05  137565.82  44.47
742.1  309960.03  139134.04  44.89
743.4  310600.00  140592.86  45.26
744.7  311465.10  142054.13  45.61
746.0  312312.00  143427.89  45.92
747.3  312910.98  144580.89  46.21
748.6  313635.00  145718.03  46.46
749.9  314236.00  146741.52  46.70
751.2  314819.85  147682.75  46.91
752.5  315552.05  148639.09  47.10
753.8  316029.00  149429.62  47.28
755.1  316680.00  150213.14  47.43
756.4  317206.70  150912.28  47.58
757.7  318141.08  151763.95  47.70
759.0  319866.33  152919.22  47.81
760.3  320997.60  153746.06  47.90
761.6  322471.80  154733.47  47.98
762.9  322952.75  155216.24  48.06
764.2  323257.30  155604.97  48.14
765.5  323489.25  155923.96  48.20
766.8  323870.40  156288.61  48.26
768.1  324333.80  156681.03  48.31
769.3  324859.85  157086.23  48.36
770.6  325449.80  157526.20  48.40
771.9  326097.45  157959.78  48.44
773.2  326401.20  158225.87  48.48
774.5  326955.20  158596.53  48.51
775.8  327562.90  158974.49  48.53
777.1  328054.10  159303.36  48.56
778.4  328294.73  159514.32  48.59
779.6  328996.30  159923.33  48.61
780.9  329370.00  160197.14  48.64
782.2  329815.75  160460.40  48.65
783.5  330010.00  160644.95  48.68
784.8  330474.83  160912.37  48.69
786.0  330781.85  161128.57  48.71
787.3  331085.53  161331.85  48.73
788.6  331425.55  161552.79  48.74
789.9  331821.00  161791.20  48.76
791.2  332395.30  162114.92  48.77
792.4  332981.55  162450.55  48.79
793.7  333365.40  162686.63  48.80
795.0  333920.40  162994.62  48.81
796.2  334480.93  163305.40  48.82
797.5  335061.53  163630.81  48.84
798.8  335694.25  163963.99  48.84
800.0  336236.88  164281.67  48.86
801.3  336632.50  164502.54  48.87
802.6  337153.28  164789.51  48.88
803.8  337697.70  165103.03  48.89
805.1  338060.63  165331.42  48.91
806.4  338442.30  165560.83  48.92
807.7  338926.28  165830.91  48.93
808.9  339410.30  166105.06  48.94
810.2  339892.70  166351.07  48.94
811.4  340288.60  166605.95  48.96
812.7  340843.75  166926.19  48.97
814.0  341627.30  167323.74  48.98
815.2  342224.75  167636.19  48.98
816.5  342596.60  167851.88  48.99
817.7  343014.25  168098.51  49.01
819.0  343472.25  168366.68  49.02
820.2  343552.00  168478.09  49.04
821.5  344162.20  168836.53  49.06
822.7  344542.75  169030.98  49.06
824.0  344846.70  169200.51  49.07
825.2  345307.05  169444.29  49.07
826.5  345532.98  169622.70  49.09
827.7  346068.15  169917.03  49.10
829.0  346483.48  170129.14  49.10
830.2  346792.85  170296.38  49.11
831.5  347238.60  170548.21  49.12
832.7  347563.13  170724.85  49.12
834.0  347902.35  170924.03  49.13
835.2  348240.75  171121.45  49.14
836.4  348535.55  171314.47  49.15
837.7  348993.80  171561.07  49.16
838.9  349395.80  171813.02  49.17
840.1  349764.08  172028.77  49.18
841.4  350219.50  172271.52  49.19
842.6  350557.00  172508.23  49.21
843.8  350955.40  172730.48  49.22
845.1  351411.35  173025.03  49.24
846.3  351885.50  173259.72  49.24
847.5  352306.50  173512.80  49.25
848.8  352692.60  173758.06  49.27
850.0  353095.40  173976.07  49.27
851.2  353606.85  174263.92  49.28
852.5  353971.50  174504.08  49.30
853.7  354503.25  174801.64  49.31
854.9  355023.10  175064.27  49.31
856.1  355504.50  175306.98  49.31
857.4  355742.13  175447.13  49.32
858.6  356224.85  175757.08  49.34
859.8  356587.50  175987.86  49.35
861.0  357037.20  176228.74  49.36
862.2  357507.25  176489.38  49.37
863.5  357975.80  176689.50  49.36
864.7  358498.80  176964.23  49.36
865.9  358852.60  177187.60  49.38
867.1  359182.60  177395.05  49.39
868.3  359579.40  177629.74  49.40
869.5  360094.00  177892.78  49.40
870.8  360697.50  178172.14  49.40
872.0  361185.08  178429.28  49.40
873.2  361600.05  178650.90  49.41
874.4  362100.38  178897.18  49.41
875.6  362417.83  179121.47  49.42
876.8  362925.00  179380.96  49.43
878.0  363424.15  179622.22  49.42
879.2  363907.95  179854.27  49.42
880.4  364437.75  180104.36  49.42
881.6  364856.55  180346.12  49.43
882.8  365255.20  180550.78  49.43
884.0  365865.95  180859.30  49.43
885.2  366322.90  181079.62  49.43
886.5  366950.50  181355.54  49.42
887.7  367392.03  181550.42  49.42
888.8  368020.80  181889.34  49.42
890.0  368598.15  182152.91  49.42
891.2  369178.00  182429.44  49.42
892.4  369647.25  182692.35  49.42
893.6  370176.70  182945.71  49.42
894.8  370961.25  183332.45  49.42
896.0  371790.50  183725.93  49.42
897.2  372573.50  184123.03  49.42
898.4  373292.70  184442.03  49.41
899.6  373742.25  184669.96  49.41
900.8  374047.90  184815.05  49.41
902.0  374218.05  184911.46  49.41
903.2  374519.78  185009.28  49.40
904.3  374780.40  185156.74  49.40
905.5  375340.45  185418.76  49.40
906.7  375912.00  185621.14  49.38
907.9  376310.20  185852.10  49.39
909.1  376482.60  185983.65  49.40
910.2  376709.93  186006.20  49.38
911.4  376924.28  186089.33  49.37
912.6  377048.10  186110.42  49.36
913.8  377191.73  186151.90  49.35
915.0  377349.00  186318.30  49.38
916.2  377461.50  186370.79  49.37
917.3  377331.08  186325.46  49.38
918.5  377550.20  186365.15  49.36
919.7  377680.05  186362.50  49.34
920.8  377657.98  186323.68  49.34
922.0  377704.25  186327.17  49.33
923.2  377832.00  186368.00  49.33
924.4  377902.13  186371.36  49.32
925.5  378108.50  186345.12  49.28
926.7  378717.50  186538.37  49.26
927.9  379430.40  186836.97  49.24
929.0  380824.20  187441.07  49.22
930.2  382905.10  188396.94  49.20
931.4  385207.65  189444.47  49.18
932.5  387617.80  190558.62  49.16
933.7  388912.33  191098.95  49.14
934.9  389471.25  191212.92  49.10
936.0  388976.25  190838.30  49.06
937.2  386987.55  189700.24  49.02
938.3  384946.45  188672.55  49.01
939.5  383238.00  187747.55  48.99
940.7  383508.90  187632.94  48.93
941.8  384882.45  188189.26  48.90
943.0  386104.50  188673.43  48.87
944.2  386852.70  188860.10  48.82
945.3  386431.50  188408.07  48.76
946.5  385433.10  187792.97  48.72
947.6  385595.40  187557.99  48.64
948.8  385139.63  187224.88  48.61
949.9  385127.40  187078.80  48.58
951.1  384606.95  186507.35  48.49
952.2  384336.00  186067.43  48.41
953.4  384034.25  185538.09  48.31
954.5  383923.80  185167.54  48.23
955.7  383632.20  184701.60  48.15
956.8  383504.00  184218.88  48.04
958.0  382752.00  183697.33  47.99
959.1  382603.88  183353.19  47.92
960.3  381988.48  182928.69  47.89
961.4  381847.40  182636.27  47.83
962.6  381921.75  182415.50  47.76
963.7  381480.38  182101.24  47.74
964.9  381306.98  181885.54  47.70
966.0  381133.35  181737.00  47.68
967.2  381168.45  181609.41  47.65
968.3  380432.70  181391.02  47.68
969.5  380222.00  181191.23  47.65
970.6  380250.83  181071.82  47.62
971.8  380569.18  181137.87  47.60
972.9  380290.05  181090.50  47.62
974.0  380651.20  181107.29  47.58
975.2  380354.38  180926.20  47.57
976.3  380395.03  180867.33  47.55
977.5  380065.88  180839.68  47.58
978.6  380495.10  180730.88  47.50
979.7  380553.60  180851.95  47.52
980.9  380129.78  180799.45  47.56
982.0  379640.45  180644.04  47.58
983.2  379617.28  180478.17  47.54
984.3  379028.60  180282.65  47.56
985.4  378966.63  180184.79  47.55
986.6  378915.13  179967.87  47.50
987.7  379594.95  180511.03  47.55
988.9  379170.00  180294.52  47.55
990.0  379859.40  180608.21  47.55
993.1  387320.38  183340.34  47.34
996.9  385793.63  183225.98  47.49
1000.7  385727.83  183697.94  47.62
1004.5  385750.75  184283.12  47.77
1008.4  385374.96  184674.76  47.92
1012.2  385219.29  185101.06  48.05
1016.0  384870.60  185380.37  48.17
1019.8  384158.78  185452.58  48.27
1023.7  382831.42  185182.43  48.37
1027.5  381045.12  184676.14  48.47
1031.3  379840.45  184384.09  48.54
1035.1  378689.91  184091.85  48.61
1038.9  378179.27  184073.37  48.67
1042.7  377848.67  184172.97  48.74
1046.5  377765.33  184292.03  48.78
1050.3  377753.41  184422.78  48.82
1054.2  377368.83  184417.92  48.87
1058.0  377039.02  184321.12  48.89
1061.8  377025.24  184418.76  48.91
1065.6  376437.80  184155.82  48.92
1069.4  375516.33  183714.21  48.92
1073.2  374139.88  183008.87  48.91
1077.0  373480.98  182594.89  48.89
1080.8  373737.50  182618.00  48.86
1084.6  373961.47  182629.53  48.84
1088.4  374303.45  182740.57  48.82
1092.2  373873.50  182386.28  48.78
1096.0  373222.55  181881.30  48.73
1099.8  372474.48  181308.68  48.68
1103.6  371529.02  180627.45  48.62
1107.4  370379.44  179782.80  48.54
1111.2  370099.70  179365.41  48.46
1114.9  369576.67  178784.08  48.38
1118.7  369388.80  178234.30  48.25
1122.5  369067.40  177496.55  48.09
1126.3  368151.58  176367.73  47.91
1130.1  367794.27  175199.19  47.64
1133.9  366122.40  173041.60  47.26
1137.7  364554.50  170611.28  46.80
1141.4  362470.33  167669.57  46.26
1145.2  361516.58  165087.88  45.67
1149.0  360222.92  162530.63  45.12
1152.8  358405.45  160048.46  44.66
1156.6  356533.10  158007.48  44.32
1160.3  354731.33  156414.67  44.09
1164.1  352401.13  154941.01  43.97
1167.9  350773.96  153987.06  43.90
1171.7  349508.25  153292.50  43.86
1175.4  348031.87  152547.65  43.83
1179.2  346596.30  151790.66  43.79
1183.0  346314.33  151490.34  43.74
1186.7  346359.30  151388.90  43.71
1190.5  346091.67  151190.12  43.68
1194.3  345177.53  150759.75  43.68
1198.0  343676.03  150149.37  43.69
1201.8  341997.08  149508.08  43.72
1205.6  340940.67  149250.48  43.78
1209.3  340421.70  149298.16  43.86
1213.1  339994.05  149415.07  43.95
1216.8  339393.27  149505.65  44.05
1220.6  338245.60  149336.00  44.15
1224.3  336958.17  149092.93  44.25
1228.1  335406.60  148725.94  44.34
1231.9  333755.58  148256.39  44.42
1235.6  332016.53  147695.57  44.48
1239.4  330426.13  147230.63  44.56
1243.1  329045.31  146776.01  44.61
1246.9  327759.26  146338.96  44.65
1250.6  326709.47  145969.65  44.68
1254.3  325544.36  145521.54  44.70
1258.1  324305.22  145000.27  44.71
1261.8  322836.40  144347.03  44.71
1265.6  321723.55  143802.41  44.70
1269.3  321050.33  143405.53  44.67
1273.1  321437.68  143427.19  44.62
1276.8  321128.40  143066.57  44.55
1280.6  319853.77  142245.04  44.47
1284.3  317815.60  141007.20  44.37
1288.0  316647.53  140091.34  44.24
1291.8  316290.22  139448.63  44.09
1295.5  315616.40  138615.30  43.92
1299.2  314460.03  137468.45  43.72
1302.9  312791.00  135986.49  43.48
1306.7  310985.03  134336.65  43.20
1310.4  309245.25  132533.68  42.86
1314.1  307665.78  130687.26  42.48
1317.9  306235.00  128742.89  42.04
1321.6  304699.26  126609.52  41.55
1325.3  303007.95  124279.50  41.02
1329.0  301738.85  122026.50  40.44
1332.8  299822.60  119411.60  39.83
1336.5  298188.53  116890.32  39.20
1340.2  298070.50  115013.17  38.59
1343.9  298144.17  113202.14  37.97
1347.6  298540.35  111553.41  37.37
1351.4  300405.50  110501.72  36.78
1355.1  302972.27  109738.25  36.22
1358.8  305104.00  108713.14  35.63
1362.5  305561.93  106909.82  34.99
1366.2  303426.20  103851.42  34.23
1369.9  299926.38  99921.79  33.32
1373.6  296959.54  95556.86  32.18
1377.3  295549.20  90895.76  30.75
1381.0  295171.00  85584.02  28.99
1384.8  293150.00  78833.40  26.89
1388.4  289713.90  71246.85  24.59
1392.2  287409.17  63777.31  22.19
1395.9  285918.05  56694.16  19.83
1399.6  284032.68  50182.09  17.67
1403.3  282452.37  44632.11  15.80
1407.0  280574.70  40023.78  14.26
1410.7  278591.78  36370.48  13.06
1414.3  276533.54  33569.76  12.14
1418.1  274745.38  31527.05  11.48
1421.7  273250.43  30052.13  11.00
1425.4  271833.90  29011.59  10.67
1429.1  270538.50  28303.18  10.46
1432.8  268829.19  27792.23  10.34
1436.5  268041.91  27542.02  10.28
1440.2  267419.77  27446.26  10.26
1443.9  266301.75  27375.99  10.28
1447.6  264710.60  27339.40  10.33
1451.2  263446.15  27363.91  10.39
1454.9  261973.80  27421.50  10.47
1458.6  260738.73  27604.81  10.59
1462.3  259535.47  27919.05  10.76
1466.0  258152.70  28364.17  10.99
1469.7  256449.16  28934.89  11.28
1473.3  255400.33  29709.05  11.63
1477.0  253322.17  30474.18  12.03
1480.7  251625.51  31347.10  12.46
1484.4  249576.42  32206.33  12.90
1488.0  247984.00  33167.62  13.37
1491.7  246394.88  34119.49  13.85
1495.4  244754.70  35079.35  14.33
1499.0  243208.50  36040.79  14.82
1502.7  241940.50  37040.54  15.31
1506.4  240530.80  37996.25  15.80
1510.0  239061.33  38931.61  16.29
1513.7  237541.79  39824.75  16.77
1517.4  236170.33  40710.76  17.24
1521.0  234900.67  41597.52  17.71
1524.7  233656.58  42435.10  18.16
1528.3  232370.38  43238.64  18.61
1532.0  231146.30  44017.78  19.04
1535.7  229740.10  44707.29  19.46
1539.3  228458.87  45391.62  19.87
1543.0  227481.33  46099.42  20.27
1546.6  226769.83  46837.14  20.65
1550.3  225769.45  47464.92  21.02
1553.9  224701.73  48044.12  21.38
1557.6  223448.87  48543.73  21.72
1561.2  222167.70  48984.43  22.05
1564.9  220832.54  49393.08  22.37
1568.5  219495.50  49763.82  22.67
1572.2  218337.00  50138.43  22.96
1575.8  217238.00  50516.00  23.25
1579.5  216212.35  50871.05  23.53
1583.1  215134.10  51196.58  23.80
1586.8  213794.00  51432.00  24.06
1590.4  212576.93  51662.71  24.30
1594.0  211242.96  51850.27  24.55
1597.7  210464.45  52157.67  24.78
1601.3  209563.20  52417.13  25.01
1604.9  208584.85  52624.32  25.23
1608.6  207205.03  52695.19  25.43
1612.2  205816.88  52727.99  25.62
1615.8  204356.43  52717.69  25.80
1619.5  203099.83  52724.29  25.96
1623.1  201734.53  52680.27  26.11
1626.7  200513.30  52631.85  26.25
1630.3  199328.42  52563.25  26.37
1634.0  198212.00  52482.00  26.48
1637.6  197214.67  52382.26  26.56
1641.2  196166.10  52191.74  26.61
1644.8  194920.73  51874.32  26.61
1648.5  193830.88  51547.32  26.59
1652.1  192859.80  51209.19  26.55
1655.7  191941.40  50884.69  26.51
1659.3  191109.18  50640.31  26.50
1662.9  189677.50  50295.71  26.52
1666.6  188240.13  49986.90  26.55
1670.2  186807.13  49672.11  26.59
1673.8  185333.62  49302.64  26.60
1677.4  184139.30  48952.21  26.58
1681.0  183312.80  48621.09  26.52
1684.6  182900.25  48336.01  26.43
1688.2  182209.55  47913.92  26.30
1691.8  181522.43  47501.86  26.17
1695.4  181064.20  47119.66  26.02
1699.0  180692.17  46734.13  25.86
1702.6  180342.00  46337.62  25.69
1706.2  179700.73  45874.08  25.53
1709.8  178730.07  45353.02  25.38
1713.4  178002.54  44887.23  25.22
1717.0  177103.25  44384.86  25.06
1720.6  176265.75  43877.53  24.89
1724.2  175518.00  43378.44  24.71
1727.8  174790.70  42896.80  24.54
1731.4  174330.75  42458.04  24.35
1735.0  174154.75  42089.30  24.17
1738.6  173951.55  41677.48  23.96
1742.2  173429.69  41165.76  23.74
1745.8  172802.44  40616.29  23.50
1749.4  171845.03  39977.97  23.26
1753.0  170369.60  39212.79  23.02
1756.6  168712.25  38433.84  22.78
1760.1  167365.93  37751.71  22.56
1763.7  165600.00  36997.14  22.34
1767.3  164147.98  36346.29  22.14
1770.9  162867.83  35761.43  21.96
1774.5  161390.78  35173.83  21.79
1778.0  160226.51  34699.94  21.66
1781.6  159120.45  34277.96  21.54
1785.2  157972.85  33881.37  21.45
1788.8  156783.30  33530.63  21.39
1792.3  155532.33  33195.61  21.34
1795.9  154994.13  33030.45  21.31
1799.5  154865.00  32985.05  21.30
1803.1  156113.18  33250.00  21.30
1806.6  158476.91  33756.95  21.30
1810.2  160324.27  34147.80  21.30
1813.8  161136.60  34312.47  21.29
1817.3  160585.60  34164.25  21.27
1820.9  159315.03  33844.75  21.24
1824.5  157906.78  33475.74  21.20
1828.0  156788.50  33132.33  21.13
1831.6  156442.00  32911.82  21.04
1835.2  156300.83  32666.31  20.90
1838.7  156131.60  32320.06  20.70
1842.3  155910.00  31866.43  20.44
1845.8  154629.33  31061.75  20.09
1849.4  154007.20  30229.31  19.63
1852.9  153087.90  29157.34  19.05
1856.5  151996.28  27824.27  18.31
1860.0  150902.87  26256.58  17.40
1863.6  150939.92  24641.55  16.33
1867.1  151811.80  22885.45  15.07
1870.7  152859.40  20851.00  13.64
1874.2  151714.35  18299.76  12.06
1877.8  148785.93  15575.31  10.47
1881.3  145535.75  12970.98  8.91
1884.9  143573.19  10803.70  7.52
1888.4  141947.63  8986.71  6.33
1891.9  140283.07  7580.83  5.40
1895.5  138890.05  6581.41  4.74
1899.0  138280.13  5959.34  4.31
1901.3  177285.00  4819.28  2.72
1904.1  177246.00  4439.75  2.50
1906.8  176109.00  4126.60  2.34
1909.6  173825.75  3884.88  2.23
1912.4  171693.08  3721.31  2.17
1915.1  170166.70  3588.38  2.11
1917.9  168652.50  3490.44  2.07
1920.6  167322.70  3414.99  2.04
1923.3  165931.73  3363.04  2.03
1926.1  164134.93  3320.89  2.02
1928.8  162448.00  3285.33  2.02
1931.6  161171.42  3260.73  2.02
1934.3  160032.57  3254.49  2.03
1937.0  158923.23  3241.83  2.04
1939.8  157695.50  3251.06  2.06
1942.5  156123.00  3259.67  2.09
1945.2  154116.60  3256.92  2.11
1947.9  152436.43  3270.86  2.15
1950.7  151119.63  3301.13  2.18
1953.4  149228.30  3323.40  2.23
1956.1  147728.67  3361.75  2.28
1958.8  146402.10  3400.58  2.32
1961.5  144835.60  3440.80  2.38
1964.2  143261.30  3491.37  2.44
1966.9  141614.40  3541.57  2.50
1969.6  140328.00  3609.00  2.57
1972.3  138875.60  3672.73  2.64
1975.0  137785.65  3755.35  2.73
1977.7  136649.52  3835.25  2.81
1980.4  135471.30  3921.62  2.89
1983.1  134341.27  4018.38  2.99
1985.8  133397.10  4120.90  3.09
1988.4  132348.67  4226.44  3.19
1991.1  131399.33  4333.93  3.30
1993.8  130516.65  4454.81  3.41
1996.5  129861.78  4581.19  3.53
1999.1  129163.83  4710.44  3.65
2001.8  128464.00  4840.42  3.77
2004.5  127769.15  4979.52  3.90
2007.1  127025.25  5106.38  4.02
2009.8  126245.23  5234.68  4.15
2012.4  125648.23  5373.93  4.28
2015.1  125088.37  5513.82  4.41
2017.8  124276.83  5631.81  4.53
2020.4  123761.18  5767.42  4.66
2023.1  123378.97  5902.32  4.78
2025.7  123136.00  6043.56  4.91
2028.3  122789.33  6170.67  5.03
2031.0  122374.22  6292.52  5.14
2033.6  122087.10  6414.80  5.25
2036.2  121826.10  6533.70  5.36
2038.9  121208.40  6626.50  5.47
2041.5  120856.58  6732.17  5.57
2044.1  120286.20  6817.90  5.67
2046.8  119903.40  6916.50  5.77
2049.4  119268.30  6986.10  5.86
2052.0  118965.47  7068.18  5.94
2054.6  118553.75  7148.75  6.03
2057.2  117969.87  7228.29  6.13
2059.8  117629.27  7324.36  6.23
2062.4  116733.60  7391.73  6.33
2065.0  116188.27  7467.00  6.43
2067.6  115286.63  7513.76  6.52
2070.2  114676.47  7577.69  6.61
2072.8  114031.43  7644.51  6.70
2075.4  113592.50  7726.25  6.80
2078.0  112953.67  7787.89  6.89
2080.6  112367.20  7852.53  6.99
2083.2  111643.50  7901.69  7.08
2085.8  111144.30  7960.63  7.16
2088.4  110478.50  8008.89  7.25
2090.9  109679.33  8049.62  7.34
2093.5  108776.80  8068.26  7.42
2096.1  107982.30  8095.31  7.50
2098.7  107183.02  8121.65  7.58
2101.2  106206.07  8122.00  7.65
2103.8  105516.13  8154.02  7.73
2106.4  104843.67  8188.96  7.81
2108.9  104179.93  8206.42  7.88
2111.5  103315.33  8203.51  7.94
2114.0  102669.07  8218.06  8.00
2116.6  102130.00  8239.58  8.07
2119.1  101561.83  8249.43  8.12
2121.7  101053.75  8265.83  8.18
2124.2  100641.33  8275.73  8.22
2126.8  99813.80  8268.04  8.28
2129.3  99413.60  8292.53  8.34
2131.9  98815.20  8292.53  8.39
2134.4  98367.75  8310.15  8.45
2136.9  97974.28  8323.68  8.50
2139.4  97444.67  8325.80  8.54
2142.0  96992.47  8343.53  8.60
2144.5  96707.40  8383.80  8.67
2147.0  96462.13  8421.16  8.73
2149.5  95952.93  8442.00  8.80
2152.1  95780.30  8483.26  8.86
2154.6  95698.67  8534.76  8.92
2157.1  95157.00  8535.31  8.97
2159.6  94748.25  8550.44  9.02
2162.1  94567.20  8578.27  9.07
2164.6  94310.80  8603.60  9.12
2167.1  93991.42  8620.09  9.17
2169.6  93650.55  8636.01  9.22
2172.1  93182.80  8636.24  9.27
2174.6  92852.00  8655.07  9.32
2177.1  92406.30  8664.44  9.38
2179.5  91974.13  8676.92  9.43
2182.0  91499.10  8683.03  9.49
2184.5  90943.27  8692.10  9.56
2187.0  90314.73  8688.10  9.62
2189.5  89626.98  8664.61  9.67
2191.9  88834.50  8635.50  9.72
2194.4  88184.70  8633.20  9.79
2196.9  87417.60  8608.00  9.85
2199.3  86748.67  8587.22  9.90
2201.8  85838.27  8542.62  9.95
2204.3  85355.92  8527.41  9.99
2206.7  84700.15  8500.55  10.04
2209.2  84215.88  8493.08  10.08
2211.6  83585.70  8467.80  10.13
2214.1  83281.50  8467.45  10.17
2216.5  82714.87  8430.09  10.19
2219.0  82367.20  8413.53  10.21
2221.4  81981.08  8389.50  10.23
2223.9  81495.17  8353.14  10.25
2226.3  80969.58  8296.94  10.25
2228.7  80410.80  8226.23  10.23
2231.1  79794.00  8137.80  10.20
2233.6  79208.40  8052.62  10.17
2236.0  78659.00  7949.86  10.11
2238.4  78143.33  7854.00  10.05
2240.9  77678.67  7751.31  9.98
2243.3  77132.33  7628.80  9.89
2245.7  76545.35  7505.62  9.81
2248.1  76035.70  7385.30  9.71
2250.5  75513.93  7244.57  9.59
2252.9  74869.60  7096.27  9.48
2255.3  74296.65  6948.42  9.35
2257.7  73820.00  6813.33  9.23
2260.1  73313.57  6682.20  9.11
2262.5  72690.00  6533.33  8.99
2264.9  72169.52  6402.65  8.87
2267.3  71550.00  6263.33  8.75
2269.7  71046.03  6143.74  8.65
2272.1  70477.27  6016.68  8.54
2274.5  69893.32  5910.13  8.46
2276.8  69415.50  5806.33  8.36
2279.2  68812.35  5695.00  8.28
2281.6  68382.87  5600.42  8.19
2284.0  67912.40  5501.13  8.10
2286.3  67447.47  5404.45  8.01
2288.7  67016.52  5319.10  7.94
2291.1  66475.73  5212.18  7.84
2293.4  66014.67  5119.64  7.76
2295.8  65374.10  5005.80  7.66
2298.2  64780.65  4905.90  7.57
2300.5  64107.90  4798.95  7.49
2302.9  63343.33  4681.00  7.39
2305.2  62603.40  4576.63  7.31
2307.6  61910.32  4477.43  7.23
2309.9  61121.67  4377.89  7.16
2312.2  60512.00  4291.78  7.09
2314.6  59916.15  4202.10  7.01
2316.9  59212.35  4108.95  6.94
2319.2  58644.23  4032.63  6.88
2321.6  58022.07  3949.13  6.81
2323.9  57447.92  3868.06  6.73
2326.2  56913.83  3787.30  6.65
2328.6  56398.65  3716.72  6.59
2330.9  55870.50  3643.50  6.52
2333.2  55393.17  3570.11  6.45
2335.5  54955.20  3509.60  6.39
2337.8  54498.97  3436.29  6.31
2340.1  53916.67  3360.81  6.23
2342.4  53462.50  3286.11  6.15
2344.8  53022.25  3220.42  6.07
2347.1  52464.53  3154.74  6.01
2349.4  51910.53  3095.68  5.96
2351.6  51315.63  3022.24  5.89
2353.9  50819.53  2949.58  5.80
2356.2  50302.92  2897.74  5.76
2358.5  49694.40  2833.60  5.70
2360.8  49089.60  2777.60  5.66
2363.1  48635.47  2710.70  5.57
2365.4  48183.20  2640.43  5.48
2367.7  47697.60  2576.40  5.40
2369.9  47151.10  2530.45  5.37
2372.2  46531.73  2465.33  5.30
2374.5  45934.35  2398.55  5.22
2376.7  45316.62  2334.95  5.15
2379.0  44695.27  2272.38  5.08
2381.3  44065.00  2216.67  5.03
2383.5  43530.67  2158.93  4.96
2385.8  42924.80  2094.47  4.88
2388.0  42385.60  2033.53  4.80
2390.3  41853.73  1969.87  4.71
2392.5  41352.00  1920.00  4.64
2394.8  40910.10  1871.47  4.57
2397.0  40416.13  1815.96  4.49
2399.3  39936.97  1774.70  4.44
2401.5  39481.75  1727.25  4.37
2403.8  38932.98  1679.17  4.31
2406.0  38417.17  1618.31  4.21
2408.2  38023.33  1570.80  4.13
2410.4  37599.80  1531.29  4.07
2412.7  37184.77  1499.62  4.03
2414.9  36811.50  1463.18  3.97
2417.1  36398.20  1422.40  3.91
2419.3  35980.80  1378.13  3.83
2421.6  35598.33  1343.33  3.77
2423.8  35217.47  1309.63  3.72
2426.0  34834.28  1263.71  3.63
2428.2  34469.87  1232.62  3.58
2430.4  34155.23  1199.82  3.51
2432.6  33893.33  1173.33  3.46
2434.8  33577.07  1140.62  3.40
2437.0  33207.20  1114.97  3.36
2439.2  32845.50  1090.34  3.32
2441.4  32542.77  1058.86  3.25
2443.6  32317.18  1017.83  3.15
2445.7  32028.85  990.34  3.09
2447.9  31743.92  960.25  3.02
2450.1  31429.85  950.72  3.02
2452.3  31056.67  931.70  3.00
2454.5  30692.73  903.01  2.94
2456.6  30316.67  884.53  2.92
2458.8  29929.90  858.00  2.87
2461.0  29640.67  850.58  2.87
2463.1  29347.35  819.65  2.79
2465.3  29061.80  804.83  2.77
2467.5  28806.75  786.67  2.73
2469.6  28550.50  775.67  2.72
2471.8  28261.37  745.83  2.64
2473.9  27934.33  739.08  2.65
2476.1  27573.00  717.89  2.60
2478.2  27221.97  710.89  2.61
2480.4  26923.90  690.75  2.57
2482.5  26584.88  686.43  2.58
2484.6  26242.33  670.08  2.55
2486.8  25983.50  664.63  2.56
2488.9  25695.27  647.12  2.52
2491.1  25323.20  634.67  2.51
2493.2  24939.93  617.38  2.48
2495.3  24514.97  598.58  2.44
2497.4  24166.10  584.97  2.42
2499.5  23838.05  571.81  2.40
2501.7  23746.17  553.26  2.33
2503.8  23654.08  557.22  2.36
2505.9  23592.08  563.75  2.39
2508.0  23594.95  572.21  2.43
2510.1  23623.88  566.31  2.40
2512.2  23726.55  562.73  2.37
2514.3  23919.00  550.51  2.30
2516.4  24132.50  617.27  2.56
