/*** Spectra Vista SIG Data ***/
name= 21_20220824_BENI_69_avg.sig
comm= Averaged Ref/Tar of files: HR.082422.0059_moc.sig,HR.082422.0060_moc.sig,HR.082422.0061_moc.sig
data=
337.3  3523.38  370.53  10.52
338.8  3703.70  371.97  10.04
340.3  3841.70  356.06  9.27
341.8  4023.80  352.08  8.75
343.2  4173.60  340.40  8.16
344.7  4350.30  329.83  7.58
346.2  4534.35  321.35  7.09
347.7  4758.33  327.71  6.89
349.2  4951.80  304.92  6.16
350.6  5178.23  306.04  5.91
352.1  5465.93  302.47  5.53
353.6  5794.90  298.42  5.15
355.1  6061.50  299.71  4.94
356.6  6391.13  301.53  4.72
358.0  6635.20  316.87  4.78
359.5  6921.60  317.24  4.58
361.0  7241.85  328.18  4.53
362.5  7640.78  333.74  4.37
364.0  8000.33  329.76  4.12
365.4  8373.80  327.83  3.91
366.9  8757.13  337.95  3.86
368.4  9109.85  358.21  3.93
369.9  9485.78  371.14  3.91
371.3  9905.70  385.37  3.89
372.8  10301.40  395.60  3.84
374.3  10750.00  395.96  3.68
375.8  11184.25  400.66  3.58
377.2  11620.80  403.50  3.47
378.7  12024.30  416.05  3.46
380.2  12481.60  424.12  3.40
381.7  12972.00  435.10  3.35
383.1  13475.00  441.08  3.27
384.6  14000.03  453.18  3.24
386.1  14485.40  457.62  3.16
387.6  14957.25  478.81  3.20
389.0  15463.60  487.76  3.15
390.5  15956.55  502.68  3.15
392.0  16531.25  512.25  3.10
393.4  17131.30  524.62  3.06
394.9  17669.70  540.27  3.06
396.4  18241.88  557.18  3.05
397.9  18783.13  574.00  3.06
399.3  19373.63  592.61  3.06
400.8  19940.00  611.49  3.07
402.2  20622.00  634.21  3.08
403.7  21210.08  652.43  3.08
405.2  21828.35  668.42  3.06
406.6  22411.20  685.17  3.06
408.1  23006.80  702.86  3.06
409.6  23640.15  733.13  3.10
411.0  24317.65  752.94  3.10
412.5  24990.00  778.86  3.12
414.0  25672.50  802.78  3.13
415.4  26374.13  831.44  3.15
416.9  27062.10  858.38  3.17
418.4  27788.40  887.69  3.19
419.8  28519.40  914.85  3.21
421.3  29250.83  947.10  3.24
422.7  30067.20  977.30  3.25
424.2  30864.38  1007.44  3.26
425.7  31638.30  1045.37  3.30
427.1  32409.60  1078.74  3.33
428.6  33216.50  1112.38  3.35
430.0  33976.83  1145.71  3.37
431.5  34894.65  1182.56  3.39
432.9  35789.95  1216.93  3.40
434.4  36700.65  1249.14  3.40
435.9  37548.00  1289.40  3.43
437.3  38403.75  1328.71  3.46
438.8  39258.90  1367.00  3.48
440.2  40142.03  1406.79  3.50
441.7  41138.00  1453.01  3.53
443.1  42068.75  1489.74  3.54
444.6  43072.80  1530.95  3.55
446.0  44024.18  1572.14  3.57
447.5  45017.78  1619.50  3.60
448.9  45975.60  1662.81  3.62
450.4  47021.45  1717.17  3.65
451.8  47892.00  1759.33  3.67
453.3  48835.13  1799.12  3.68
454.7  49880.55  1846.70  3.70
456.2  50784.00  1887.65  3.72
457.6  51785.78  1936.38  3.74
459.1  52793.65  1980.10  3.75
460.5  53767.50  2021.85  3.76
462.0  54843.88  2065.72  3.77
463.4  55909.70  2112.08  3.78
464.8  56929.13  2153.40  3.78
466.3  57951.30  2196.32  3.79
467.7  58974.25  2244.96  3.81
469.2  60072.10  2295.16  3.82
470.6  61061.30  2339.33  3.83
472.0  62112.98  2379.14  3.83
473.5  63152.88  2428.09  3.84
474.9  64210.50  2478.08  3.86
476.4  65390.40  2536.80  3.88
477.8  66526.00  2589.70  3.89
479.2  67570.00  2637.55  3.90
480.7  68698.35  2692.83  3.92
482.1  69865.75  2741.65  3.92
483.6  71094.00  2803.78  3.94
485.0  72230.25  2859.78  3.96
486.4  73477.50  2922.61  3.98
487.9  74602.13  2983.50  4.00
489.3  75833.75  3050.04  4.02
490.7  76938.13  3115.32  4.05
492.2  78204.00  3189.41  4.08
493.6  79344.40  3264.02  4.11
495.0  80496.00  3339.38  4.15
496.5  81725.08  3423.68  4.19
497.9  82869.73  3517.60  4.24
499.3  84087.75  3619.83  4.30
500.7  85380.20  3738.68  4.38
502.2  86578.00  3858.29  4.46
503.6  87848.20  3996.99  4.55
505.0  88969.45  4141.07  4.65
506.5  90304.80  4316.27  4.78
507.9  91574.03  4515.70  4.93
509.3  92988.40  4744.88  5.10
510.7  94287.38  4995.41  5.30
512.2  95723.18  5282.89  5.52
513.6  97235.60  5610.85  5.77
515.0  98693.05  5975.45  6.05
516.4  100103.85  6380.17  6.37
517.8  101770.63  6837.91  6.72
519.3  103127.53  7307.74  7.09
520.7  104714.65  7828.19  7.48
522.1  106056.28  8358.91  7.88
523.5  107433.10  8906.66  8.29
524.9  108851.85  9462.29  8.69
526.3  110236.70  10005.30  9.08
527.8  111775.95  10556.87  9.44
529.2  113135.70  11082.12  9.80
530.6  114805.25  11612.98  10.12
532.0  116606.00  12129.60  10.40
533.4  117898.88  12560.95  10.65
534.8  118813.40  12915.98  10.87
536.3  120602.10  13334.73  11.06
537.7  122724.00  13759.20  11.21
539.1  124236.00  14103.91  11.35
540.5  125476.65  14401.76  11.48
541.9  127264.20  14758.79  11.60
543.3  128575.10  15061.78  11.71
544.7  129914.40  15359.22  11.82
546.1  131737.10  15716.22  11.93
547.5  133044.80  15999.57  12.03
549.0  134948.00  16339.77  12.11
550.4  136478.13  16621.40  12.18
551.8  138024.85  16864.21  12.22
553.2  139610.80  17074.25  12.23
554.6  141003.20  17219.28  12.21
556.0  142602.30  17337.63  12.16
557.4  144250.58  17417.59  12.07
558.8  145935.00  17458.38  11.96
560.2  147418.38  17438.99  11.83
561.6  149150.48  17409.06  11.67
563.0  150787.63  17330.89  11.49
564.4  152426.40  17221.47  11.30
565.8  153988.13  17075.44  11.09
567.2  155789.00  16916.20  10.86
568.6  157350.38  16705.09  10.62
570.0  158841.18  16458.48  10.36
571.4  160644.90  16226.19  10.10
572.8  162447.25  15995.53  9.85
574.2  164124.80  15766.61  9.61
575.6  165712.50  15556.13  9.39
577.0  167296.50  15360.84  9.18
578.4  169089.38  15219.37  9.00
579.8  170633.25  15073.56  8.83
581.2  172421.20  14977.28  8.69
582.5  173873.70  14865.24  8.55
583.9  175454.20  14783.04  8.43
585.3  177312.83  14746.85  8.32
586.7  178835.80  14694.95  8.22
588.1  180371.50  14669.23  8.13
589.5  182059.50  14671.42  8.06
590.9  183743.20  14693.17  8.00
592.3  185614.50  14748.34  7.95
593.7  187108.35  14785.81  7.90
595.0  188784.00  14845.79  7.86
596.4  190274.35  14896.82  7.83
597.8  191797.18  14943.85  7.79
599.2  193406.40  14991.68  7.75
600.6  195197.93  15040.82  7.71
602.0  196542.00  15025.71  7.65
603.3  198372.00  15027.40  7.58
604.7  200078.93  14991.90  7.49
606.1  201631.80  14917.34  7.40
607.5  203305.00  14833.37  7.30
608.9  205059.75  14736.11  7.19
610.2  206501.40  14604.50  7.07
611.6  208113.60  14483.05  6.96
613.0  209712.85  14363.78  6.85
614.4  211135.05  14240.09  6.74
615.8  212632.88  14127.75  6.64
617.1  214223.10  14046.83  6.56
618.5  215902.40  13994.39  6.48
619.9  217457.25  13952.39  6.42
621.3  219145.28  13943.37  6.36
622.6  220804.75  13954.26  6.32
624.0  222325.50  13979.68  6.29
625.4  223886.03  14015.54  6.26
626.8  225545.78  14076.11  6.24
628.1  226939.08  14140.63  6.23
629.5  228871.25  14252.26  6.23
630.9  230555.60  14344.30  6.22
632.2  231997.33  14409.51  6.21
633.6  233704.88  14469.48  6.19
635.0  235313.20  14489.28  6.16
636.3  236923.50  14480.68  6.11
637.7  238385.00  14431.10  6.05
639.1  240100.00  14362.25  5.98
640.4  241634.93  14259.01  5.90
641.8  242901.28  14115.62  5.81
643.2  244563.20  13978.39  5.72
644.5  245973.50  13838.37  5.63
645.9  247783.50  13711.43  5.53
647.2  250035.10  13635.45  5.45
648.6  252072.00  13577.63  5.39
650.0  253605.60  13500.72  5.32
651.3  253882.48  13360.99  5.26
652.7  254633.35  13267.58  5.21
654.0  256846.40  13233.15  5.15
655.4  258450.70  13178.37  5.10
656.8  258689.20  13047.20  5.04
658.1  259801.50  12943.54  4.98
659.5  262321.50  12901.61  4.92
660.8  264442.50  12847.50  4.86
662.2  265350.40  12726.19  4.80
663.5  267018.25  12660.94  4.74
664.9  268515.00  12616.89  4.70
666.2  269286.00  12578.52  4.67
667.6  271025.50  12598.00  4.65
668.9  272327.25  12632.77  4.64
670.3  273176.38  12656.05  4.63
671.6  275058.00  12749.16  4.64
673.0  276319.13  12854.63  4.65
674.3  277642.30  12973.44  4.67
675.7  279028.00  13116.97  4.70
677.0  280246.10  13275.94  4.74
678.4  281721.78  13467.55  4.78
679.7  282889.10  13674.59  4.83
681.1  284281.85  13919.02  4.90
682.4  285532.00  14185.25  4.97
683.8  286946.40  14516.75  5.06
685.1  288023.25  14891.60  5.17
686.4  289354.80  15369.80  5.31
687.8  290696.25  15977.73  5.50
689.1  291875.50  16749.06  5.74
690.5  293343.75  17769.00  6.06
691.8  294175.28  19068.54  6.48
693.1  295559.85  20797.99  7.04
694.5  296819.25  22933.52  7.73
695.8  298116.00  25534.60  8.57
697.1  299390.00  28592.20  9.55
698.5  300525.30  32134.88  10.69
699.8  301736.23  36122.03  11.97
701.1  302938.00  40521.74  13.38
702.5  303793.60  45205.99  14.88
703.8  304830.00  50166.75  16.46
705.1  306123.68  55337.43  18.08
706.5  307275.88  60632.52  19.73
707.8  308340.60  65987.63  21.40
709.1  309312.88  71352.93  23.07
710.5  310563.08  76783.86  24.72
711.8  311508.70  82131.64  26.37
713.1  312646.00  87481.41  27.98
714.4  313649.50  92737.52  29.57
715.8  314563.80  97892.54  31.12
717.1  316006.65  103113.96  32.63
718.4  317027.20  108103.15  34.10
719.7  318268.48  113017.79  35.51
721.0  318870.00  117583.50  36.88
722.4  319736.45  122069.92  38.18
723.7  320814.60  126464.01  39.42
725.0  321945.08  130715.72  40.60
726.3  323019.40  134733.69  41.71
727.6  323658.50  138384.93  42.76
729.0  324663.85  141998.21  43.74
730.3  325527.45  145341.48  44.65
731.6  326530.75  148564.35  45.50
732.9  327432.70  151547.40  46.28
734.2  328372.00  154365.38  47.01
735.5  329514.68  157114.85  47.68
736.8  330378.00  159564.20  48.30
738.1  331325.70  161884.26  48.86
739.5  332382.08  164134.55  49.38
740.8  333202.65  166102.04  49.85
742.1  334041.33  167975.33  50.29
743.4  334875.00  169732.50  50.69
744.7  335985.55  171513.92  51.05
746.0  336952.20  173105.86  51.37
747.3  337593.65  174427.64  51.67
748.6  338432.25  175749.76  51.93
749.9  339326.00  176982.00  52.16
751.2  340133.05  178138.16  52.37
752.5  341152.90  179299.22  52.56
753.8  341869.33  180251.26  52.73
755.1  342706.00  181194.87  52.87
756.4  343415.48  182014.62  53.00
757.7  344528.98  182996.96  53.12
759.0  346510.93  184392.35  53.21
760.3  347846.40  185401.92  53.30
761.6  349603.80  186598.11  53.37
762.9  350264.50  187191.15  53.44
764.2  350695.30  187649.02  53.51
765.5  351108.80  188044.45  53.56
766.8  351668.80  188495.09  53.60
768.1  352336.60  188974.15  53.63
769.3  353062.85  189478.08  53.67
770.6  353847.00  190004.10  53.70
771.9  354723.25  190566.31  53.72
773.2  355227.20  190927.52  53.75
774.5  355955.60  191395.01  53.77
775.8  356816.80  191908.28  53.78
777.1  357495.60  192353.08  53.81
778.4  357955.13  192657.25  53.82
779.6  358869.93  193219.44  53.84
780.9  359520.00  193596.00  53.85
782.2  360065.75  193958.97  53.87
783.5  360540.50  194235.18  53.87
784.8  361207.35  194647.55  53.89
786.0  361713.80  194962.66  53.90
787.3  362245.78  195290.83  53.91
788.6  362836.83  195634.64  53.92
789.9  363441.40  196006.77  53.93
791.2  364221.08  196458.74  53.94
792.4  365066.23  196933.30  53.94
793.7  365730.00  197286.01  53.94
795.0  366460.05  197721.78  53.95
796.2  367268.48  198190.13  53.96
797.5  368154.45  198697.61  53.97
798.8  369017.10  199168.02  53.97
800.0  369807.05  199636.11  53.98
801.3  370458.20  199985.58  53.98
802.6  371224.35  200398.31  53.98
803.8  371973.05  200850.33  54.00
805.1  372638.00  201204.70  53.99
806.4  373227.60  201554.08  54.00
807.7  373900.05  201941.17  54.01
808.9  374621.10  202341.36  54.01
810.2  375250.40  202697.71  54.02
811.4  375937.50  203069.07  54.02
812.7  376675.00  203496.04  54.02
814.0  377674.70  204035.42  54.02
815.2  378380.25  204467.84  54.04
816.5  378953.10  204771.65  54.04
817.7  379479.60  205104.38  54.05
819.0  380144.05  205464.91  54.05
820.2  380380.00  205631.07  54.06
821.5  381266.35  206093.98  54.06
822.7  381713.53  206363.45  54.06
824.0  382071.60  206592.84  54.07
825.2  382706.78  206918.75  54.07
826.5  383116.60  207160.63  54.07
827.7  383719.75  207520.83  54.08
829.0  384294.08  207800.76  54.07
830.2  384671.55  208006.48  54.07
831.5  385202.15  208324.77  54.08
832.7  385655.03  208549.76  54.08
834.0  386023.68  208769.00  54.08
835.2  386426.43  209014.48  54.09
836.4  386787.50  209244.04  54.10
837.7  387259.00  209508.29  54.10
838.9  387838.15  209810.05  54.10
840.1  388253.25  210067.61  54.11
841.4  388740.80  210385.85  54.12
842.6  389167.40  210654.03  54.13
843.8  389514.20  210893.59  54.14
845.1  390107.55  211212.80  54.14
846.3  390529.80  211487.89  54.15
847.5  390978.00  211755.39  54.16
848.8  391503.00  212027.56  54.16
850.0  391875.75  212260.29  54.17
851.2  392501.70  212627.30  54.17
852.5  392937.30  212886.58  54.18
853.7  393457.50  213202.20  54.19
854.9  394022.10  213505.20  54.19
856.1  394536.35  213804.83  54.19
857.4  394741.50  213938.14  54.20
858.6  395218.05  214247.50  54.21
859.8  395715.00  214489.00  54.20
861.0  396279.00  214797.96  54.20
862.2  396811.73  215080.06  54.20
863.5  397192.25  215319.38  54.21
864.7  397775.40  215653.46  54.21
865.9  398268.40  215903.65  54.21
867.1  398630.40  216129.95  54.22
868.3  399175.05  216386.36  54.21
869.5  399734.60  216676.73  54.21
870.8  400401.00  217027.95  54.20
872.0  401007.45  217347.69  54.20
873.2  401534.70  217658.17  54.21
874.4  401982.75  217939.41  54.22
875.6  402464.88  218155.37  54.20
876.8  403008.05  218451.28  54.21
878.0  403595.95  218745.79  54.20
879.2  404158.50  219055.56  54.20
880.4  404828.63  219384.61  54.19
881.6  405452.55  219692.02  54.18
882.8  405915.20  219957.76  54.19
884.0  406642.78  220324.72  54.18
885.2  407278.80  220650.28  54.18
886.5  407999.20  221052.88  54.18
887.7  408533.45  221344.47  54.18
888.8  409459.65  221734.36  54.15
890.0  410108.20  222120.37  54.16
891.2  410780.80  222475.03  54.16
892.4  411648.30  222827.29  54.13
893.6  412185.30  223169.08  54.14
894.8  413287.00  223674.81  54.12
896.0  414368.75  224232.22  54.11
897.2  415291.50  224716.16  54.11
898.4  416258.70  225179.35  54.10
899.6  416954.25  225561.10  54.10
900.8  417483.00  225827.38  54.09
902.0  417853.65  226028.13  54.09
903.2  418363.88  226238.45  54.08
904.3  418820.40  226442.67  54.07
905.5  419603.35  226839.91  54.06
906.7  420290.50  227211.87  54.06
907.9  420988.40  227570.95  54.06
909.1  421557.75  227812.46  54.04
910.2  421948.28  227904.97  54.01
911.4  422375.85  228125.33  54.01
912.6  422750.90  228250.64  53.99
913.8  423154.65  228442.72  53.99
915.0  423705.45  228712.65  53.98
916.2  424105.50  228893.60  53.97
917.3  424224.45  228963.86  53.97
918.5  424646.40  229110.44  53.95
919.7  425169.60  229317.96  53.94
920.8  425413.95  229308.50  53.90
922.0  425675.25  229434.33  53.90
923.2  426016.50  229588.45  53.89
924.4  426471.75  229757.85  53.87
925.5  426932.90  229867.52  53.84
926.7  427836.88  230258.34  53.82
927.9  428883.60  230723.76  53.80
929.0  430560.90  231496.38  53.77
930.2  433038.50  232730.05  53.74
931.4  435771.90  234071.62  53.71
932.5  438809.65  235576.44  53.69
933.7  440533.63  236337.39  53.65
934.9  441433.13  236726.00  53.63
936.0  441332.13  236526.01  53.59
937.2  439269.75  235314.02  53.57
938.3  437765.85  234322.01  53.53
939.5  436197.60  233377.56  53.50
940.7  436626.00  233468.85  53.47
941.8  438562.50  234227.46  53.41
943.0  440238.00  234984.80  53.38
944.2  441282.40  235423.67  53.35
945.3  441265.50  235076.08  53.27
946.5  440602.20  234531.23  53.23
947.6  440707.70  234472.01  53.20
948.8  441018.83  234265.79  53.12
949.9  441386.40  234175.62  53.05
951.1  441155.00  233845.57  53.01
952.2  441252.00  233471.20  52.91
953.4  441235.25  233018.08  52.81
954.5  441207.00  232818.30  52.77
955.7  441252.00  232478.40  52.69
956.8  441465.40  232172.45  52.59
958.0  441449.50  231777.60  52.50
959.1  441518.10  231518.61  52.44
960.3  441322.03  231216.87  52.39
961.4  441188.55  231023.93  52.36
962.6  441619.50  231150.97  52.34
963.7  441585.00  230924.42  52.29
964.9  441804.00  230834.22  52.25
966.0  441826.65  230763.13  52.23
967.2  442187.10  230875.91  52.21
968.3  442300.50  230819.36  52.19
969.5  442287.65  230789.16  52.18
970.6  442615.43  230797.14  52.14
971.8  443149.00  231016.37  52.13
972.9  443359.50  230952.83  52.09
974.0  443549.90  231247.78  52.14
975.2  443462.50  231237.27  52.14
976.3  443495.43  231308.38  52.16
977.5  443599.28  231455.71  52.18
978.6  443710.90  231564.54  52.19
979.7  444262.35  231744.12  52.16
980.9  444612.05  231745.39  52.12
982.0  444433.70  231863.85  52.17
983.2  443993.83  231721.52  52.19
984.3  444284.60  231640.67  52.14
985.4  444345.60  232105.00  52.24
986.6  444626.50  232323.49  52.25
987.7  446121.90  233126.96  52.26
988.9  446041.80  233430.84  52.33
990.0  446807.80  233810.01  52.33
993.1  357102.78  185292.64  51.89
996.9  359034.18  186931.01  52.06
1000.7  360945.90  188446.33  52.21
1004.5  361968.83  189474.76  52.35
1008.4  361941.75  189936.58  52.48
1012.2  362107.08  190508.30  52.61
1016.0  362532.60  191182.13  52.74
1019.8  363259.05  192000.78  52.86
1023.7  364050.29  192785.82  52.96
1027.5  364718.20  193482.93  53.05
1031.3  365938.83  194355.78  53.11
1035.1  366505.59  194881.75  53.17
1038.9  366923.15  195273.75  53.22
1042.7  366924.25  195443.69  53.27
1046.5  366860.83  195530.44  53.30
1050.3  367040.58  195729.77  53.33
1054.2  366857.17  195736.85  53.36
1058.0  366371.54  195546.74  53.37
1061.8  366228.24  195519.01  53.39
1065.6  366136.37  195496.98  53.39
1069.4  366774.47  195825.69  53.39
1073.2  367081.19  195975.68  53.39
1077.0  366965.55  195836.40  53.37
1080.8  366185.42  195347.22  53.35
1084.6  364413.00  194320.02  53.32
1088.4  363094.08  193512.01  53.30
1092.2  362027.25  192796.50  53.25
1096.0  361521.43  192354.30  53.21
1099.8  361206.30  191972.25  53.15
1103.6  360770.62  191528.16  53.09
1107.4  360136.62  190921.82  53.01
1111.2  360016.90  190612.93  52.95
1114.9  359377.67  189973.13  52.86
1118.7  358662.15  189219.80  52.76
1122.5  357810.27  188305.48  52.63
1126.3  356581.87  187040.79  52.45
1130.1  356049.98  185902.90  52.21
1133.9  354519.20  183970.58  51.89
1137.7  353246.50  181876.04  51.49
1141.4  351666.90  179350.46  51.00
1145.2  351117.37  177195.83  50.47
1149.0  350132.71  174874.91  49.95
1152.8  348634.55  172521.03  49.48
1156.6  347096.75  170537.03  49.13
1160.3  345484.67  168894.96  48.89
1164.1  343071.30  167166.92  48.73
1167.9  341214.58  165972.69  48.64
1171.7  339916.50  165175.50  48.59
1175.4  338963.17  164600.94  48.56
1179.2  338210.15  164115.55  48.52
1183.0  338031.00  163873.26  48.48
1186.7  337262.57  163343.18  48.43
1190.5  335761.27  162473.72  48.39
1194.3  334351.87  161699.12  48.36
1198.0  333313.48  161180.01  48.36
1201.8  332041.03  160588.23  48.36
1205.6  330779.00  160085.33  48.40
1209.3  329655.55  159723.58  48.45
1213.1  328462.95  159369.05  48.52
1216.8  327281.08  159093.51  48.61
1220.6  326233.60  158905.19  48.71
1224.3  325028.67  158636.02  48.81
1228.1  323980.00  158506.62  48.92
1231.9  322968.40  158317.59  49.02
1235.6  321738.08  157983.58  49.10
1239.4  320554.88  157654.42  49.18
1243.1  319444.86  157305.97  49.24
1246.9  318335.98  156913.23  49.29
1250.6  317437.93  156593.87  49.33
1254.3  316450.84  156193.83  49.36
1258.1  315602.58  155837.03  49.38
1261.8  314469.87  155313.60  49.39
1265.6  312960.05  154558.36  49.39
1269.3  311132.28  153584.97  49.36
1273.1  310791.74  153302.30  49.33
1276.8  311321.20  153405.60  49.28
1280.6  311866.83  153482.96  49.21
1284.3  311009.60  152826.13  49.14
1288.0  309582.41  151819.88  49.04
1291.8  307779.58  150556.64  48.92
1295.5  305904.13  149193.90  48.77
1299.2  304533.23  147986.38  48.59
1302.9  303191.88  146700.99  48.39
1306.7  301799.17  145301.51  48.15
1310.4  300508.73  143811.11  47.86
1314.1  299311.83  142258.93  47.53
1317.9  298250.63  140629.77  47.15
1321.6  296966.70  138774.18  46.73
1325.3  295410.68  136646.07  46.26
1329.0  294081.90  134520.50  45.74
1332.8  291907.00  131902.71  45.19
1336.5  290005.60  129362.95  44.61
1340.2  289577.17  127467.41  44.02
1343.9  289019.17  125512.69  43.43
1347.6  288219.75  123486.70  42.84
1351.4  288021.00  121774.89  42.28
1355.1  287946.63  120142.00  41.72
1358.8  287360.00  118272.00  41.16
1362.5  286588.65  116211.98  40.55
1366.2  284659.90  113451.95  39.86
1369.9  283241.75  110585.25  39.04
1373.6  281815.16  107236.71  38.05
1377.3  280062.60  103141.53  36.83
1381.0  278567.83  98289.74  35.28
1384.8  276201.25  92173.61  33.37
1388.4  274130.15  85628.05  31.24
1392.2  272548.17  78851.22  28.93
1395.9  270966.73  71991.42  26.57
1399.6  269270.69  65460.02  24.31
1403.3  268175.32  59741.59  22.28
1407.0  267214.00  54880.22  20.54
1410.7  266192.85  50894.98  19.12
1414.3  265272.76  47797.81  18.02
1418.1  264392.92  45480.82  17.20
1421.7  263753.93  43815.80  16.61
1425.4  263050.78  42641.01  16.21
1429.1  262374.38  41850.75  15.95
1432.8  261047.98  41273.79  15.81
1436.5  260237.74  41001.36  15.76
1440.2  259293.97  40878.07  15.77
1443.9  257905.27  40798.16  15.82
1447.6  256286.80  40775.78  15.91
1451.2  255274.80  40878.73  16.01
1454.9  254126.10  41009.37  16.14
1458.6  253177.80  41243.85  16.29
1462.3  252124.03  41572.18  16.49
1466.0  250802.89  42018.31  16.75
1469.7  249161.90  42575.80  17.09
1473.3  248132.00  43395.74  17.49
1477.0  246308.00  44194.99  17.94
1480.7  244814.86  45125.88  18.43
1484.4  242972.15  46023.48  18.94
1488.0  241486.67  47011.56  19.47
1491.7  239872.41  47974.16  20.00
1495.4  238145.22  48909.53  20.54
1499.0  236509.50  49851.00  21.08
1502.7  235222.33  50836.37  21.61
1506.4  233825.46  51785.72  22.15
1510.0  232481.40  52703.32  22.67
1513.7  231081.96  53577.87  23.19
1517.4  229835.00  54450.74  23.69
1521.0  228708.93  55313.45  24.19
1524.7  227516.25  56108.00  24.66
1528.3  226226.00  56839.00  25.12
1532.0  225005.55  57536.40  25.57
1535.7  223617.08  58138.87  26.00
1539.3  222384.94  58750.79  26.42
1543.0  221429.73  59392.22  26.82
1546.6  220770.33  60073.24  27.21
1550.3  219798.20  60639.80  27.59
1553.9  218751.60  61144.79  27.95
1557.6  217513.27  61557.47  28.30
1561.2  216266.85  61919.40  28.63
1564.9  214984.33  62242.39  28.95
1568.5  213706.15  62530.53  29.26
1572.2  212590.55  62828.48  29.55
1575.8  211554.00  63143.11  29.85
1579.5  210589.25  63442.23  30.13
1583.1  209626.40  63734.16  30.40
1586.8  208460.00  63939.56  30.67
1590.4  207510.90  64194.70  30.94
1594.0  206261.68  64335.56  31.19
1597.7  204950.85  64452.96  31.45
1601.3  203411.25  64477.35  31.70
1604.9  201905.40  64474.07  31.93
1608.6  200576.93  64494.24  32.15
1612.2  199758.08  64639.67  32.36
1615.8  198822.33  64729.09  32.56
1619.5  197825.42  64771.26  32.74
1623.1  196566.87  64696.70  32.91
1626.7  195314.60  64601.77  33.08
1630.3  194123.58  64489.83  33.22
1634.0  192934.00  64353.33  33.36
1637.6  191813.07  64197.14  33.47
1641.2  190672.55  63989.94  33.56
1644.8  189333.83  63653.66  33.62
1648.5  188194.21  63334.21  33.65
1652.1  187163.40  62989.40  33.65
1655.7  186218.80  62593.60  33.61
1659.3  185346.74  62177.11  33.55
1662.9  183954.17  61574.63  33.47
1666.6  182543.13  60996.19  33.41
1670.2  181183.80  60447.71  33.36
1673.8  179806.91  59909.21  33.32
1677.4  178730.05  59459.60  33.27
1681.0  177992.45  59083.72  33.19
1684.6  177604.92  58783.83  33.10
1688.2  176931.60  58329.45  32.97
1691.8  176261.73  57873.98  32.83
1695.4  175867.00  57459.51  32.67
1699.0  175553.93  57056.69  32.50
1702.6  175282.33  56638.96  32.31
1706.2  174758.68  56106.05  32.10
1709.8  173920.99  55468.84  31.89
1713.4  173240.23  54875.39  31.68
1717.0  172427.50  54234.11  31.45
1720.6  171670.73  53616.83  31.23
1724.2  170965.88  53023.55  31.01
1727.8  170245.60  52434.20  30.80
1731.4  169747.88  51959.42  30.61
1735.0  169513.67  51608.17  30.44
1738.6  169208.40  51242.50  30.28
1742.2  168606.60  50739.82  30.09
1745.8  167937.84  50184.38  29.88
1749.4  166954.43  49519.07  29.66
1753.0  165445.53  48684.92  29.43
1756.6  163781.04  47807.47  29.19
1760.1  162449.79  47041.94  28.96
1763.7  160754.67  46197.63  28.74
1767.3  159383.03  45487.91  28.54
1770.9  158169.14  44861.68  28.36
1774.5  156752.33  44205.07  28.20
1778.0  155608.24  43657.47  28.06
1781.6  154530.00  43150.57  27.92
1785.2  153390.23  42664.32  27.81
1788.8  152238.20  42222.95  27.73
1792.3  151053.73  41803.65  27.67
1795.9  150609.98  41627.83  27.64
1799.5  150039.67  41443.55  27.62
1803.1  148572.08  41012.27  27.60
1806.6  147982.74  40817.31  27.58
1810.2  148695.63  40957.21  27.54
1813.8  149890.10  41243.19  27.52
1817.3  150281.00  41319.65  27.49
1820.9  149975.97  41192.16  27.47
1824.5  148989.63  40866.64  27.43
1828.0  148454.63  40637.06  27.37
1831.6  147703.68  40316.94  27.30
1835.2  146894.17  39931.11  27.18
1838.7  146408.80  39550.04  27.01
1842.3  145950.00  39096.67  26.79
1845.8  145255.54  38439.85  26.46
1849.4  144923.38  37741.80  26.04
1852.9  144235.23  36787.75  25.51
1856.5  143438.33  35578.44  24.80
1860.0  142752.05  34146.09  23.92
1863.6  142569.16  32599.17  22.87
1867.1  142293.55  30770.91  21.62
1870.7  141840.73  28544.30  20.12
1874.2  140884.20  25862.80  18.36
1877.8  140014.27  23103.85  16.50
1881.3  139184.63  20355.06  14.62
1884.9  138757.12  17833.02  12.85
1888.4  138009.66  15452.72  11.20
1891.9  137408.93  13454.89  9.79
1895.5  136508.30  11865.90  8.69
1899.0  136265.25  10734.95  7.88
1901.3  162827.17  9031.50  5.55
1904.1  162830.25  8395.75  5.16
1906.8  162234.60  7914.80  4.88
1909.6  160854.05  7521.27  4.68
1912.4  159548.67  7242.08  4.54
1915.1  158567.20  7027.53  4.43
1917.9  157371.33  6867.89  4.36
1920.6  156319.50  6759.44  4.32
1923.3  155312.50  6670.85  4.30
1926.1  154047.73  6615.83  4.29
1928.8  152870.67  6590.22  4.31
1931.6  151858.98  6585.94  4.34
1934.3  150905.28  6617.17  4.38
1937.0  149980.67  6650.86  4.43
1939.8  149019.58  6702.89  4.50
1942.5  147884.00  6757.67  4.57
1945.2  146425.40  6806.43  4.65
1947.9  145252.57  6872.84  4.73
1950.7  144322.03  6960.38  4.82
1953.4  142782.05  7028.80  4.92
1956.1  141570.17  7125.28  5.03
1958.8  140486.02  7229.74  5.15
1961.5  139131.60  7338.53  5.27
1964.2  137719.40  7440.77  5.40
1966.9  136238.70  7550.72  5.54
1969.6  135081.00  7677.00  5.68
1972.3  133740.30  7802.33  5.83
1975.0  132732.30  7950.25  5.99
1977.7  131659.28  8111.33  6.16
1980.4  130561.97  8266.97  6.33
1983.1  129486.08  8429.02  6.51
1985.8  128594.70  8610.10  6.70
1988.4  127599.33  8779.33  6.88
1991.1  126702.80  8964.28  7.08
1993.8  125855.03  9139.41  7.26
1996.5  125243.25  9343.34  7.46
1999.1  124588.38  9544.39  7.66
2001.8  123914.23  9747.03  7.87
2004.5  123253.85  9950.38  8.07
2007.1  122553.20  10129.15  8.27
2009.8  121816.33  10313.96  8.47
2012.4  121253.73  10512.33  8.67
2015.1  120719.90  10690.94  8.86
2017.8  119960.17  10831.95  9.03
2020.4  119461.47  11006.35  9.21
2023.1  119114.10  11194.56  9.40
2025.7  118880.67  11364.89  9.56
2028.3  118542.67  11520.89  9.72
2031.0  118162.80  11661.72  9.87
2033.6  117893.70  11803.00  10.01
2036.2  117641.40  11939.30  10.15
2038.9  117058.50  12032.10  10.28
2041.5  116733.60  12133.60  10.39
2044.1  116197.20  12217.70  10.51
2046.8  115831.80  12313.40  10.63
2049.4  115222.80  12365.60  10.73
2052.0  114939.40  12453.73  10.84
2054.6  114546.25  12530.00  10.94
2057.2  114013.67  12581.82  11.04
2059.8  113699.27  12674.98  11.15
2062.4  112845.97  12705.99  11.26
2065.0  112345.60  12768.13  11.37
2067.6  111477.45  12790.26  11.47
2070.2  110902.15  12833.84  11.57
2072.8  110283.27  12880.33  11.68
2075.4  109856.25  12950.00  11.79
2078.0  109238.32  12990.55  11.89
2080.6  108688.80  13029.87  11.99
2083.2  108022.87  13062.33  12.09
2085.8  107534.35  13107.66  12.19
2088.4  106874.50  13129.28  12.28
2090.9  106108.58  13133.90  12.38
2093.5  105243.83  13132.47  12.48
2096.1  104477.75  13136.94  12.57
2098.7  103713.60  13142.80  12.67
2101.2  102782.60  13120.38  12.77
2103.8  102127.60  13126.20  12.85
2106.4  101472.60  13146.58  12.96
2108.9  100835.07  13161.13  13.05
2111.5  100005.40  13149.49  13.15
2114.0  99385.33  13158.22  13.24
2116.6  98883.75  13183.33  13.33
2119.1  98344.47  13199.68  13.42
2121.7  97886.25  13218.33  13.50
2124.2  97494.10  13231.82  13.57
2126.8  96713.28  13204.28  13.65
2129.3  96316.00  13226.40  13.73
2131.9  95744.00  13214.67  13.80
2134.4  95314.50  13224.85  13.87
2136.9  94927.30  13236.16  13.94
2139.4  94421.13  13232.02  14.01
2142.0  93995.53  13234.98  14.08
2144.5  93717.00  13261.00  14.15
2147.0  93487.33  13298.76  14.23
2149.5  92996.00  13298.75  14.30
2152.1  92833.77  13349.23  14.38
2154.6  92761.07  13412.62  14.46
2157.1  92241.25  13400.95  14.53
2159.6  91841.58  13416.09  14.61
2162.1  91682.50  13449.80  14.67
2164.6  91452.07  13474.71  14.73
2167.1  91135.40  13496.44  14.81
2169.6  90802.60  13511.63  14.88
2172.1  90338.93  13499.13  14.94
2174.6  90034.93  13513.89  15.01
2177.1  89621.30  13510.35  15.07
2179.5  89225.72  13506.06  15.14
2182.0  88750.20  13504.52  15.22
2184.5  88231.48  13480.72  15.28
2187.0  87626.23  13442.50  15.34
2189.5  86962.17  13399.95  15.41
2191.9  86222.00  13344.33  15.48
2194.4  85615.75  13315.88  15.55
2196.9  84902.40  13260.80  15.62
2199.3  84254.67  13195.00  15.66
2201.8  83395.20  13104.31  15.71
2204.3  82941.02  13075.80  15.77
2206.7  82316.45  13015.13  15.81
2209.2  81873.53  12980.11  15.85
2211.6  81249.30  12919.50  15.90
2214.1  80953.20  12888.57  15.92
2216.5  80400.40  12807.38  15.93
2219.0  80062.67  12761.02  15.94
2221.4  79690.33  12709.86  15.95
2223.9  79244.08  12614.00  15.92
2226.3  78748.25  12511.53  15.89
2228.7  78206.82  12390.40  15.84
2231.1  77616.00  12239.70  15.77
2233.6  77052.87  12095.49  15.70
2236.0  76517.00  11939.67  15.60
2238.4  76031.08  11771.08  15.48
2240.9  75602.60  11605.45  15.35
2243.3  75096.00  11429.96  15.22
2245.7  74535.45  11230.23  15.07
2248.1  74072.27  11039.74  14.90
2250.5  73577.17  10835.24  14.73
2252.9  72975.93  10627.79  14.56
2255.3  72436.00  10420.97  14.39
2257.7  72000.00  10230.00  14.21
2260.1  71537.67  10040.02  14.03
2262.5  70940.00  9826.67  13.85
2264.9  70422.43  9630.59  13.68
2267.3  69820.00  9446.67  13.53
2269.7  69340.37  9277.49  13.38
2272.1  68814.50  9098.47  13.22
2274.5  68266.03  8938.41  13.09
2276.8  67792.80  8794.63  12.97
2279.2  67224.45  8639.65  12.85
2281.6  66822.53  8502.98  12.72
2284.0  66367.10  8366.17  12.61
2286.3  65907.20  8241.78  12.51
2288.7  65519.57  8126.30  12.40
2291.1  64981.67  7985.41  12.29
2293.4  64546.53  7854.00  12.17
2295.8  63942.40  7707.83  12.05
2298.2  63373.05  7555.50  11.92
2300.5  62741.70  7396.80  11.79
2302.9  62010.33  7236.78  11.67
2305.2  61295.30  7089.83  11.57
2307.6  60651.68  6949.99  11.46
2309.9  59892.00  6806.22  11.36
2312.2  59313.33  6689.11  11.28
2314.6  58725.90  6596.40  11.23
2316.9  58022.10  6496.35  11.20
2319.2  57452.07  6410.06  11.16
2321.6  56827.98  6302.68  11.09
2323.9  56281.25  6194.44  11.01
2326.2  55755.73  6096.55  10.93
2328.6  55249.15  5994.82  10.85
2330.9  54747.00  5887.00  10.75
2333.2  54271.33  5792.61  10.67
2335.5  53831.70  5703.10  10.59
2337.8  53399.07  5600.14  10.49
2340.1  52827.55  5492.31  10.40
2342.4  52400.83  5395.00  10.30
2344.8  51974.25  5312.78  10.22
2347.1  51422.70  5201.86  10.12
2349.4  50908.02  5111.73  10.04
2351.6  50357.18  5016.25  9.96
2353.9  49870.67  4928.22  9.88
2356.2  49335.77  4854.28  9.84
2358.5  48764.80  4763.73  9.77
2360.8  48193.60  4674.13  9.70
2363.1  47760.57  4591.36  9.61
2365.4  47301.80  4512.47  9.54
2367.7  46831.20  4430.80  9.46
2369.9  46303.80  4339.55  9.37
2372.2  45694.67  4238.84  9.28
2374.5  45137.40  4154.15  9.20
2376.7  44515.07  4061.96  9.12
2379.0  43904.20  3970.84  9.04
2381.3  43295.00  3873.33  8.95
2383.5  42779.73  3782.04  8.84
2385.8  42171.73  3686.89  8.74
2388.0  41654.00  3606.87  8.66
2390.3  41141.73  3532.31  8.59
2392.5  40668.00  3444.00  8.47
2394.8  40208.30  3363.80  8.37
2397.0  39736.67  3300.27  8.31
2399.3  39279.07  3228.58  8.22
2401.5  38844.75  3152.33  8.12
2403.8  38304.83  3062.74  8.00
2406.0  37808.75  2988.28  7.90
2408.2  37400.00  2925.51  7.82
2410.4  36975.63  2854.52  7.72
2412.7  36543.87  2781.42  7.61
2414.9  36179.00  2719.75  7.52
2417.1  35788.60  2658.53  7.43
2419.3  35392.00  2602.67  7.35
2421.6  35004.17  2535.97  7.24
2423.8  34621.00  2467.99  7.13
2426.0  34263.02  2414.90  7.05
2428.2  33894.93  2365.07  6.98
2430.4  33599.43  2311.42  6.88
2432.6  33333.33  2253.34  6.76
2434.8  33015.67  2196.59  6.65
2437.0  32656.43  2140.38  6.55
2439.2  32304.83  2090.58  6.47
2441.4  31970.17  2040.46  6.38
2443.6  31736.88  2008.02  6.33
2445.7  31445.75  1962.18  6.24
2447.9  31173.33  1911.22  6.13
2450.1  30895.95  1868.65  6.05
2452.3  30520.23  1825.76  5.98
2454.5  30167.95  1777.65  5.89
2456.6  29774.53  1745.29  5.86
2458.8  29429.40  1706.47  5.80
2461.0  29136.08  1653.11  5.67
2463.1  28823.55  1610.20  5.59
2465.3  28535.00  1580.40  5.54
2467.5  28290.50  1543.83  5.46
2469.6  28043.33  1506.58  5.37
2471.8  27735.78  1481.64  5.34
2473.9  27406.42  1458.05  5.32
2476.1  27072.50  1425.67  5.27
2478.2  26734.50  1396.39  5.22
2480.4  26417.35  1355.92  5.13
2482.5  26073.93  1331.57  5.11
2484.6  25743.67  1298.61  5.04
2486.8  25449.70  1271.70  5.00
2488.9  25127.07  1252.15  4.98
2491.1  24752.00  1237.60  5.00
2493.2  24381.10  1202.82  4.93
2495.3  24001.90  1175.78  4.90
2497.4  23650.90  1153.83  4.88
2499.5  23320.18  1127.44  4.83
2501.7  23187.43  1128.42  4.87
2503.8  23085.72  1114.44  4.83
2505.9  22977.08  1110.42  4.83
2508.0  22964.35  1097.71  4.78
2510.1  22944.32  1090.88  4.75
2512.2  23065.95  1107.12  4.80
2514.3  23216.62  1107.36  4.77
2516.4  23383.90  1155.73  4.94
