/*** Spectra Vista SIG Data ***/
name= 45_20220722_ACRU_13_avg.sig
comm= Averaged Ref/Tar of files: HR.072222.0011_moc.sig,HR.072222.0012_moc.sig,HR.072222.0013_moc.sig
data=
337.3  3126.38  324.22  10.37
338.8  3222.70  307.84  9.55
340.3  3373.20  306.09  9.07
341.8  3566.55  298.74  8.38
343.2  3774.00  313.76  8.31
344.7  3923.80  312.77  7.97
346.2  4085.00  305.01  7.47
347.7  4247.10  293.63  6.91
349.2  4422.60  292.32  6.61
350.6  4700.80  293.80  6.25
352.1  4930.05  314.38  6.38
353.6  5205.00  323.87  6.22
355.1  5455.35  332.26  6.09
356.6  5735.63  336.49  5.87
358.0  5997.20  327.51  5.46
359.5  6241.80  333.72  5.35
361.0  6553.58  343.14  5.24
362.5  6879.63  370.82  5.39
364.0  7197.43  374.69  5.21
365.4  7530.80  382.16  5.07
366.9  7900.75  390.43  4.94
368.4  8237.05  403.67  4.90
369.9  8566.93  417.99  4.88
371.3  8944.50  430.76  4.82
372.8  9319.05  453.12  4.86
374.3  9675.00  458.67  4.74
375.8  10079.30  470.73  4.67
377.2  10491.00  480.61  4.58
378.7  10867.60  487.79  4.49
380.2  11271.10  494.96  4.39
381.7  11728.85  504.47  4.30
383.1  12127.50  517.44  4.27
384.6  12597.33  539.50  4.28
386.1  13053.08  554.91  4.25
387.6  13501.95  567.75  4.20
389.0  13962.80  578.88  4.15
390.5  14416.65  584.10  4.05
392.0  14917.80  599.53  4.02
393.4  15449.70  616.59  3.99
394.9  15947.10  636.84  3.99
396.4  16456.50  648.60  3.94
397.9  16963.75  669.67  3.95
399.3  17499.58  678.71  3.88
400.8  17995.85  697.90  3.88
402.2  18608.90  713.59  3.83
403.7  19139.63  735.09  3.84
405.2  19721.28  751.29  3.81
406.6  20230.40  767.15  3.79
408.1  20814.60  786.48  3.78
409.6  21379.30  807.76  3.78
411.0  22011.85  825.53  3.75
412.5  22615.95  852.44  3.77
414.0  23207.13  869.33  3.75
415.4  23850.00  895.70  3.76
416.9  24479.25  914.92  3.74
418.4  25136.55  943.71  3.75
419.8  25807.60  965.81  3.74
421.3  26470.13  993.45  3.75
422.7  27196.20  1018.48  3.74
424.2  27911.25  1044.00  3.74
425.7  28622.80  1073.63  3.75
427.1  29323.73  1103.53  3.76
428.6  30054.50  1132.53  3.77
430.0  30744.55  1159.37  3.77
431.5  31536.53  1188.03  3.77
432.9  32347.20  1218.88  3.77
434.4  33176.70  1249.14  3.77
435.9  33950.00  1280.53  3.77
437.3  34746.25  1309.00  3.77
438.8  35512.20  1341.21  3.78
440.2  36301.65  1374.45  3.79
441.7  37198.40  1407.89  3.78
443.1  38040.75  1441.60  3.79
444.6  38946.30  1479.43  3.80
446.0  39807.30  1517.21  3.81
447.5  40700.83  1554.45  3.82
448.9  41563.80  1589.28  3.82
450.4  42488.95  1629.97  3.84
451.8  43290.00  1662.27  3.84
453.3  44141.20  1703.24  3.86
454.7  45084.85  1746.13  3.87
456.2  45890.75  1777.44  3.87
457.6  46794.38  1810.71  3.87
459.1  47703.50  1847.73  3.87
460.5  48564.63  1881.42  3.87
462.0  49542.08  1922.35  3.88
463.4  50498.20  1961.84  3.88
464.8  51406.88  2003.55  3.90
466.3  52341.30  2040.17  3.90
467.7  53259.80  2073.72  3.89
469.2  54245.05  2115.00  3.90
470.6  55146.25  2150.59  3.90
472.0  56117.03  2186.32  3.90
473.5  57050.88  2227.98  3.91
474.9  57997.50  2266.70  3.91
476.4  59068.80  2315.52  3.92
477.8  60059.00  2358.67  3.93
479.2  61001.50  2399.27  3.93
480.7  62039.85  2443.38  3.94
482.1  63074.25  2489.25  3.95
483.6  64186.90  2537.42  3.95
485.0  65195.40  2584.27  3.96
486.4  66304.35  2642.28  3.99
487.9  67304.25  2692.95  4.00
489.3  68382.90  2750.63  4.02
490.7  69398.93  2809.53  4.05
492.2  70545.30  2881.20  4.08
493.6  71565.25  2947.58  4.12
495.0  72598.50  3024.45  4.17
496.5  73683.18  3107.19  4.22
497.9  74695.75  3195.24  4.28
499.3  75796.38  3295.03  4.35
500.7  76941.80  3400.75  4.42
502.2  78022.40  3525.41  4.52
503.6  79175.80  3663.63  4.63
505.0  80150.15  3820.72  4.77
506.5  81365.93  4008.95  4.93
507.9  82471.48  4214.25  5.11
509.3  83753.20  4465.65  5.33
510.7  84927.38  4748.25  5.59
512.2  86227.58  5064.32  5.87
513.6  87606.75  5430.04  6.20
515.0  88892.03  5845.53  6.58
516.4  90153.00  6305.04  6.99
517.8  91643.00  6827.08  7.45
519.3  92852.78  7373.42  7.94
520.7  94289.55  7980.40  8.46
522.1  95491.18  8588.10  8.99
523.5  96744.00  9222.19  9.53
524.9  98082.45  9859.86  10.05
526.3  99359.40  10485.07  10.55
527.8  100697.85  11103.84  11.03
529.2  101752.10  11677.63  11.48
530.6  103274.15  12276.72  11.89
532.0  104874.00  12842.67  12.25
533.4  106034.33  13314.36  12.56
534.8  106791.88  13695.81  12.82
536.3  108347.10  14131.52  13.04
537.7  110237.40  14582.40  13.23
539.1  111578.23  14936.26  13.39
540.5  112655.45  15245.66  13.53
541.9  114252.83  15608.94  13.66
543.3  115402.75  15911.77  13.79
544.7  116576.40  16209.28  13.90
546.1  118195.83  16572.75  14.02
547.5  119369.60  16853.76  14.12
549.0  120989.00  17183.47  14.20
550.4  122336.25  17454.75  14.27
551.8  123721.38  17698.84  14.31
553.2  125123.88  17896.89  14.30
554.6  126349.60  18019.73  14.26
556.0  127750.05  18108.36  14.17
557.4  129227.70  18158.23  14.05
558.8  130710.15  18160.80  13.89
560.2  132032.25  18088.47  13.70
561.6  133544.25  17993.55  13.47
563.0  134991.33  17839.62  13.22
564.4  136443.15  17648.04  12.93
565.8  137838.13  17405.17  12.63
567.2  139438.25  17151.27  12.30
568.6  140798.63  16831.60  11.95
570.0  142104.30  16484.45  11.60
571.4  143683.15  16159.52  11.25
572.8  145281.38  15844.97  10.91
574.2  146776.00  15533.65  10.58
575.6  148173.75  15244.50  10.29
577.0  149566.80  14980.79  10.02
578.4  151151.00  14761.72  9.77
579.8  152525.70  14554.89  9.54
581.2  154097.98  14396.21  9.34
582.5  155376.00  14233.44  9.16
583.9  156786.60  14101.79  8.99
585.3  158423.63  14009.49  8.84
586.7  159764.15  13904.11  8.70
588.1  161129.13  13827.35  8.58
589.5  162643.25  13783.70  8.47
590.9  164114.00  13759.04  8.38
592.3  165772.95  13768.19  8.31
593.7  167094.53  13768.43  8.24
595.0  168584.63  13786.02  8.18
596.4  169916.95  13797.79  8.12
597.8  171269.43  13808.94  8.06
599.2  172669.20  13810.72  8.00
600.6  174277.68  13817.14  7.93
602.0  175451.33  13768.68  7.85
603.3  177112.05  13732.47  7.75
604.7  178636.53  13656.77  7.65
606.1  179993.40  13546.08  7.53
607.5  181512.38  13425.56  7.40
608.9  183057.45  13289.43  7.26
610.2  184317.53  13126.05  7.12
611.6  185766.60  12974.63  6.98
613.0  187185.30  12814.26  6.85
614.4  188451.60  12652.68  6.71
615.8  189788.63  12513.15  6.59
617.1  191202.90  12393.08  6.48
618.5  192681.20  12301.76  6.38
619.9  194069.78  12228.55  6.30
621.3  195567.98  12184.62  6.23
622.6  197030.00  12163.40  6.17
624.0  198347.10  12156.06  6.13
625.4  199683.83  12174.25  6.10
626.8  201132.75  12213.41  6.07
628.1  202341.98  12248.79  6.05
629.5  204050.70  12325.45  6.04
630.9  205493.75  12377.71  6.02
632.2  206738.53  12416.65  6.01
633.6  208205.75  12441.88  5.98
635.0  209599.20  12425.28  5.93
636.3  211008.10  12375.27  5.86
637.7  212253.00  12271.38  5.78
639.1  213762.50  12145.00  5.68
640.4  215104.75  11978.94  5.57
641.8  216217.25  11781.14  5.45
643.2  217669.90  11591.28  5.33
644.5  218908.75  11392.87  5.20
645.9  220495.95  11222.52  5.09
647.2  222109.30  11081.30  4.99
648.6  223762.50  10978.20  4.91
650.0  225028.80  10877.76  4.83
651.3  225488.18  10758.18  4.77
652.7  226742.85  10676.76  4.71
654.0  228748.10  10643.92  4.65
655.4  230095.83  10579.75  4.60
656.8  230155.30  10457.13  4.54
658.1  231244.90  10375.41  4.49
659.5  233538.38  10327.31  4.42
660.8  235215.00  10257.00  4.36
662.2  236051.20  10157.65  4.30
663.5  237536.60  10097.45  4.25
664.9  238680.00  10056.97  4.21
666.2  239338.20  10007.76  4.18
667.6  240886.75  10019.46  4.16
668.9  241986.08  10046.15  4.15
670.3  243149.13  10101.57  4.15
671.6  244481.25  10177.50  4.16
673.0  245543.25  10286.65  4.19
674.3  246702.30  10401.73  4.22
675.7  247946.40  10540.08  4.25
677.0  248948.58  10701.21  4.30
678.4  250181.98  10886.22  4.35
679.7  251195.13  11097.66  4.42
681.1  252405.55  11343.61  4.49
682.4  253464.90  11612.81  4.58
683.8  254592.00  11922.21  4.68
685.1  255521.63  12289.70  4.81
686.4  256720.80  12754.64  4.97
687.8  257877.50  13347.03  5.18
689.1  258878.75  14130.23  5.46
690.5  260131.65  15177.14  5.83
691.8  260867.33  16562.58  6.35
693.1  262105.80  18422.00  7.03
694.5  263194.75  20769.23  7.89
695.8  264309.50  23647.87  8.95
697.1  265424.25  27060.37  10.20
698.5  266384.50  30990.04  11.63
699.8  267428.95  35379.05  13.23
701.1  268472.00  40168.01  14.96
702.5  269224.45  45178.17  16.78
703.8  270090.00  50400.00  18.66
705.1  271163.10  55748.55  20.56
706.5  272102.38  61095.68  22.45
707.8  273027.60  66415.26  24.33
709.1  273860.78  71627.53  26.15
710.5  274932.38  76818.84  27.94
711.8  275739.50  81829.11  29.68
713.1  276653.80  86773.76  31.37
714.4  277478.90  91569.75  33.00
715.8  278259.40  96214.09  34.58
717.1  279486.75  100878.96  36.09
718.4  280358.40  105280.00  37.55
719.7  281387.00  109588.10  38.95
721.0  281902.50  113541.00  40.28
722.4  282619.15  117413.34  41.54
723.7  283532.70  121201.66  42.75
725.0  284471.55  124863.27  43.89
726.3  285358.15  128313.02  44.97
727.6  285883.13  131435.48  45.98
729.0  286722.98  134545.30  46.93
730.3  287444.10  137410.13  47.80
731.6  288286.95  140174.79  48.62
732.9  289052.23  142731.61  49.38
734.2  289826.63  145152.52  50.08
735.5  290769.00  147529.98  50.74
736.8  291486.30  149641.80  51.34
738.1  292273.10  151647.09  51.89
739.5  293194.40  153575.72  52.38
740.8  293846.85  155266.14  52.84
742.1  294549.98  156875.30  53.26
743.4  295225.00  158370.00  53.64
744.7  296133.53  159884.75  53.99
746.0  296949.90  161246.28  54.30
747.3  297468.35  162352.61  54.58
748.6  298159.25  163454.13  54.82
749.9  298844.00  164489.87  55.04
751.2  299522.10  165456.28  55.24
752.5  300332.75  166439.52  55.42
753.8  300931.58  167234.62  55.57
755.1  301600.00  168005.07  55.70
756.4  302167.18  168667.80  55.82
757.7  303095.80  169480.55  55.92
759.0  304734.50  170682.79  56.01
760.3  305844.00  171526.08  56.08
761.6  307283.20  172541.79  56.15
762.9  307812.25  172994.03  56.20
764.2  308193.30  173322.08  56.24
765.5  308490.38  173590.58  56.27
766.8  308910.40  173913.17  56.30
768.1  309428.20  174271.31  56.32
769.3  309984.15  174648.46  56.34
770.6  310608.35  175045.26  56.36
771.9  311277.40  175477.66  56.37
773.2  311633.20  175716.48  56.39
774.5  312254.80  176076.85  56.39
775.8  312878.25  176450.45  56.40
777.1  313449.95  176781.15  56.40
778.4  313788.20  176977.64  56.40
779.6  314520.23  177402.76  56.40
780.9  314970.00  177656.00  56.40
782.2  315416.75  177914.37  56.41
783.5  315705.50  178099.67  56.41
784.8  316233.68  178378.11  56.41
786.0  316639.75  178593.33  56.40
787.3  317047.68  178811.57  56.40
788.6  317422.55  179051.69  56.41
789.9  317846.20  179302.48  56.41
791.2  318485.78  179644.61  56.41
792.4  319132.05  180008.33  56.41
793.7  319571.20  180270.93  56.41
795.0  320187.45  180607.46  56.41
796.2  320825.15  180958.98  56.40
797.5  321484.05  181324.69  56.40
798.8  322132.63  181681.16  56.40
800.0  322751.73  182042.39  56.40
801.3  323239.40  182300.19  56.40
802.6  323803.58  182617.05  56.40
803.8  324426.23  182960.48  56.40
805.1  324891.88  183218.70  56.39
806.4  325335.90  183469.28  56.39
807.7  325883.25  183751.47  56.39
808.9  326401.00  184046.54  56.39
810.2  326880.75  184334.64  56.39
811.4  327336.30  184599.01  56.39
812.7  327925.00  184930.42  56.39
814.0  328747.35  185378.01  56.39
815.2  329365.75  185698.43  56.38
816.5  329787.28  185919.81  56.38
817.7  330202.10  186174.68  56.38
819.0  330654.50  186441.05  56.39
820.2  330792.00  186536.53  56.39
821.5  331481.60  186916.81  56.39
822.7  331865.75  187118.56  56.38
824.0  332178.30  187284.24  56.38
825.2  332638.65  187529.58  56.38
826.5  332910.55  187681.75  56.38
827.7  333437.58  187969.85  56.37
829.0  333814.98  188195.44  56.38
830.2  334084.20  188351.75  56.38
831.5  334550.65  188604.12  56.38
832.7  334831.88  188755.21  56.37
834.0  335178.00  188913.49  56.36
835.2  335529.70  189097.00  56.36
836.4  335784.90  189250.23  56.36
837.7  336148.40  189461.52  56.36
838.9  336563.33  189707.67  56.37
840.1  336878.33  189909.81  56.37
841.4  337303.20  190144.63  56.37
842.6  337609.80  190323.84  56.37
843.8  337946.20  190512.51  56.37
845.1  338413.70  190790.47  56.38
846.3  338783.70  190997.80  56.38
847.5  339213.00  191226.00  56.37
848.8  339529.20  191431.68  56.38
850.0  339876.25  191592.05  56.37
851.2  340409.25  191881.26  56.37
852.5  340790.00  192059.81  56.36
853.7  341192.25  192313.50  56.37
854.9  341670.90  192544.89  56.35
856.1  342114.50  192780.29  56.35
857.4  342244.95  192867.17  56.35
858.6  342700.80  193098.72  56.35
859.8  343128.75  193297.25  56.33
861.0  343488.60  193518.00  56.34
862.2  344003.00  193750.45  56.32
863.5  344329.05  193937.08  56.32
864.7  344777.40  194180.80  56.32
865.9  345273.60  194392.56  56.30
867.1  345539.00  194539.94  56.30
868.3  345956.70  194729.76  56.29
869.5  346401.35  194955.09  56.28
870.8  346927.50  195207.60  56.27
872.0  347343.90  195456.98  56.27
873.2  347767.50  195677.18  56.27
874.4  348200.78  195868.53  56.25
875.6  348457.20  196023.13  56.25
876.8  349053.20  196280.59  56.23
878.0  349543.65  196493.45  56.21
879.2  350022.75  196695.98  56.20
880.4  350472.38  196964.75  56.20
881.6  350901.68  197149.96  56.18
882.8  351302.40  197347.95  56.18
884.0  351927.38  197656.50  56.16
885.2  352378.60  197909.67  56.16
886.5  353001.05  198171.04  56.14
887.7  353438.15  198367.09  56.12
888.8  354055.73  198663.08  56.11
890.0  354638.20  198927.75  56.09
891.2  355216.70  199193.71  56.08
892.4  355773.60  199463.81  56.06
893.6  356398.65  199739.97  56.04
894.8  357178.50  200165.93  56.04
896.0  357994.75  200604.10  56.04
897.2  358770.75  200976.10  56.02
898.4  359482.20  201340.04  56.01
899.6  359926.88  201586.75  56.01
900.8  360342.65  201755.34  55.99
902.0  360635.40  201821.78  55.96
903.2  360954.15  201957.79  55.95
904.3  361348.20  202114.24  55.93
905.5  361927.45  202372.36  55.92
906.7  362519.00  202680.73  55.91
907.9  362952.80  202925.01  55.91
909.1  363287.03  203048.37  55.89
910.2  363564.75  203138.35  55.87
911.4  363852.45  203216.91  55.85
912.6  364042.25  203312.63  55.85
913.8  364253.10  203419.83  55.85
915.0  364729.05  203618.52  55.83
916.2  364913.25  203645.00  55.81
917.3  364997.48  203641.44  55.79
918.5  365060.60  203701.91  55.80
919.7  365445.90  203832.34  55.78
920.8  365685.73  203794.30  55.73
922.0  365711.50  203831.83  55.74
923.2  365956.50  203876.40  55.71
924.4  366278.63  203909.40  55.67
925.5  366463.60  203996.20  55.67
926.7  367042.75  204241.68  55.65
927.9  367862.40  204637.92  55.63
929.0  369346.50  205342.92  55.60
930.2  371347.40  206397.51  55.58
931.4  373715.78  207568.80  55.54
932.5  376033.10  208816.83  55.53
933.7  377440.93  209459.27  55.49
934.9  377978.13  209725.25  55.49
936.0  377815.75  209467.27  55.44
937.2  376067.85  208312.58  55.39
938.3  374416.00  207355.15  55.38
939.5  373086.00  206491.68  55.35
940.7  373194.90  206532.12  55.34
941.8  374707.80  207141.84  55.28
943.0  376066.50  207738.80  55.24
944.2  376806.95  208050.53  55.21
945.3  376613.25  207751.70  55.16
946.5  375862.95  207240.66  55.14
947.6  376251.10  207227.33  55.08
948.8  376020.45  206985.87  55.05
949.9  376047.00  206875.20  55.01
951.1  375984.38  206460.54  54.91
952.2  375768.00  206148.80  54.86
953.4  375744.25  205868.33  54.79
954.5  375710.40  205601.76  54.72
955.7  375706.80  205432.08  54.68
956.8  375441.70  205058.43  54.62
958.0  374999.50  204666.00  54.58
959.1  374929.23  204356.37  54.51
960.3  374859.25  204064.48  54.44
961.4  374576.35  203870.86  54.43
962.6  374969.00  203851.43  54.36
963.7  374856.60  203717.88  54.35
964.9  374529.30  203598.01  54.36
966.0  374446.80  203408.28  54.32
967.2  374564.70  203430.72  54.31
968.3  374191.65  203331.60  54.34
969.5  374071.35  203083.28  54.29
970.6  374476.33  202992.92  54.21
971.8  374580.68  203129.92  54.23
972.9  374357.78  203112.77  54.26
974.0  374459.10  203187.79  54.26
975.2  374214.13  202992.12  54.24
976.3  374300.10  203020.76  54.24
977.5  374393.25  202853.07  54.18
978.6  374493.60  202717.33  54.13
979.7  374182.73  202961.92  54.24
980.9  373816.83  202976.37  54.30
982.0  373401.10  202858.87  54.33
983.2  373486.18  202666.92  54.26
984.3  373046.80  202438.61  54.27
985.4  373180.88  202346.96  54.22
986.6  373388.00  202497.48  54.23
987.7  373724.93  203059.38  54.33
988.9  373654.80  203143.20  54.37
990.0  374765.50  203270.87  54.24
993.1  331291.92  178214.15  53.79
996.9  331512.15  178729.75  53.91
1000.7  332254.36  179473.03  54.02
1004.5  332658.92  179989.05  54.11
1008.4  332377.46  180132.12  54.20
1012.2  332303.25  180362.01  54.28
1016.0  332223.00  180581.15  54.36
1019.8  332212.65  180809.48  54.43
1023.7  331989.58  180862.51  54.48
1027.5  331526.12  180805.86  54.54
1031.3  331579.50  180966.31  54.58
1035.1  331366.29  180961.63  54.61
1038.9  331317.07  180993.29  54.63
1042.7  331168.67  180968.36  54.65
1046.5  331091.50  180919.12  54.64
1050.3  331121.08  180934.36  54.64
1054.2  330839.25  180809.50  54.65
1058.0  330387.81  180539.53  54.64
1061.8  330328.22  180468.43  54.63
1065.6  330066.33  180272.94  54.62
1069.4  329975.93  180174.43  54.60
1073.2  329504.08  179852.37  54.58
1077.0  329013.95  179502.32  54.56
1080.8  328576.04  179126.79  54.52
1084.6  327790.40  178537.33  54.47
1088.4  327313.75  178137.25  54.42
1092.2  326634.75  177601.82  54.37
1096.0  326100.24  177147.19  54.32
1099.8  325670.37  176718.69  54.26
1103.6  325049.37  176196.82  54.21
1107.4  324189.58  175504.05  54.14
1111.2  323979.20  175155.01  54.06
1114.9  323379.58  174577.58  53.99
1118.7  322888.50  173979.42  53.88
1122.5  322292.53  173270.81  53.76
1126.3  321339.55  172323.28  53.63
1130.1  320949.06  171493.05  53.43
1133.9  319528.30  169907.70  53.17
1137.7  318268.80  168246.89  52.86
1141.4  316631.47  166209.17  52.49
1145.2  315960.53  164540.18  52.08
1149.0  314953.33  162760.84  51.68
1152.8  313503.50  160921.74  51.33
1156.6  312057.90  159355.53  51.07
1160.3  310517.67  158024.14  50.89
1164.1  308393.40  156606.19  50.78
1167.9  306834.38  155612.80  50.72
1171.7  305707.50  154919.25  50.68
1175.4  304609.90  154301.80  50.66
1179.2  303658.28  153718.20  50.62
1183.0  303359.33  153461.43  50.59
1186.7  302949.50  153119.37  50.54
1190.5  302094.40  152576.15  50.51
1194.3  301091.73  151964.06  50.47
1198.0  300011.80  151365.62  50.45
1201.8  298658.98  150672.94  50.45
1205.6  297547.00  150162.95  50.47
1209.3  296740.63  149864.30  50.50
1213.1  296015.48  149569.89  50.53
1216.8  295226.80  149316.73  50.58
1220.6  294263.20  149013.33  50.64
1224.3  293196.58  148639.62  50.70
1228.1  292105.80  148285.28  50.76
1231.9  290930.30  147851.43  50.82
1235.6  289603.80  147302.94  50.86
1239.4  288389.50  146826.20  50.91
1243.1  287277.83  146329.36  50.94
1246.9  286209.49  145819.20  50.95
1250.6  285319.33  145380.41  50.95
1254.3  284375.85  144889.69  50.95
1258.1  283452.17  144406.33  50.95
1261.8  282278.80  143773.12  50.93
1265.6  280999.05  143061.07  50.91
1269.3  279770.25  142319.91  50.87
1273.1  279783.98  142167.33  50.81
1276.8  279980.80  142096.63  50.75
1280.6  279722.70  141800.80  50.69
1284.3  278373.60  140932.23  50.63
1288.0  277066.59  140021.73  50.54
1291.8  276027.13  139163.24  50.42
1295.5  274895.87  138232.70  50.29
1299.2  273798.33  137284.37  50.14
1302.9  272505.89  136162.64  49.97
1306.7  271107.20  134939.58  49.77
1310.4  269753.69  133627.67  49.54
1314.1  268513.30  132319.79  49.28
1317.9  267408.13  130958.96  48.97
1321.6  266127.62  129446.02  48.64
1325.3  264671.40  127718.18  48.26
1329.0  263499.95  126080.95  47.85
1332.8  261646.00  124025.00  47.40
1336.5  260052.40  122065.72  46.94
1340.2  259729.17  120702.83  46.47
1343.9  259378.13  119296.34  45.99
1347.6  258833.85  117795.21  45.51
1351.4  259051.50  116695.07  45.05
1355.1  259424.73  115668.77  44.59
1358.8  259648.00  114528.00  44.11
1362.5  259269.08  113005.48  43.59
1366.2  257802.45  110809.76  42.98
1369.9  256063.75  108238.02  42.27
1373.6  254213.81  105229.30  41.39
1377.3  252555.60  101732.74  40.28
1381.0  251553.33  97745.98  38.86
1384.8  249811.25  92648.22  37.09
1388.4  247661.75  86915.08  35.09
1392.2  245978.50  80924.44  32.90
1395.9  244589.58  74877.96  30.61
1399.6  243158.24  69061.58  28.40
1403.3  242095.28  63884.28  26.39
1407.0  241057.80  59420.02  24.65
1410.7  239968.58  55751.50  23.23
1414.3  238839.07  52889.30  22.14
1418.1  237770.13  50788.00  21.36
1421.7  236952.04  49308.12  20.81
1425.4  236075.13  48290.82  20.46
1429.1  235252.88  47644.93  20.25
1432.8  233929.32  47167.11  20.16
1436.5  233219.72  46992.23  20.15
1440.2  232503.73  46966.85  20.20
1443.9  231399.03  46950.82  20.29
1447.6  230014.40  46948.00  20.41
1451.2  229056.48  47054.28  20.54
1454.9  227931.75  47153.29  20.69
1458.6  226948.48  47383.52  20.88
1462.3  225920.93  47732.98  21.13
1466.0  224728.22  48207.16  21.45
1469.7  223248.35  48803.64  21.86
1473.3  222322.00  49653.52  22.33
1477.0  220614.00  50442.93  22.86
1480.7  219223.33  51343.12  23.42
1484.4  217542.78  52172.86  23.98
1488.0  216172.00  53095.43  24.56
1491.7  214760.15  53972.49  25.13
1495.4  213265.03  54822.53  25.71
1499.0  211874.00  55646.86  26.26
1502.7  210757.25  56525.69  26.82
1506.4  209516.80  57322.57  27.36
1510.0  208259.20  58088.54  27.89
1513.7  206971.92  58791.84  28.41
1517.4  205783.67  59483.33  28.91
1521.0  204698.13  60170.68  29.39
1524.7  203616.83  60787.69  29.85
1528.3  202467.75  61352.95  30.30
1532.0  201388.37  61885.45  30.73
1535.7  200154.93  62310.46  31.13
1539.3  199052.01  62743.67  31.52
1543.0  198203.91  63219.61  31.90
1546.6  197575.08  63741.17  32.26
1550.3  196714.05  64138.25  32.60
1553.9  195750.97  64471.14  32.94
1557.6  194634.73  64710.38  33.25
1561.2  193514.40  64889.42  33.53
1564.9  192367.53  65043.10  33.81
1568.5  191201.27  65154.48  34.08
1572.2  190208.90  65294.36  34.33
1575.8  189238.00  65426.00  34.57
1579.5  188332.30  65557.99  34.81
1583.1  187442.61  65675.15  35.04
1586.8  186340.00  65698.00  35.26
1590.4  185394.37  65746.16  35.46
1594.0  184236.22  65701.33  35.66
1597.7  183255.41  65716.04  35.86
1601.3  182162.93  65670.75  36.05
1604.9  181063.83  65586.64  36.22
1608.6  179937.53  65459.98  36.38
1612.2  179029.13  65388.56  36.52
1615.8  177971.63  65253.27  36.66
1619.5  176950.42  65100.18  36.79
1623.1  175784.47  64873.17  36.90
1626.7  174687.50  64644.36  37.01
1630.3  173624.33  64408.32  37.10
1634.0  172550.00  64128.00  37.16
1637.6  171543.00  63820.47  37.20
1641.2  170510.80  63445.79  37.21
1644.8  169328.22  62955.41  37.18
1648.5  168324.96  62506.61  37.13
1652.1  167423.40  62072.23  37.08
1655.7  166594.40  61684.80  37.03
1659.3  165879.03  61384.47  37.01
1662.9  164630.83  60951.07  37.02
1666.6  163398.40  60540.93  37.05
1670.2  162176.93  60111.43  37.07
1673.8  160960.13  59622.49  37.04
1677.4  159987.35  59184.62  36.99
1681.0  159329.00  58791.28  36.90
1684.6  158958.58  58459.92  36.78
1688.2  158338.50  57944.25  36.60
1691.8  157764.43  57475.77  36.43
1695.4  157378.60  57061.69  36.26
1699.0  157107.53  56675.10  36.07
1702.6  156835.33  56274.72  35.88
1706.2  156344.83  55758.19  35.66
1709.8  155565.63  55132.10  35.44
1713.4  154950.59  54578.82  35.22
1717.0  154196.50  54027.14  35.04
1720.6  153467.93  53508.72  34.87
1724.2  152832.00  53030.66  34.70
1727.8  152200.65  52573.95  34.54
1731.4  151764.25  52211.50  34.40
1735.0  151558.00  51975.79  34.29
1738.6  151332.75  51704.53  34.17
1742.2  150849.56  51288.27  34.00
1745.8  150303.67  50804.33  33.80
1749.4  149476.80  50189.11  33.58
1753.0  148156.93  49398.22  33.34
1756.6  146684.13  48574.50  33.12
1760.1  145514.69  47858.72  32.89
1763.7  143980.00  47053.62  32.68
1767.3  142720.88  46366.13  32.49
1770.9  141640.63  45752.35  32.30
1774.5  140351.01  45102.54  32.14
1778.0  139337.97  44576.69  31.99
1781.6  138380.10  44092.99  31.86
1785.2  137343.53  43624.01  31.76
1788.8  136322.80  43198.94  31.69
1792.3  135241.53  42777.37  31.63
1795.9  134792.99  42575.52  31.59
1799.5  134341.67  42394.00  31.56
1803.1  133939.87  42218.63  31.52
1806.6  134595.18  42353.60  31.47
1810.2  135729.07  42643.07  31.42
1813.8  136543.35  42850.91  31.38
1817.3  136505.80  42795.77  31.35
1820.9  135705.03  42505.50  31.32
1824.5  134580.98  42094.03  31.28
1828.0  133754.04  41741.53  31.21
1831.6  133044.08  41403.99  31.12
1835.2  132444.17  41036.79  30.98
1838.7  132093.47  40676.72  30.79
1842.3  131790.00  40264.29  30.55
1845.8  131080.17  39620.71  30.23
1849.4  130609.00  38908.57  29.79
1852.9  130023.54  38007.75  29.23
1856.5  129223.43  36854.21  28.52
1860.0  128528.39  35498.16  27.62
1863.6  128273.97  34029.83  26.53
1867.1  128144.80  32322.85  25.22
1870.7  128161.75  30269.90  23.62
1874.2  127544.85  27696.08  21.71
1877.8  126367.40  24877.24  19.69
1881.3  124936.50  21942.91  17.56
1884.9  123941.40  19181.41  15.48
1888.4  122940.91  16555.54  13.47
1891.9  121897.07  14277.08  11.71
1895.5  120788.75  12411.02  10.27
1899.0  120146.25  11044.50  9.19
1901.3  150580.75  9904.92  6.58
1904.1  150446.25  9070.32  6.03
1906.8  149699.70  8396.55  5.61
1909.6  148130.85  7877.45  5.32
1912.4  146635.48  7487.20  5.11
1915.1  145497.41  7219.16  4.96
1917.9  144216.25  7020.13  4.87
1920.6  143147.40  6899.05  4.82
1923.3  142067.45  6829.61  4.81
1926.1  140753.80  6783.18  4.82
1928.8  139524.00  6772.33  4.85
1931.6  138525.90  6794.35  4.90
1934.3  137600.61  6845.47  4.97
1937.0  136661.63  6914.89  5.06
1939.8  135646.63  7010.81  5.17
1942.5  134425.50  7108.75  5.29
1945.2  132900.49  7197.44  5.42
1947.9  131664.93  7311.80  5.55
1950.7  130692.65  7459.29  5.71
1953.4  129175.69  7585.09  5.87
1956.1  128007.81  7731.09  6.04
1958.8  126948.90  7905.19  6.23
1961.5  125690.40  8073.00  6.42
1964.2  124392.45  8246.88  6.63
1966.9  123003.08  8425.55  6.85
1969.6  121918.50  8626.50  7.08
1972.3  120710.70  8826.58  7.31
1975.0  119793.60  9044.70  7.55
1977.7  118813.40  9268.52  7.80
1980.4  117810.85  9496.50  8.06
1983.1  116857.81  9729.98  8.33
1985.8  116047.13  9972.38  8.59
1988.4  115141.00  10213.67  8.87
1991.1  114329.08  10461.44  9.15
1993.8  113546.13  10701.90  9.43
1996.5  112996.81  10973.32  9.71
1999.1  112395.80  11231.83  9.99
2001.8  111784.40  11484.49  10.27
2004.5  111195.75  11738.05  10.56
2007.1  110553.49  11973.76  10.83
2009.8  109900.18  12205.38  11.11
2012.4  109390.74  12440.31  11.37
2015.1  108915.98  12669.42  11.63
2017.8  108229.63  12859.35  11.88
2020.4  107788.04  13065.02  12.12
2023.1  107478.53  13282.38  12.36
2025.7  107250.00  13502.67  12.59
2028.3  106957.50  13695.50  12.80
2031.0  106635.68  13869.46  13.01
2033.6  106396.65  14043.98  13.20
2036.2  106168.28  14198.40  13.37
2038.9  105646.28  14315.85  13.55
2041.5  105345.28  14450.05  13.72
2044.1  104863.28  14542.05  13.87
2046.8  104537.03  14644.28  14.01
2049.4  103982.40  14707.35  14.14
2052.0  103712.70  14803.00  14.27
2054.6  103346.25  14888.12  14.41
2057.2  102867.75  14964.57  14.55
2059.8  102612.30  15082.47  14.70
2062.4  101841.18  15116.88  14.84
2065.0  101374.35  15196.00  14.99
2067.6  100599.05  15232.38  15.14
2070.2  100082.59  15289.03  15.28
2072.8  99533.44  15336.98  15.41
2075.4  99146.25  15417.50  15.55
2078.0  98575.35  15465.25  15.69
2080.6  98082.60  15516.60  15.82
2083.2  97487.53  15545.49  15.95
2085.8  97060.23  15594.81  16.07
2088.4  96466.63  15626.17  16.20
2090.9  95768.84  15625.34  16.32
2093.5  95002.18  15600.28  16.42
2096.1  94319.83  15588.22  16.53
2098.7  93628.14  15575.05  16.64
2101.2  92787.30  15534.42  16.74
2103.8  92197.80  15530.05  16.84
2106.4  91614.85  15516.95  16.94
2108.9  91051.55  15499.48  17.02
2111.5  90298.30  15451.45  17.11
2114.0  89741.55  15427.43  17.19
2116.6  89289.38  15417.50  17.27
2119.1  88821.68  15394.27  17.33
2121.7  88390.31  15373.75  17.39
2124.2  88039.25  15367.97  17.46
2126.8  87337.08  15298.37  17.52
2129.3  86988.00  15290.00  17.58
2131.9  86466.60  15250.40  17.64
2134.4  86081.74  15237.49  17.70
2136.9  85739.71  15228.26  17.76
2139.4  85286.25  15197.47  17.82
2142.0  84887.25  15186.38  17.89
2144.5  84645.68  15198.98  17.96
2147.0  84446.80  15224.63  18.03
2149.5  84024.70  15191.13  18.08
2152.1  83868.40  15208.78  18.13
2154.6  83776.00  15238.80  18.19
2157.1  83310.06  15187.34  18.23
2159.6  82962.63  15151.00  18.26
2162.1  82821.38  15160.60  18.31
2164.6  82597.30  15156.77  18.35
2167.1  82326.29  15127.25  18.37
2169.6  82030.64  15096.90  18.40
2172.1  81618.05  15052.64  18.44
2174.6  81342.80  15037.48  18.49
2177.1  80959.95  15001.87  18.53
2179.5  80593.83  14978.87  18.59
2182.0  80159.89  14955.33  18.66
2184.5  79692.65  14896.05  18.69
2187.0  79155.10  14831.56  18.74
2189.5  78543.34  14763.18  18.80
2191.9  77869.13  14691.75  18.87
2194.4  77326.35  14632.99  18.92
2196.9  76665.60  14539.20  18.96
2199.3  76081.50  14471.00  19.02
2201.8  75306.80  14363.97  19.07
2204.3  74891.35  14322.52  19.12
2206.7  74347.80  14238.18  19.15
2209.2  73939.69  14185.05  19.18
2211.6  73388.70  14107.50  19.22
2214.1  73110.11  14079.25  19.26
2216.5  72600.25  13996.07  19.28
2219.0  72302.25  13956.33  19.30
2221.4  71965.25  13895.73  19.31
2223.9  71541.31  13804.00  19.30
2226.3  71095.06  13699.88  19.27
2228.7  70604.06  13579.70  19.23
2231.1  70077.15  13436.78  19.17
2233.6  69568.10  13283.35  19.09
2236.0  69086.94  13124.71  19.00
2238.4  68633.25  12968.52  18.90
2240.9  68242.00  12794.13  18.75
2243.3  67765.20  12610.37  18.61
2245.7  67266.98  12417.60  18.46
2248.1  66856.40  12229.10  18.29
2250.5  66406.64  12042.40  18.13
2252.9  65847.28  11840.40  17.98
2255.3  65356.58  11639.01  17.81
2257.7  64950.00  11465.00  17.65
2260.1  64519.35  11284.99  17.49
2262.5  63990.00  11092.50  17.33
2264.9  63538.93  10916.78  17.18
2267.3  63007.50  10732.50  17.03
2269.7  62570.38  10570.12  16.89
2272.1  62090.81  10407.32  16.76
2274.5  61592.18  10245.40  16.63
2276.8  61174.29  10101.81  16.51
2279.2  60669.34  9952.02  16.40
2281.6  60294.30  9820.03  16.29
2284.0  59872.80  9678.33  16.16
2286.3  59462.40  9530.40  16.03
2288.7  59114.25  9394.12  15.89
2291.1  58637.00  9230.47  15.74
2293.4  58250.50  9088.57  15.60
2295.8  57698.03  8924.95  15.47
2298.2  57163.05  8756.10  15.32
2300.5  56588.63  8582.74  15.17
2302.9  55931.75  8398.42  15.02
2305.2  55295.55  8224.55  14.87
2307.6  54711.86  8067.63  14.75
2309.9  54009.75  7910.17  14.65
2312.2  53482.75  7783.58  14.55
2314.6  52948.01  7671.94  14.49
2316.9  52319.25  7547.74  14.43
2319.2  51789.28  7438.09  14.36
2321.6  51226.18  7320.25  14.29
2323.9  50734.38  7203.13  14.20
2326.2  50252.15  7084.24  14.10
2328.6  49807.31  6967.54  13.99
2330.9  49352.63  6856.50  13.89
2333.2  48926.75  6752.17  13.80
2335.5  48527.18  6658.08  13.72
2337.8  48120.63  6550.88  13.61
2340.1  47627.29  6434.95  13.51
2342.4  47246.88  6329.38  13.40
2344.8  46857.06  6230.69  13.30
2347.1  46347.88  6122.14  13.21
2349.4  45865.14  6012.34  13.11
2351.6  45352.86  5904.93  13.02
2353.9  44924.98  5811.81  12.94
2356.2  44463.89  5722.31  12.87
2358.5  43932.00  5619.60  12.79
2360.8  43411.20  5521.60  12.72
2363.1  43021.53  5437.28  12.64
2365.4  42612.30  5344.90  12.54
2367.7  42194.25  5249.70  12.44
2369.9  41718.08  5146.78  12.34
2372.2  41168.20  5036.73  12.23
2374.5  40644.45  4931.85  12.13
2376.7  40086.21  4826.73  12.04
2379.0  39532.98  4711.50  11.92
2381.3  38990.00  4596.67  11.79
2383.5  38535.20  4488.00  11.65
2385.8  37991.63  4380.15  11.53
2388.0  37524.00  4283.40  11.42
2390.3  37068.50  4191.90  11.31
2392.5  36630.00  4095.00  11.18
2394.8  36209.25  3993.00  11.03
2397.0  35799.40  3913.00  10.93
2399.3  35380.40  3819.48  10.80
2401.5  34967.63  3742.38  10.70
2403.8  34511.30  3645.73  10.56
2406.0  34065.13  3554.27  10.43
2408.2  33706.75  3478.20  10.32
2410.4  33321.14  3398.59  10.20
2412.7  32930.95  3308.18  10.05
2414.9  32618.03  3228.91  9.90
2417.1  32261.18  3155.95  9.78
2419.3  31891.20  3081.60  9.66
2421.6  31552.19  2999.90  9.51
2423.8  31217.25  2927.23  9.38
2426.0  30897.09  2862.82  9.27
2428.2  30546.60  2796.27  9.15
2430.4  30271.25  2722.76  8.99
2432.6  30010.00  2650.00  8.83
2434.8  29744.18  2593.13  8.72
2437.0  29429.08  2532.19  8.60
2439.2  29125.04  2453.28  8.42
2441.4  28834.50  2392.65  8.30
2443.6  28610.86  2362.65  8.26
2445.7  28353.24  2304.63  8.13
2447.9  28108.19  2254.50  8.02
2450.1  27861.15  2191.80  7.87
2452.3  27516.91  2131.62  7.75
2454.5  27200.09  2067.22  7.60
2456.6  26857.00  2011.60  7.49
2458.8  26522.93  1962.68  7.40
2461.0  26241.94  1917.42  7.31
2463.1  25982.66  1866.04  7.18
2465.3  25736.38  1818.19  7.06
2467.5  25510.13  1781.06  6.98
2469.6  25283.75  1748.98  6.92
2471.8  25025.28  1708.15  6.83
2473.9  24740.44  1662.94  6.72
2476.1  24399.38  1611.46  6.60
2478.2  24106.75  1584.27  6.57
2480.4  23853.90  1538.84  6.45
2482.5  23538.54  1517.37  6.45
2484.6  23211.38  1492.11  6.43
2486.8  22973.03  1452.25  6.32
2488.9  22692.49  1412.61  6.23
2491.1  22372.00  1384.37  6.19
2493.2  22010.05  1349.18  6.13
2495.3  21669.05  1326.76  6.12
2497.4  21348.60  1300.08  6.09
2499.5  21058.56  1274.44  6.05
2501.7  20940.18  1265.37  6.04
2503.8  20849.86  1241.21  5.95
2505.9  20807.50  1225.73  5.89
2508.0  20796.66  1230.55  5.92
2510.1  20789.38  1233.95  5.94
2512.2  20863.95  1220.27  5.85
2514.3  20986.08  1210.19  5.77
2516.4  21143.03  1236.18  5.85
