/*** Spectra Vista SIG Data ***/
name= 28_20221021_CECA_17_avg.sig
comm= Averaged Ref/Tar of files: HR.102122.0002_moc.sig,HR.102122.0003_moc.sig,HR.102122.0004_moc.sig
data=
337.3  3126.38  297.75  9.52
338.8  3270.80  282.19  8.63
340.3  3466.90  274.85  7.93
341.8  3658.00  268.25  7.33
343.2  3862.80  266.40  6.90
344.7  4009.10  272.96  6.81
346.2  4166.70  272.33  6.54
347.7  4365.08  272.65  6.25
349.2  4536.00  272.16  6.00
350.6  4810.98  264.42  5.50
352.1  5072.95  271.51  5.35
353.6  5343.80  272.97  5.11
355.1  5657.40  278.38  4.92
356.6  5932.28  284.05  4.79
358.0  6220.50  293.48  4.72
359.5  6489.00  300.76  4.63
361.0  6792.98  303.24  4.46
362.5  7143.10  316.17  4.43
364.0  7512.85  324.98  4.33
365.4  7868.00  329.71  4.19
366.9  8232.25  335.18  4.07
368.4  8537.08  352.76  4.13
369.9  8918.25  367.54  4.12
371.3  9318.30  388.04  4.16
372.8  9717.30  410.64  4.23
374.3  10158.75  408.50  4.02
375.8  10564.40  420.42  3.98
377.2  11002.10  419.64  3.81
378.7  11378.70  423.23  3.72
380.2  11782.20  437.57  3.71
381.7  12269.35  446.81  3.64
383.1  12747.35  463.54  3.64
384.6  13217.75  471.16  3.56
386.1  13674.65  479.24  3.50
387.6  14121.80  485.10  3.44
389.0  14579.20  500.27  3.43
390.5  15053.85  509.76  3.39
392.0  15631.95  525.47  3.36
393.4  16185.40  539.51  3.33
394.9  16730.10  556.80  3.33
396.4  17258.63  562.35  3.26
397.9  17783.75  570.58  3.21
399.3  18309.98  584.16  3.19
400.8  18868.23  604.85  3.21
402.2  19492.70  612.11  3.14
403.7  20102.63  629.16  3.13
405.2  20715.63  643.96  3.11
406.6  21297.60  652.69  3.06
408.1  21899.40  662.93  3.03
409.6  22498.75  681.91  3.03
411.0  23143.40  700.28  3.03
412.5  23802.98  721.93  3.03
414.0  24429.63  741.65  3.04
415.4  25141.88  763.20  3.04
416.9  25809.23  778.71  3.02
418.4  26499.83  801.78  3.03
419.8  27190.80  827.49  3.04
421.3  27896.13  855.60  3.07
422.7  28692.60  886.24  3.09
424.2  29463.75  922.50  3.13
425.7  30236.50  956.27  3.16
427.1  30985.35  989.59  3.19
428.6  31775.00  1025.07  3.23
430.0  32489.68  1062.25  3.27
431.5  33357.38  1100.47  3.30
432.9  34207.75  1134.89  3.32
434.4  35096.25  1172.74  3.34
435.9  35910.00  1209.60  3.37
437.3  36753.75  1250.33  3.40
438.8  37575.60  1288.72  3.43
440.2  38444.18  1324.14  3.44
441.7  39396.00  1370.37  3.48
443.1  40293.25  1406.27  3.49
444.6  41265.00  1449.73  3.51
446.0  42181.73  1492.99  3.54
447.5  43117.80  1530.32  3.55
448.9  44040.60  1573.80  3.57
450.4  45027.15  1617.89  3.59
451.8  45877.00  1655.33  3.61
453.3  46782.35  1694.52  3.62
454.7  47798.90  1740.86  3.64
456.2  48654.78  1775.68  3.65
457.6  49621.95  1816.02  3.66
459.1  50595.03  1851.29  3.66
460.5  51520.50  1884.98  3.66
462.0  52558.15  1931.37  3.67
463.4  53567.00  1972.80  3.68
464.8  54570.38  2014.65  3.69
466.3  55567.05  2053.26  3.70
467.7  56567.43  2090.61  3.70
469.2  57637.13  2130.02  3.70
470.6  58602.55  2171.19  3.70
472.0  59621.70  2208.84  3.70
473.5  60610.38  2250.58  3.71
474.9  61631.25  2297.10  3.73
476.4  62798.40  2342.40  3.73
477.8  63901.50  2385.73  3.73
479.2  64916.50  2426.33  3.74
480.7  66020.48  2476.19  3.75
482.1  67134.70  2520.08  3.75
483.6  68290.70  2572.10  3.77
485.0  69364.20  2622.87  3.78
486.4  70538.40  2677.20  3.80
487.9  71618.63  2730.00  3.81
489.3  72770.95  2793.82  3.84
490.7  73860.60  2858.61  3.87
492.2  75087.60  2930.20  3.90
493.6  76180.00  3004.23  3.94
495.0  77307.75  3086.85  3.99
496.5  78481.90  3173.71  4.04
497.9  79567.85  3269.59  4.11
499.3  80727.18  3373.29  4.18
500.7  81966.75  3504.28  4.28
502.2  83117.80  3632.48  4.37
503.6  84329.60  3792.11  4.50
505.0  85409.50  3963.31  4.64
506.5  86714.48  4172.46  4.81
507.9  87941.90  4404.01  5.01
509.3  89347.60  4668.91  5.23
510.7  90631.13  4968.60  5.48
512.2  92032.05  5307.50  5.77
513.6  93490.25  5699.82  6.10
515.0  94909.20  6131.92  6.46
516.4  96262.43  6607.44  6.86
517.8  97872.13  7147.25  7.30
519.3  99186.53  7703.72  7.77
520.7  100752.55  8321.35  8.26
522.1  102059.43  8957.04  8.78
523.5  103457.70  9628.07  9.31
524.9  104959.80  10323.00  9.84
526.3  106390.90  11013.15  10.35
527.8  107870.40  11723.58  10.87
529.2  108933.90  12398.79  11.38
530.6  110455.80  13136.01  11.89
532.0  112126.00  13878.67  12.38
533.4  113446.28  14546.97  12.82
534.8  114316.90  15139.98  13.24
536.3  115958.10  15811.96  13.64
537.7  117936.00  16517.76  14.01
539.1  119392.28  17139.97  14.36
540.5  120584.35  17711.89  14.69
541.9  122306.93  18351.73  15.00
543.3  123574.70  18913.55  15.31
544.7  124875.60  19474.24  15.59
546.1  126652.08  20095.06  15.87
547.5  127881.60  20606.51  16.11
549.0  129525.00  21158.13  16.34
550.4  131070.00  21653.75  16.52
551.8  132667.63  22119.34  16.67
553.2  134205.70  22515.66  16.78
554.6  135553.60  22817.60  16.83
556.0  137085.75  23079.12  16.84
557.4  138675.08  23291.82  16.80
558.8  140304.60  23460.00  16.72
560.2  141743.25  23548.48  16.61
561.6  143406.30  23618.88  16.47
563.0  144974.00  23621.82  16.29
564.4  146571.15  23589.80  16.09
565.8  148080.63  23506.75  15.87
567.2  149833.50  23404.90  15.62
568.6  151336.50  23215.95  15.34
570.0  152761.03  22950.92  15.02
571.4  154501.10  22690.81  14.69
572.8  156228.38  22417.62  14.35
574.2  157852.80  22135.68  14.02
575.6  159367.50  21859.50  13.72
577.0  160889.40  21608.61  13.43
578.4  162617.00  21406.23  13.16
579.8  164115.45  21202.74  12.92
581.2  165846.60  21052.61  12.69
582.5  167251.50  20888.40  12.49
583.9  168763.60  20753.84  12.30
585.3  170563.28  20679.54  12.12
586.7  172041.68  20583.59  11.96
588.1  173533.00  20507.42  11.82
589.5  175162.75  20473.83  11.69
590.9  176799.20  20455.04  11.57
592.3  178599.05  20483.27  11.47
593.7  180048.38  20489.56  11.38
595.0  181678.95  20526.84  11.30
596.4  183138.90  20547.33  11.22
597.8  184619.00  20567.85  11.14
599.2  186172.80  20577.92  11.05
600.6  187922.48  20588.01  10.96
602.0  189211.95  20520.56  10.85
603.3  191014.35  20467.73  10.72
604.7  192667.08  20368.46  10.57
606.1  194152.20  20203.20  10.41
607.5  195799.43  20018.58  10.22
608.9  197500.85  19812.37  10.03
610.2  198889.43  19552.05  9.83
611.6  200492.70  19300.55  9.63
613.0  202068.80  19043.17  9.42
614.4  203452.65  18779.20  9.23
615.8  204910.88  18532.80  9.04
617.1  206432.10  18320.12  8.87
618.5  208058.40  18144.80  8.72
619.9  209561.93  17997.56  8.59
621.3  211155.53  17899.05  8.48
622.6  212722.25  17844.53  8.39
624.0  214137.00  17812.82  8.32
625.4  215546.93  17827.70  8.27
626.8  217073.68  17884.84  8.24
628.1  218339.83  17947.01  8.22
629.5  220179.10  18058.52  8.20
630.9  221782.28  18148.31  8.18
632.2  223187.30  18194.94  8.15
633.6  224782.75  18207.30  8.10
635.0  226283.20  18140.27  8.02
636.3  227789.10  17989.69  7.90
637.7  229124.13  17727.13  7.74
639.1  230737.50  17395.00  7.54
640.4  232178.80  16975.07  7.31
641.8  233364.90  16482.18  7.06
643.2  234919.83  15991.78  6.81
644.5  236319.25  15476.00  6.55
645.9  237968.10  14988.78  6.30
647.2  239276.80  14537.69  6.08
648.6  240954.75  14183.10  5.89
650.0  242373.60  13875.84  5.72
651.3  243131.90  13597.61  5.59
652.7  245021.50  13399.73  5.47
654.0  247022.30  13223.99  5.35
655.4  248406.93  13006.04  5.24
656.8  248519.60  12687.79  5.11
658.1  249881.60  12406.31  4.96
659.5  252275.63  12133.31  4.81
660.8  253890.00  11811.00  4.65
662.2  254889.60  11447.89  4.49
663.5  256452.70  11139.97  4.34
664.9  257597.60  10843.73  4.21
666.2  258341.40  10584.96  4.10
667.6  260086.25  10412.38  4.00
668.9  261132.33  10274.40  3.93
670.3  262704.88  10185.10  3.88
671.6  263929.13  10136.20  3.84
673.0  265101.75  10127.35  3.82
674.3  266327.10  10157.16  3.81
675.7  267615.23  10216.31  3.82
677.0  268682.98  10301.83  3.83
678.4  270004.48  10436.91  3.87
679.7  271105.73  10613.11  3.91
681.1  272405.50  10863.84  3.99
682.4  273553.80  11206.17  4.10
683.8  274813.50  11680.59  4.25
685.1  275788.13  12322.15  4.47
686.4  277122.60  13248.96  4.78
687.8  278436.50  14539.63  5.22
689.1  279504.50  16295.90  5.83
690.5  280872.45  18657.78  6.64
691.8  281746.60  21695.87  7.70
693.1  283079.70  25519.00  9.01
694.5  284329.50  30030.00  10.56
695.8  285626.25  35132.07  12.30
697.1  286854.75  40692.17  14.19
698.5  287949.50  46592.51  16.18
699.8  289038.23  52702.75  18.23
701.1  290194.65  58906.63  20.30
702.5  291007.75  65001.13  22.34
703.8  291960.00  70980.00  24.31
705.1  293117.18  76795.16  26.20
706.5  294164.13  82331.05  27.99
707.8  295131.75  87588.16  29.68
709.1  295962.53  92517.78  31.26
710.5  297101.10  97277.47  32.74
711.8  297950.30  101696.92  34.13
713.1  298976.10  105939.87  35.43
714.4  299890.40  109903.32  36.65
715.8  300693.20  113619.99  37.79
717.1  301993.20  117310.68  38.85
718.4  302960.00  120658.35  39.83
719.7  304064.28  123873.21  40.74
721.0  304605.00  126684.00  41.59
722.4  305372.10  129406.93  42.38
723.7  306318.60  132040.44  43.11
725.0  307355.63  134538.06  43.77
726.3  308320.10  136855.66  44.39
727.6  308845.08  138836.87  44.95
729.0  309762.60  140842.03  45.47
730.3  310538.18  142653.69  45.94
731.6  311436.95  144400.44  46.37
732.9  312210.85  145974.59  46.76
734.2  313014.63  147443.27  47.10
735.5  314011.70  148928.93  47.43
736.8  314783.40  150201.12  47.72
738.1  315575.60  151398.53  47.98
739.5  316474.93  152579.71  48.21
740.8  317171.53  153595.31  48.43
742.1  317937.58  154596.00  48.62
743.4  318700.00  155546.67  48.81
744.7  319697.33  156548.22  48.97
746.0  320576.10  157433.64  49.11
747.3  321104.50  158105.25  49.24
748.6  321849.25  158839.73  49.35
749.9  322634.00  159560.27  49.46
751.2  323397.05  160261.15  49.56
752.5  324364.60  161007.29  49.64
753.8  324972.73  161564.18  49.72
755.1  325598.00  162101.33  49.79
756.4  326142.10  162558.48  49.84
757.7  327032.65  163191.26  49.90
759.0  328756.60  164199.97  49.95
760.3  329894.40  164904.96  49.99
761.6  331436.00  165774.75  50.02
762.9  331967.50  166135.33  50.05
764.2  332322.60  166396.23  50.07
765.5  332569.65  166596.51  50.09
766.8  332955.20  166862.93  50.12
768.1  333458.00  167172.88  50.13
769.3  334012.00  167522.13  50.15
770.6  334645.35  167886.33  50.17
771.9  335395.20  168279.88  50.17
773.2  335744.80  168510.45  50.19
774.5  336307.40  168827.71  50.20
775.8  336968.00  169187.94  50.21
777.1  337527.85  169489.76  50.22
778.4  337828.43  169672.40  50.22
779.6  338567.75  170070.60  50.23
780.9  339030.00  170320.00  50.24
782.2  339435.25  170573.70  50.25
783.5  339739.50  170734.93  50.25
784.8  340215.53  171000.66  50.26
786.0  340562.95  171204.55  50.27
787.3  340937.20  171408.65  50.28
788.6  341323.13  171621.62  50.28
789.9  341770.80  171844.96  50.28
791.2  342395.83  172182.76  50.29
792.4  343038.93  172533.99  50.30
793.7  343485.60  172771.52  50.30
795.0  344101.73  173089.29  50.30
796.2  344714.20  173420.36  50.31
797.5  345374.85  173763.90  50.31
798.8  346015.18  174096.04  50.31
800.0  346653.98  174436.48  50.32
801.3  347101.50  174680.68  50.33
802.6  347715.68  174983.76  50.32
803.8  348329.75  175307.39  50.33
805.1  348783.75  175548.22  50.33
806.4  349224.60  175762.92  50.33
807.7  349737.75  176041.08  50.34
808.9  350238.40  176329.25  50.35
810.2  350729.40  176582.84  50.35
811.4  351235.90  176841.00  50.35
812.7  351853.13  177146.67  50.35
814.0  352655.50  177559.51  50.35
815.2  353246.75  177888.40  50.36
816.5  353672.65  178107.39  50.36
817.7  354155.25  178353.13  50.36
819.0  354638.90  178602.67  50.36
820.2  354816.00  178681.07  50.36
821.5  355503.30  179040.55  50.36
822.7  355816.23  179210.52  50.37
824.0  356138.10  179383.32  50.37
825.2  356578.20  179611.83  50.37
826.5  356926.25  179764.76  50.36
827.7  357498.10  180048.93  50.36
829.0  357885.13  180230.53  50.36
830.2  358265.25  180387.01  50.35
831.5  358672.80  180640.30  50.36
832.7  358970.33  180783.75  50.36
834.0  359281.85  180954.74  50.37
835.2  359691.20  181127.21  50.36
836.4  360005.80  181283.30  50.36
837.7  360430.00  181490.51  50.35
838.9  360906.48  181740.16  50.36
840.1  361305.23  181946.79  50.36
841.4  361770.20  182178.63  50.36
842.6  362117.00  182378.27  50.36
843.8  362558.20  182589.79  50.36
845.1  363043.95  182853.39  50.37
846.3  363484.80  183056.59  50.36
847.5  363938.40  183260.28  50.35
848.8  364372.80  183496.56  50.36
850.0  364748.30  183689.80  50.36
851.2  365345.10  183971.16  50.36
852.5  365674.10  184172.35  50.37
853.7  366183.00  184413.90  50.36
854.9  366722.80  184639.33  50.35
856.1  367153.80  184906.97  50.36
857.4  367340.20  185035.64  50.37
858.6  367895.35  185290.93  50.37
859.8  368381.25  185490.25  50.35
861.0  368901.00  185693.04  50.34
862.2  369305.70  185960.63  50.35
863.5  369755.10  186132.09  50.34
864.7  370260.00  186407.76  50.35
865.9  370743.40  186612.16  50.33
867.1  371046.60  186788.79  50.34
868.3  371480.55  186985.28  50.34
869.5  371971.05  187248.88  50.34
870.8  372478.50  187476.00  50.33
872.0  373093.13  187755.41  50.32
873.2  373557.00  187935.12  50.31
874.4  374025.60  188160.57  50.31
875.6  374384.08  188332.82  50.30
876.8  374941.85  188570.45  50.29
878.0  375345.05  188785.69  50.30
879.2  375892.20  189059.12  50.30
880.4  376396.13  189282.40  50.29
881.6  376866.20  189504.38  50.28
882.8  377324.80  189666.77  50.27
884.0  377899.88  189945.55  50.26
885.2  378425.50  190168.68  50.25
886.5  379034.10  190435.17  50.24
887.7  379635.43  190672.95  50.23
888.8  380251.65  190983.81  50.23
890.0  380709.10  191248.23  50.23
891.2  381265.30  191522.80  50.23
892.4  381905.48  191760.45  50.21
893.6  382509.50  192006.28  50.20
894.8  383375.50  192437.17  50.20
896.0  384196.75  192796.43  50.18
897.2  385066.50  193211.63  50.18
898.4  385671.00  193565.24  50.19
899.6  386207.25  193816.90  50.18
900.8  386698.90  193939.83  50.15
902.0  386945.10  194021.56  50.14
903.2  387325.73  194100.58  50.11
904.3  387662.10  194275.12  50.11
905.5  388082.80  194533.21  50.13
906.7  388624.00  194841.67  50.14
907.9  389207.00  195048.75  50.11
909.1  389561.40  195123.24  50.09
910.2  389855.10  195211.77  50.07
911.4  389996.10  195269.88  50.07
912.6  390297.05  195322.75  50.04
913.8  390376.80  195434.85  50.06
915.0  390843.60  195605.06  50.05
916.2  391023.75  195617.50  50.03
917.3  390949.43  195556.08  50.02
918.5  391210.70  195583.67  49.99
919.7  391361.25  195623.62  49.99
920.8  391359.55  195617.70  49.98
922.0  391448.75  195657.00  49.98
923.2  391755.00  195704.60  49.96
924.4  391739.63  195717.60  49.96
925.5  391998.20  195783.97  49.95
926.7  392527.88  195964.95  49.92
927.9  393312.00  196308.96  49.91
929.0  394803.45  196984.80  49.89
930.2  397164.60  198011.92  49.86
931.4  399304.35  199172.07  49.88
932.5  402020.40  200404.87  49.85
933.7  403570.23  201025.66  49.81
934.9  404201.88  201156.67  49.77
936.0  403747.50  200867.12  49.75
937.2  401712.60  199731.24  49.72
938.3  399822.80  198707.92  49.70
939.5  398127.60  197806.08  49.68
940.7  398292.30  197730.84  49.64
941.8  399793.58  198323.81  49.61
943.0  401340.75  198919.70  49.56
944.2  402195.30  199161.56  49.52
945.3  401622.00  198785.60  49.50
946.5  400632.75  198233.46  49.48
947.6  400851.40  198124.59  49.43
948.8  400467.60  197853.76  49.41
949.9  400524.60  197689.52  49.36
951.1  400448.43  197263.13  49.26
952.2  400044.00  196928.00  49.23
953.4  399578.00  196500.63  49.18
954.5  399508.20  196251.12  49.12
955.7  399268.80  195950.16  49.08
956.8  399192.80  195616.09  49.00
958.0  398700.00  195126.73  48.94
959.1  398404.63  194755.53  48.88
960.3  397856.75  194405.53  48.86
961.4  397796.80  194144.85  48.81
962.6  397985.00  194005.70  48.75
963.7  397671.83  193774.04  48.73
964.9  397623.60  193590.48  48.69
966.0  397078.20  193395.60  48.70
967.2  397017.45  193287.36  48.68
968.3  396442.35  193020.30  48.69
969.5  395878.20  192757.64  48.69
970.6  396130.70  192637.32  48.63
971.8  396438.70  192670.01  48.60
972.9  396213.53  192538.75  48.59
974.0  396294.40  192585.17  48.60
975.2  395705.00  192349.02  48.61
976.3  395453.08  192169.40  48.59
977.5  395571.05  192062.48  48.55
978.6  395698.90  191941.31  48.51
979.7  395418.98  191919.07  48.54
980.9  395461.23  191793.43  48.50
982.0  394998.85  191852.01  48.57
983.2  394945.03  191699.06  48.54
984.3  394255.00  191635.12  48.61
985.4  394588.15  191624.04  48.56
986.6  394268.25  191525.12  48.58
987.7  395248.35  192102.00  48.60
988.9  395715.60  191928.96  48.50
990.0  395868.80  192403.88  48.60
993.1  384723.56  184756.79  48.02
996.9  383436.58  184582.76  48.14
1000.7  383457.73  184959.10  48.23
1004.5  383562.58  185385.43  48.33
1008.4  383192.71  185587.74  48.43
1012.2  383083.67  185880.73  48.52
1016.0  382724.40  186006.09  48.60
1019.8  382056.68  185966.55  48.68
1023.7  380820.51  185610.63  48.74
1027.5  379107.42  184999.09  48.80
1031.3  378055.55  184629.27  48.84
1035.1  376973.33  184269.76  48.88
1038.9  376538.43  184157.76  48.91
1042.7  376292.67  184149.82  48.94
1046.5  376157.00  184163.36  48.96
1050.3  376114.98  184211.22  48.98
1054.2  375792.08  184104.33  48.99
1058.0  375397.87  183934.71  49.00
1061.8  375345.71  183930.32  49.00
1065.6  374635.80  183537.99  48.99
1069.4  373744.33  183077.13  48.98
1073.2  372419.69  182390.28  48.97
1077.0  371829.60  182002.97  48.95
1080.8  372106.25  182009.52  48.91
1084.6  372269.33  181977.72  48.88
1088.4  372539.84  182035.98  48.86
1092.2  372030.75  181659.22  48.83
1096.0  371373.48  181159.00  48.78
1099.8  370657.95  180627.48  48.73
1103.6  369679.92  179971.06  48.68
1107.4  368547.39  179199.87  48.62
1111.2  368243.80  178843.07  48.57
1114.9  367712.33  178329.75  48.50
1118.7  367483.05  177892.04  48.41
1122.5  367106.13  177312.32  48.30
1126.3  366205.53  176379.15  48.16
1130.1  365814.89  175493.27  47.97
1133.9  364179.90  173748.30  47.71
1137.7  362627.00  171837.54  47.39
1141.4  360577.21  169523.04  47.01
1145.2  359687.32  167597.29  46.60
1149.0  358388.33  165640.21  46.22
1152.8  356588.75  163604.71  45.88
1156.6  354753.12  161849.60  45.62
1160.3  353003.67  160391.43  45.44
1164.1  350680.57  158911.81  45.32
1167.9  349072.92  157902.53  45.23
1171.7  347736.38  157123.13  45.18
1175.4  346274.37  156310.37  45.14
1179.2  344886.28  155525.27  45.09
1183.0  344610.33  155216.14  45.04
1186.7  344662.50  155088.87  45.00
1190.5  344346.67  154806.43  44.96
1194.3  343403.97  154264.11  44.92
1198.0  341918.50  153530.73  44.90
1201.8  340195.08  152761.33  44.90
1205.6  339064.67  152361.19  44.94
1209.3  338462.22  152270.41  44.99
1213.1  337913.25  152223.53  45.05
1216.8  337210.13  152168.59  45.13
1220.6  336069.07  151899.73  45.20
1224.3  334809.25  151554.57  45.27
1228.1  333311.40  151123.23  45.34
1231.9  331757.95  150618.21  45.40
1235.6  330077.55  150005.67  45.45
1239.4  328545.00  149500.22  45.50
1243.1  327242.93  149009.29  45.53
1246.9  325976.48  148524.56  45.56
1250.6  324969.93  148111.40  45.58
1254.3  323810.58  147629.38  45.59
1258.1  322596.40  147091.62  45.60
1261.8  321212.00  146458.00  45.60
1265.6  320125.50  145930.69  45.59
1269.3  319391.68  145521.15  45.56
1273.1  319660.59  145524.59  45.52
1276.8  319258.80  145170.46  45.47
1280.6  318004.33  144421.80  45.42
1284.3  316028.00  143300.86  45.34
1288.0  314877.19  142506.70  45.26
1291.8  314503.63  141989.29  45.15
1295.5  313793.33  141286.51  45.03
1299.2  312614.66  140281.96  44.87
1302.9  310933.61  138987.75  44.70
1306.7  309123.03  137561.90  44.50
1310.4  307411.66  136044.58  44.25
1314.1  305824.57  134519.68  43.99
1317.9  304394.79  132949.08  43.68
1321.6  302861.07  131210.43  43.32
1325.3  301180.95  129301.58  42.93
1329.0  299904.85  127519.77  42.52
1332.8  297974.60  125362.60  42.07
1336.5  296310.73  123304.51  41.61
1340.2  296174.67  121881.50  41.15
1343.9  296106.25  120471.73  40.69
1347.6  296238.30  119141.57  40.22
1351.4  297739.50  118408.93  39.77
1355.1  299787.40  117907.64  39.33
1358.8  301600.00  117236.57  38.87
1362.5  301938.73  115836.11  38.36
1366.2  300083.15  113343.01  37.77
1369.9  296830.75  110000.14  37.06
1373.6  293940.15  106290.72  36.16
1377.3  292432.80  102382.37  35.01
1381.0  291970.00  97979.24  33.56
1384.8  290078.75  92176.96  31.78
1388.4  286852.88  85396.67  29.77
1392.2  284626.75  78560.19  27.60
1395.9  283129.70  71874.41  25.39
1399.6  281322.59  65486.09  23.28
1403.3  279868.00  59843.40  21.38
1407.0  278156.90  54958.97  19.76
1410.7  276381.60  50941.51  18.43
1414.3  274462.42  47741.08  17.39
1418.1  272788.04  45333.24  16.62
1421.7  271394.08  43533.08  16.04
1425.4  270046.73  42213.55  15.63
1429.1  268831.88  41284.07  15.36
1432.8  267165.09  40585.55  15.19
1436.5  266387.43  40218.22  15.10
1440.2  265723.00  40050.81  15.07
1443.9  264613.16  39922.02  15.09
1447.6  263032.00  39815.60  15.14
1451.2  261772.32  39811.15  15.21
1454.9  260292.15  39840.17  15.31
1458.6  259063.55  40018.79  15.45
1462.3  257866.77  40343.02  15.64
1466.0  256542.60  40814.76  15.91
1469.7  254816.58  41412.49  16.25
1473.3  253739.00  42251.69  16.65
1477.0  251697.83  43040.61  17.10
1480.7  250048.15  43961.76  17.58
1484.4  248028.54  44833.62  18.08
1488.0  246429.33  45824.95  18.60
1491.7  244848.17  46801.73  19.11
1495.4  243196.96  47770.05  19.64
1499.0  241642.50  48722.07  20.16
1502.7  240354.67  49727.20  20.69
1506.4  238922.67  50652.10  21.20
1510.0  237466.63  51535.29  21.70
1513.7  235955.42  52364.67  22.19
1517.4  234579.33  53182.81  22.67
1521.0  233331.33  53993.22  23.14
1524.7  232079.25  54735.88  23.58
1528.3  230774.25  55434.57  24.02
1532.0  229551.12  56095.60  24.44
1535.7  228159.97  56657.05  24.83
1539.3  226887.29  57203.71  25.21
1543.0  225898.38  57798.38  25.59
1546.6  225192.50  58423.70  25.94
1550.3  224195.85  58921.69  26.28
1553.9  223130.00  59369.02  26.61
1557.6  221860.47  59730.21  26.92
1561.2  220591.35  60032.83  27.21
1564.9  219252.69  60311.47  27.51
1568.5  217912.80  60547.20  27.79
1572.2  216749.35  60804.39  28.05
1575.8  215642.00  61058.00  28.31
1579.5  214619.60  61298.12  28.56
1583.1  213562.46  61514.57  28.80
1586.8  212240.00  61626.00  29.04
1590.4  210991.17  61732.63  29.26
1594.0  209710.26  61804.71  29.47
1597.7  208928.11  62015.69  29.68
1601.3  208032.30  62181.68  29.89
1604.9  207062.95  62285.17  30.08
1608.6  205666.87  62235.82  30.26
1612.2  204260.10  62152.79  30.43
1615.8  202805.20  62037.02  30.59
1619.5  201569.00  61958.99  30.74
1623.1  200240.10  61832.43  30.88
1626.7  199017.98  61711.60  31.01
1630.3  197825.42  61571.31  31.12
1634.0  196714.00  61428.00  31.23
1637.6  195709.53  61278.42  31.31
1641.2  194690.85  61063.31  31.36
1644.8  193495.79  60734.36  31.39
1648.5  192393.53  60412.99  31.40
1652.1  191435.70  60094.20  31.39
1655.7  190493.00  59771.86  31.38
1659.3  189636.72  59493.32  31.37
1662.9  188232.50  59048.69  31.37
1666.6  186819.40  58615.80  31.38
1670.2  185387.24  58163.34  31.37
1673.8  183920.46  57653.66  31.35
1677.4  182734.30  57203.57  31.30
1681.0  181919.38  56794.63  31.22
1684.6  181520.08  56441.98  31.09
1688.2  180808.70  55900.59  30.92
1691.8  180136.55  55405.03  30.76
1695.4  179672.60  54954.00  30.59
1699.0  179297.30  54517.73  30.41
1702.6  178951.67  54055.10  30.21
1706.2  178331.94  53459.03  29.98
1709.8  177372.55  52782.23  29.76
1713.4  176614.75  52212.27  29.56
1717.0  175716.75  51675.57  29.41
1720.6  174876.90  51186.93  29.27
1724.2  174159.83  50738.60  29.13
1727.8  173436.20  50307.85  29.01
1731.4  172969.50  49953.55  28.88
1735.0  172800.47  49671.55  28.75
1738.6  172591.95  49329.64  28.58
1742.2  172049.45  48831.31  28.38
1745.8  171430.38  48282.94  28.16
1749.4  170481.30  47634.08  27.94
1753.0  169002.67  46839.65  27.72
1756.6  167351.92  46034.92  27.51
1760.1  166016.71  45346.36  27.31
1763.7  164281.33  44569.62  27.13
1767.3  162827.75  43899.11  26.96
1770.9  161568.52  43289.70  26.79
1774.5  160102.32  42659.88  26.65
1778.0  158950.41  42167.73  26.53
1781.6  157863.00  41751.24  26.45
1785.2  156710.75  41372.41  26.40
1788.8  155514.90  41046.12  26.39
1792.3  154267.97  40716.52  26.39
1795.9  153739.30  40588.17  26.40
1799.5  153517.67  40540.85  26.41
1803.1  154344.28  40786.67  26.43
1806.6  156273.13  41308.47  26.43
1810.2  157918.83  41750.43  26.44
1813.8  158724.70  41954.67  26.43
1817.3  158254.00  41823.31  26.43
1820.9  157098.32  41488.02  26.41
1824.5  155814.78  41089.12  26.37
1828.0  154741.58  40719.97  26.31
1831.6  154322.38  40489.72  26.24
1835.2  154161.67  40253.57  26.11
1838.7  153995.20  39927.22  25.93
1842.3  153840.00  39518.57  25.69
1845.8  152641.42  38718.50  25.37
1849.4  152010.93  37911.54  24.94
1852.9  151159.28  36858.26  24.38
1856.5  150142.87  35532.65  23.67
1860.0  149050.41  33942.56  22.77
1863.6  148942.92  32303.85  21.69
1867.1  149548.00  30504.95  20.40
1870.7  150432.78  28367.12  18.86
1874.2  149537.25  25545.34  17.08
1877.8  146976.20  22355.22  15.21
1881.3  144008.50  19125.21  13.28
1884.9  142122.57  16244.24  11.43
1888.4  140561.30  13642.24  9.71
1891.9  138930.53  11460.31  8.25
1895.5  137551.73  9766.80  7.10
1899.0  136837.38  8567.66  6.26
1901.3  177768.17  7482.89  4.21
1904.1  177600.75  6675.75  3.76
1906.8  176419.20  6034.80  3.42
1909.6  174049.40  5524.98  3.17
1912.4  171804.50  5169.73  3.01
1915.1  170166.70  4917.92  2.89
1917.9  168539.50  4720.89  2.80
1920.6  167164.00  4596.42  2.75
1923.3  165782.63  4500.61  2.71
1926.1  164088.23  4426.12  2.70
1928.8  162492.00  4370.67  2.69
1931.6  161268.13  4366.07  2.71
1934.3  160175.38  4379.71  2.73
1937.0  159118.97  4416.23  2.78
1939.8  157869.25  4459.58  2.82
1942.5  156266.00  4506.33  2.88
1945.2  154221.10  4545.75  2.95
1947.9  152506.67  4608.64  3.02
1950.7  151139.17  4704.28  3.11
1953.4  149190.10  4784.55  3.21
1956.1  147672.17  4890.39  3.31
1958.8  146336.88  5012.36  3.43
1961.5  144780.40  5130.53  3.54
1964.2  143188.50  5265.87  3.68
1966.9  141551.05  5399.83  3.81
1969.6  140247.00  5568.00  3.97
1972.3  138804.40  5722.70  4.12
1975.0  137723.70  5894.10  4.28
1977.7  136596.62  6077.62  4.45
1980.4  135436.23  6268.17  4.63
1983.1  134297.68  6459.05  4.81
1985.8  133344.90  6667.10  5.00
1988.4  132296.67  6878.45  5.20
1991.1  131364.80  7093.72  5.40
1993.8  130464.95  7312.68  5.61
1996.5  129801.47  7545.33  5.81
1999.1  129094.90  7775.11  6.02
2001.8  128394.93  8003.10  6.23
2004.5  127699.95  8229.03  6.44
2007.1  126956.05  8448.17  6.65
2009.8  126176.17  8664.99  6.87
2012.4  125570.68  8892.40  7.08
2015.1  125010.67  9108.17  7.29
2017.8  124225.03  9295.22  7.48
2020.4  123718.10  9504.18  7.68
2023.1  123353.07  9715.38  7.88
2025.7  123101.33  9926.22  8.06
2028.3  122746.00  10119.78  8.24
2031.0  122339.48  10307.12  8.43
2033.6  122034.90  10492.20  8.60
2036.2  121782.60  10666.20  8.76
2038.9  121182.30  10805.40  8.92
2041.5  120821.72  10951.04  9.06
2044.1  120251.40  11078.00  9.21
2046.8  119868.60  11202.70  9.35
2049.4  119216.10  11312.90  9.49
2052.0  118913.07  11443.58  9.62
2054.6  118510.00  11547.08  9.74
2057.2  117934.93  11650.27  9.88
2059.8  117585.60  11778.35  10.02
2062.4  116681.30  11837.23  10.14
2065.0  116135.87  11926.82  10.27
2067.6  115225.62  11982.51  10.40
2070.2  114615.45  12060.96  10.52
2072.8  113961.70  12130.69  10.64
2075.4  113513.75  12223.75  10.77
2078.0  112857.05  12296.67  10.90
2080.6  112296.80  12366.93  11.01
2083.2  111590.90  12410.68  11.12
2085.8  111082.82  12481.12  11.24
2088.4  110407.83  12534.50  11.35
2090.9  109591.17  12566.69  11.47
2093.5  108689.13  12583.09  11.58
2096.1  107912.03  12618.72  11.69
2098.7  107130.32  12653.86  11.81
2101.2  106153.67  12654.60  11.92
2103.8  105481.20  12695.36  12.04
2106.4  104782.53  12727.38  12.15
2108.9  104118.80  12750.67  12.25
2111.5  103262.93  12765.22  12.36
2114.0  102607.93  12800.16  12.47
2116.6  102077.50  12839.17  12.58
2119.1  101509.23  12866.54  12.68
2121.7  101001.25  12900.42  12.77
2124.2  100588.73  12948.37  12.87
2126.8  99787.45  12934.92  12.96
2129.3  99378.40  12968.27  13.05
2131.9  98771.20  12985.87  13.15
2134.4  98332.35  13021.30  13.24
2136.9  97938.75  13061.46  13.34
2139.4  97409.20  13072.42  13.42
2142.0  96939.27  13101.98  13.52
2144.5  96662.90  13151.23  13.61
2147.0  96426.40  13212.40  13.70
2149.5  95908.27  13227.29  13.79
2152.1  95735.38  13289.34  13.88
2154.6  95653.33  13349.16  13.96
2157.1  95102.50  13349.47  14.04
2159.6  94684.67  13364.61  14.11
2162.1  94530.80  13407.33  14.18
2164.6  94274.27  13435.13  14.25
2167.1  93936.32  13447.46  14.32
2169.6  93586.03  13465.55  14.39
2172.1  93108.93  13462.20  14.46
2174.6  92777.87  13476.82  14.53
2177.1  92313.47  13467.02  14.59
2179.5  91890.28  13465.69  14.65
2182.0  91396.25  13451.53  14.72
2184.5  90830.67  13433.81  14.79
2187.0  90220.40  13401.62  14.85
2189.5  89513.18  13352.53  14.92
2191.9  88711.00  13290.50  14.98
2194.4  88060.55  13249.03  15.05
2196.9  87302.40  13187.20  15.11
2199.3  86632.67  13137.00  15.16
2201.8  85721.47  13042.67  15.22
2204.3  85267.57  13026.72  15.28
2206.7  84631.20  12962.60  15.32
2209.2  84156.58  12924.11  15.36
2211.6  83556.00  12853.50  15.38
2214.1  83271.55  12835.50  15.41
2216.5  82695.00  12770.95  15.44
2219.0  82357.27  12727.91  15.45
2221.4  81971.17  12676.80  15.46
2223.9  81485.25  12597.47  15.46
2226.3  80979.50  12501.61  15.44
2228.7  80400.92  12383.82  15.40
2231.1  79794.00  12256.20  15.36
2233.6  79198.47  12108.74  15.29
2236.0  78639.17  11949.58  15.20
2238.4  78133.42  11790.92  15.09
2240.9  77678.67  11641.87  14.99
2243.3  77122.40  11459.76  14.86
2245.7  76535.40  11260.08  14.71
2248.1  76025.73  11059.68  14.55
2250.5  75503.95  10855.21  14.38
2252.9  74869.60  10627.79  14.20
2255.3  74306.60  10401.07  14.00
2257.7  73830.00  10210.00  13.83
2260.1  73333.63  10009.92  13.65
2262.5  72710.00  9793.33  13.47
2264.9  72149.55  9590.66  13.29
2267.3  71530.00  9393.33  13.13
2269.7  71036.00  9217.29  12.98
2272.1  70487.28  9041.71  12.83
2274.5  69913.28  8871.86  12.69
2276.8  69425.52  8707.82  12.54
2279.2  68812.35  8545.85  12.42
2281.6  68382.87  8402.31  12.29
2284.0  67922.50  8258.43  12.16
2286.3  67467.73  8110.04  12.02
2288.7  67047.07  7966.76  11.88
2291.1  66485.97  7811.45  11.75
2293.4  66024.93  7665.78  11.61
2295.8  65405.00  7505.27  11.48
2298.2  64811.70  7345.05  11.33
2300.5  64128.60  7189.80  11.21
2302.9  63384.67  7023.22  11.08
2305.2  62644.60  6866.67  10.96
2307.6  61951.58  6719.59  10.85
2309.9  61163.00  6582.33  10.76
2312.2  60563.67  6472.11  10.69
2314.6  59947.20  6358.35  10.61
2316.9  59243.40  6237.60  10.53
2319.2  58685.70  6133.61  10.45
2321.6  58053.22  6015.41  10.36
2323.9  57489.58  5906.25  10.27
2326.2  56934.70  5807.89  10.20
2328.6  56409.10  5705.70  10.11
2330.9  55891.50  5607.00  10.03
2333.2  55414.33  5510.39  9.94
2335.5  54955.20  5407.07  9.84
2337.8  54488.18  5316.19  9.76
2340.1  53916.67  5219.13  9.68
2342.4  53473.33  5124.17  9.58
2344.8  53044.08  5028.94  9.48
2347.1  52475.50  4920.38  9.38
2349.4  51910.53  4821.63  9.29
2351.6  51315.63  4715.13  9.19
2353.9  50819.53  4634.00  9.12
2356.2  50291.80  4539.30  9.03
2358.5  49705.60  4438.93  8.93
2360.8  49123.20  4345.60  8.85
2363.1  48669.12  4258.59  8.75
2365.4  48183.20  4181.00  8.68
2367.7  47709.00  4100.20  8.59
2369.9  47162.55  4007.50  8.50
2372.2  46531.73  3910.13  8.40
2374.5  45945.90  3815.35  8.30
2376.7  45316.62  3725.08  8.22
2379.0  44695.27  3629.60  8.12
2381.3  44076.67  3527.22  8.00
2383.5  43542.40  3433.95  7.89
2385.8  42913.03  3341.73  7.79
2388.0  42385.60  3252.87  7.67
2390.3  41865.60  3168.40  7.57
2392.5  41376.00  3076.00  7.43
2394.8  40898.00  2992.73  7.32
2397.0  40440.40  2916.05  7.21
2399.3  39973.52  2846.84  7.12
2401.5  39506.25  2780.75  7.04
2403.8  38969.93  2685.03  6.89
2406.0  38466.83  2603.36  6.77
2408.2  38048.27  2539.05  6.67
2410.4  37612.28  2471.70  6.57
2412.7  37209.90  2408.61  6.47
2414.9  36849.45  2344.47  6.36
2417.1  36436.30  2273.30  6.24
2419.3  36032.00  2205.87  6.12
2421.6  35637.08  2139.86  6.00
2423.8  35230.43  2078.99  5.90
2426.0  34860.25  2016.75  5.79
2428.2  34482.93  1960.00  5.68
2430.4  34168.47  1901.19  5.56
2432.6  33906.67  1857.78  5.48
2434.8  33617.17  1808.95  5.38
2437.0  33234.07  1755.29  5.28
2439.2  32872.53  1707.61  5.19
2441.4  32529.13  1645.09  5.06
2443.6  32289.55  1598.13  4.95
2445.7  32028.85  1554.93  4.85
2447.9  31757.83  1521.56  4.79
2450.1  31457.95  1479.93  4.70
2452.3  31084.90  1430.49  4.60
2454.5  30706.92  1389.97  4.53
2456.6  30316.67  1341.07  4.42
2458.8  29944.20  1310.83  4.38
2461.0  29640.67  1263.86  4.26
2463.1  29332.80  1227.05  4.18
2465.3  29032.53  1195.06  4.12
2467.5  28792.00  1180.00  4.10
2469.6  28565.42  1148.58  4.02
2471.8  28261.37  1106.23  3.91
2473.9  27934.33  1075.95  3.85
2476.1  27557.83  1061.67  3.85
2478.2  27206.73  1025.71  3.77
2480.4  26908.55  992.63  3.69
2482.5  26569.40  975.45  3.67
2484.6  26242.33  955.78  3.64
2486.8  25952.10  931.53  3.59
2488.9  25647.92  904.91  3.53
2491.1  25291.47  888.53  3.51
2493.2  24892.03  872.84  3.51
2495.3  24482.90  833.73  3.41
2497.4  24150.00  815.73  3.38
2499.5  23821.87  798.38  3.35
2501.7  23680.43  788.80  3.33
2503.8  23570.50  785.68  3.33
2505.9  23523.75  780.14  3.32
2508.0  23542.40  782.41  3.32
2510.1  23516.58  786.87  3.35
2512.2  23616.45  776.82  3.29
2514.3  23805.10  784.64  3.30
2516.4  24093.10  814.27  3.38
