/*** Spectra Vista SIG Data ***/
name= 43_20220722_QUPA_14_avg.sig
comm= Averaged Ref/Tar of files: HR.072222.0004_moc.sig,HR.072222.0005_moc.sig,HR.072222.0006_moc.sig
data=
337.3  3209.08  245.76  7.66
338.8  3334.93  238.21  7.14
340.3  3498.13  232.02  6.63
341.8  3688.48  239.51  6.49
343.2  3907.20  236.80  6.06
344.7  4037.53  219.34  5.43
346.2  4248.40  217.87  5.13
347.7  4430.62  224.71  5.07
349.2  4611.60  223.20  4.84
350.6  4823.22  220.35  4.57
352.1  5120.58  224.56  4.39
353.6  5390.07  228.03  4.23
355.1  5679.85  234.12  4.12
356.6  5965.05  234.11  3.92
358.0  6209.87  243.05  3.91
359.5  6489.00  241.32  3.72
361.0  6802.95  242.25  3.56
362.5  7143.10  248.14  3.47
364.0  7493.73  256.71  3.43
365.4  7868.00  267.62  3.40
366.9  8195.42  281.51  3.44
368.4  8527.98  285.74  3.35
369.9  8864.20  293.42  3.31
371.3  9273.80  305.14  3.29
372.8  9681.90  316.07  3.26
374.3  10087.08  319.94  3.17
375.8  10510.50  325.97  3.10
377.2  10903.47  338.17  3.10
378.7  11298.00  340.73  3.02
380.2  11674.60  343.30  2.94
381.7  12197.28  357.76  2.93
383.1  12666.50  359.33  2.84
384.6  13145.82  369.94  2.81
386.1  13602.58  375.77  2.76
387.6  14031.97  382.43  2.73
389.0  14507.73  390.51  2.69
390.5  14974.20  402.04  2.68
392.0  15517.33  415.64  2.68
393.4  16062.78  422.90  2.63
394.9  16617.00  437.48  2.63
396.4  17146.50  446.04  2.60
397.9  17647.08  453.93  2.57
399.3  18166.47  460.67  2.54
400.8  18710.37  472.39  2.52
402.2  19345.40  486.33  2.51
403.7  19934.10  504.43  2.53
405.2  20534.12  518.60  2.53
406.6  21081.07  525.87  2.49
408.1  21635.73  544.55  2.52
409.6  22213.40  560.25  2.52
411.0  22872.97  569.33  2.49
412.5  23504.48  587.07  2.50
414.0  24137.58  603.49  2.50
415.4  24804.00  620.86  2.50
416.9  25455.85  644.33  2.53
418.4  26132.55  659.85  2.53
419.8  26826.80  679.47  2.53
421.3  27521.80  699.42  2.54
422.7  28269.20  724.17  2.56
424.2  29013.75  744.11  2.56
425.7  29742.07  765.32  2.57
427.1  30478.95  783.72  2.57
428.6  31248.00  807.48  2.58
430.0  31968.67  828.12  2.59
431.5  32795.20  851.44  2.60
432.9  33636.40  872.03  2.59
434.4  34494.60  894.97  2.59
435.9  35289.33  921.33  2.61
437.3  36107.50  942.86  2.61
438.8  36914.95  967.06  2.62
440.2  37747.97  990.73  2.62
441.7  38681.33  1018.40  2.63
443.1  39546.83  1043.60  2.64
444.6  40479.00  1069.21  2.64
446.0  41372.95  1097.31  2.65
447.5  42290.60  1125.09  2.66
448.9  43189.20  1159.77  2.69
450.4  44150.87  1191.40  2.70
451.8  44997.33  1217.05  2.70
453.3  45884.53  1246.48  2.72
454.7  46850.30  1278.60  2.73
456.2  47680.53  1302.35  2.73
457.6  48604.20  1333.82  2.74
459.1  49542.35  1360.42  2.75
460.5  50441.58  1389.73  2.76
462.0  51467.13  1422.06  2.76
463.4  52452.73  1452.20  2.77
464.8  53400.25  1478.68  2.77
466.3  54351.55  1506.69  2.77
467.7  55295.98  1534.84  2.78
469.2  56318.77  1568.36  2.78
470.6  57258.43  1599.03  2.79
472.0  58261.12  1630.02  2.80
473.5  59221.42  1660.02  2.80
474.9  60201.50  1689.64  2.81
476.4  61315.20  1725.26  2.81
477.8  62340.33  1757.95  2.82
479.2  63316.67  1793.86  2.83
480.7  64375.15  1829.36  2.84
482.1  65448.87  1870.24  2.86
483.6  66595.23  1912.91  2.87
485.0  67636.85  1952.05  2.89
486.4  68773.00  1994.04  2.90
487.9  69819.75  2044.71  2.93
489.3  70935.23  2095.16  2.95
490.7  71965.98  2154.06  2.99
492.2  73137.40  2214.80  3.03
493.6  74187.60  2277.03  3.07
495.0  75250.50  2342.79  3.11
496.5  76378.48  2419.28  3.17
497.9  77444.87  2508.73  3.24
499.3  78560.17  2602.37  3.31
500.7  79754.60  2712.34  3.40
502.2  80854.80  2832.40  3.50
503.6  82042.27  2974.23  3.63
505.0  83055.73  3128.13  3.77
506.5  84306.15  3311.01  3.93
507.9  85441.42  3525.53  4.13
509.3  86757.60  3771.88  4.35
510.7  87954.75  4046.25  4.60
512.2  89281.80  4365.93  4.89
513.6  90682.43  4724.57  5.21
515.0  92035.75  5129.13  5.57
516.4  93347.10  5567.40  5.96
517.8  94891.75  6052.22  6.38
519.3  96151.02  6557.61  6.82
520.7  97619.40  7103.95  7.28
522.1  98849.83  7647.65  7.74
523.5  100154.13  8193.06  8.18
524.9  101528.10  8736.69  8.61
526.3  102870.37  9249.60  8.99
527.8  104276.70  9745.84  9.35
529.2  105323.13  10201.53  9.69
530.6  106824.03  10679.24  10.00
532.0  108472.00  11122.67  10.25
533.4  109695.05  11479.28  10.46
534.8  110516.92  11761.43  10.64
536.3  112135.40  12096.52  10.79
537.7  114097.20  12457.20  10.92
539.1  115493.47  12738.18  11.03
540.5  116619.90  12980.72  11.13
541.9  118299.50  13283.32  11.23
543.3  119515.73  13531.72  11.32
544.7  120764.00  13776.63  11.41
546.1  122446.50  14074.42  11.49
547.5  123685.33  14308.27  11.57
549.0  125370.67  14570.29  11.62
550.4  126763.33  14783.93  11.66
551.8  128215.55  14968.56  11.67
553.2  129673.52  15112.93  11.65
554.6  130949.87  15192.92  11.60
556.0  132397.20  15248.02  11.52
557.4  133922.13  15265.27  11.40
558.8  135460.80  15240.13  11.25
560.2  136825.50  15148.49  11.07
561.6  138402.30  15037.81  10.87
563.0  139904.10  14876.49  10.63
564.4  141405.17  14676.56  10.38
565.8  142835.42  14428.75  10.10
567.2  144480.00  14171.57  9.81
568.6  145884.50  13867.18  9.51
570.0  147247.92  13540.01  9.20
571.4  148880.33  13235.79  8.89
572.8  150536.08  12943.14  8.60
574.2  152066.13  12657.07  8.32
575.6  153510.00  12390.00  8.07
577.0  154960.67  12151.27  7.84
578.4  156580.67  11954.58  7.63
579.8  158010.75  11771.16  7.45
581.2  159626.97  11627.92  7.28
582.5  160960.80  11487.17  7.14
583.9  162399.47  11374.08  7.00
585.3  164088.00  11296.95  6.88
586.7  165480.03  11216.46  6.78
588.1  166880.42  11157.31  6.69
589.5  168429.33  11130.00  6.61
590.9  169970.93  11111.58  6.54
592.3  171684.00  11122.89  6.48
593.7  173030.65  11125.03  6.43
595.0  174573.90  11139.43  6.38
596.4  175938.70  11140.70  6.33
597.8  177331.87  11131.18  6.28
599.2  178789.60  11108.11  6.21
600.6  180447.15  11080.06  6.14
602.0  181658.15  10998.27  6.05
603.3  183349.57  10918.72  5.96
604.7  184913.35  10808.46  5.85
606.1  186318.40  10665.43  5.72
607.5  187857.53  10512.71  5.60
608.9  189440.83  10352.84  5.46
610.2  190748.25  10183.05  5.34
611.6  192260.60  10022.05  5.21
613.0  193716.70  9868.66  5.09
614.4  195018.50  9716.63  4.98
615.8  196374.75  9589.82  4.88
617.1  197813.00  9486.40  4.80
618.5  199346.13  9405.75  4.72
619.9  200761.15  9347.31  4.66
621.3  202296.45  9314.91  4.60
622.6  203780.67  9303.95  4.57
624.0  205134.80  9300.90  4.53
625.4  206512.90  9321.40  4.51
626.8  208001.73  9357.83  4.50
628.1  209226.78  9398.14  4.49
629.5  210958.15  9468.04  4.49
630.9  212438.60  9532.99  4.49
632.2  213715.25  9581.98  4.48
633.6  215204.17  9624.25  4.47
635.0  216639.73  9641.83  4.45
636.3  218060.73  9633.63  4.42
637.7  219342.00  9586.03  4.37
639.1  220896.67  9513.33  4.31
640.4  222269.02  9396.37  4.23
641.8  223406.67  9250.32  4.14
643.2  224891.92  9098.33  4.05
644.5  226178.33  8921.64  3.94
645.9  227722.20  8764.63  3.85
647.2  229230.63  8627.35  3.76
648.6  230850.00  8499.21  3.68
650.0  232128.00  8378.74  3.61
651.3  232632.40  8240.91  3.54
652.7  233988.23  8142.14  3.48
654.0  236007.40  8065.16  3.42
655.4  237361.05  7975.59  3.36
656.8  237457.13  7845.55  3.30
658.1  238667.80  7746.10  3.25
659.5  241055.85  7686.25  3.19
660.8  242760.00  7622.14  3.14
662.2  243622.40  7539.20  3.09
663.5  245141.43  7499.36  3.06
664.9  246297.13  7480.32  3.04
666.2  246967.60  7457.08  3.02
667.6  248566.55  7492.69  3.01
668.9  249667.10  7542.66  3.02
670.3  250928.17  7609.63  3.03
671.6  252254.50  7697.39  3.05
673.0  253360.75  7802.75  3.08
674.3  254547.80  7928.64  3.11
675.7  255790.38  8068.94  3.15
677.0  256840.87  8218.47  3.20
678.4  258088.95  8403.06  3.26
679.7  259131.47  8596.04  3.32
681.1  260352.55  8825.80  3.39
682.4  261428.27  9092.57  3.48
683.8  262606.93  9412.50  3.58
685.1  263538.25  9800.32  3.72
686.4  264742.40  10296.57  3.89
687.8  265932.00  10938.52  4.11
689.1  266955.50  11777.67  4.41
690.5  268229.80  12914.04  4.81
691.8  268980.80  14394.70  5.35
693.1  270259.80  16355.46  6.05
694.5  271346.83  18780.67  6.92
695.8  272469.17  21714.33  7.97
697.1  273606.67  25139.83  9.19
698.5  274594.33  29034.38  10.57
699.8  275652.42  33334.41  12.09
701.1  276755.93  37981.71  13.72
702.5  277485.27  42814.93  15.43
703.8  278370.00  47798.57  17.17
705.1  279460.35  52852.52  18.91
706.5  280448.25  57868.14  20.63
707.8  281386.50  62784.34  22.31
709.1  282217.77  67544.82  23.93
710.5  283304.25  72205.43  25.49
711.8  284102.00  76618.55  26.97
713.1  285038.60  80891.66  28.38
714.4  285886.00  84948.14  29.71
715.8  286673.93  88794.35  30.97
717.1  287942.50  92588.60  32.16
718.4  288855.47  96078.93  33.26
719.7  289882.55  99435.82  34.30
721.0  290355.00  102435.00  35.28
722.4  291060.37  105319.24  36.18
723.7  291973.60  108105.21  37.03
725.0  292970.70  110759.49  37.81
726.3  293879.48  113222.87  38.53
727.6  294396.85  115396.68  39.20
729.0  295258.72  117561.58  39.82
730.3  295978.70  119537.03  40.39
731.6  296829.30  121433.88  40.91
732.9  297578.63  123182.38  41.39
734.2  298358.50  124831.40  41.84
735.5  299316.42  126461.44  42.25
736.8  300057.80  127903.26  42.63
738.1  300837.27  129276.24  42.97
739.5  301752.35  130607.16  43.28
740.8  302413.10  131764.08  43.57
742.1  303113.87  132876.58  43.84
743.4  303783.33  133921.43  44.08
744.7  304701.42  135009.93  44.31
746.0  305518.20  135989.47  44.51
747.3  306061.77  136782.40  44.69
748.6  306768.33  137598.19  44.85
749.9  307458.67  138344.76  45.00
751.2  308134.17  139060.72  45.13
752.5  308970.97  139800.39  45.25
753.8  309545.02  140385.32  45.35
755.1  310214.67  140974.47  45.44
756.4  310747.58  141477.17  45.53
757.7  311700.55  142123.65  45.60
759.0  313423.72  143098.59  45.66
760.3  314547.20  143774.40  45.71
761.6  316025.73  144607.73  45.76
762.9  316541.67  144977.35  45.80
764.2  316899.93  145249.75  45.83
765.5  317165.40  145476.86  45.87
766.8  317569.07  145750.55  45.90
768.1  318059.20  146055.05  45.92
769.3  318638.60  146371.20  45.94
770.6  319263.53  146726.85  45.96
771.9  319936.52  147094.97  45.98
773.2  320314.13  147309.45  45.99
774.5  320872.93  147616.86  46.00
775.8  321542.87  147945.55  46.01
777.1  322088.07  148237.47  46.02
778.4  322399.92  148416.90  46.04
779.6  323110.75  148783.53  46.05
780.9  323560.00  149014.29  46.05
782.2  323997.67  149247.74  46.06
783.5  324276.00  149412.24  46.08
784.8  324772.20  149668.59  46.08
786.0  325164.47  149861.17  46.09
787.3  325514.45  150045.82  46.09
788.6  325930.43  150250.37  46.10
789.9  326357.73  150475.20  46.11
791.2  326987.85  150778.82  46.11
792.4  327595.63  151091.45  46.12
793.7  328032.53  151314.72  46.13
795.0  328621.15  151603.65  46.13
796.2  329267.32  151910.11  46.14
797.5  329910.65  152231.09  46.14
798.8  330527.92  152527.61  46.15
800.0  331182.92  152831.70  46.15
801.3  331638.67  153053.68  46.15
802.6  332202.15  153315.47  46.15
803.8  332815.38  153617.72  46.16
805.1  333282.25  153850.42  46.16
806.4  333705.20  154058.26  46.17
807.7  334219.50  154314.06  46.17
808.9  334710.33  154564.73  46.18
810.2  335225.80  154798.70  46.18
811.4  335717.20  155022.78  46.18
812.7  336320.83  155311.31  46.18
814.0  337128.23  155680.25  46.18
815.2  337701.83  155978.00  46.19
816.5  338115.45  156175.93  46.19
817.7  338543.57  156390.26  46.20
819.0  339025.87  156626.91  46.20
820.2  339210.67  156707.05  46.20
821.5  339875.80  157031.93  46.20
822.7  340226.53  157194.80  46.20
824.0  340516.80  157353.94  46.21
825.2  340929.00  157574.31  46.22
826.5  341230.95  157718.40  46.22
827.7  341809.93  157956.51  46.21
829.0  342179.43  158147.43  46.22
830.2  342490.70  158277.68  46.21
831.5  342959.13  158507.43  46.22
832.7  343200.55  158638.65  46.22
834.0  343454.00  158790.82  46.23
835.2  343828.65  158960.66  46.23
836.4  344107.50  159094.78  46.23
837.7  344495.20  159286.06  46.24
838.9  344916.37  159497.20  46.24
840.1  345263.40  159681.92  46.25
841.4  345648.53  159878.16  46.25
842.6  345990.80  160056.46  46.26
843.8  346326.00  160201.24  46.26
845.1  346801.83  160442.83  46.26
846.3  347137.60  160627.27  46.27
847.5  347536.00  160816.60  46.27
848.8  347892.80  161009.60  46.28
850.0  348208.70  161183.53  46.29
851.2  348721.20  161422.84  46.29
852.5  349063.27  161595.09  46.29
853.7  349566.00  161807.57  46.29
854.9  349977.47  162007.95  46.29
856.1  350371.67  162197.53  46.29
857.4  350519.60  162269.70  46.29
858.6  350938.80  162484.74  46.30
859.8  351315.00  162667.86  46.30
861.0  351748.80  162884.06  46.31
862.2  352200.32  163073.12  46.30
863.5  352517.10  163247.97  46.31
864.7  353029.60  163460.63  46.30
865.9  353347.60  163619.09  46.31
867.1  353646.07  163751.45  46.30
868.3  353990.60  163921.50  46.31
869.5  354495.90  164117.27  46.30
870.8  354960.00  164358.43  46.30
872.0  355385.70  164591.78  46.31
873.2  355843.00  164747.64  46.30
874.4  356229.90  164937.41  46.30
875.6  356541.07  165096.26  46.30
876.8  357064.43  165309.46  46.30
878.0  357518.13  165485.11  46.29
879.2  357929.60  165693.57  46.29
880.4  358416.75  165904.04  46.29
881.6  358879.92  166097.24  46.28
882.8  359291.73  166259.66  46.27
884.0  359863.42  166512.58  46.27
885.2  360330.07  166713.52  46.27
886.5  360849.47  166944.92  46.26
887.7  361240.32  167146.42  46.27
888.8  361874.95  167407.05  46.26
890.0  362404.00  167625.06  46.25
891.2  363056.27  167865.78  46.24
892.4  363629.00  168112.80  46.23
893.6  364138.77  168346.39  46.23
894.8  364933.33  168725.81  46.23
896.0  365703.17  169065.29  46.23
897.2  366461.33  169384.74  46.22
898.4  367257.00  169710.83  46.21
899.6  367786.75  169929.61  46.20
900.8  368144.10  170075.63  46.20
902.0  368407.10  170172.73  46.19
903.2  368695.60  170270.56  46.18
904.3  368981.80  170403.34  46.18
905.5  369602.67  170664.46  46.18
906.7  370161.33  170898.57  46.17
907.9  370629.47  171101.93  46.17
909.1  370955.25  171225.52  46.16
910.2  371143.95  171276.39  46.15
911.4  371367.75  171355.69  46.14
912.6  371618.87  171431.80  46.13
913.8  371728.75  171505.73  46.14
915.0  372267.70  171657.50  46.11
916.2  372391.50  171716.07  46.11
917.3  372491.85  171716.02  46.10
918.5  372693.13  171793.95  46.10
919.7  372900.40  171879.47  46.09
920.8  373090.78  171868.30  46.07
922.0  373077.83  171876.83  46.07
923.2  373373.00  171938.00  46.05
924.4  373612.50  171993.53  46.04
925.5  373852.73  172074.61  46.03
926.7  374541.17  172287.31  46.00
927.9  375285.20  172611.08  45.99
929.0  376507.80  173146.50  45.99
930.2  378652.27  174015.93  45.96
931.4  380917.35  175026.73  45.95
932.5  383547.50  176126.20  45.92
933.7  384929.20  176638.32  45.89
934.9  385586.25  176860.00  45.87
936.0  385146.67  176614.13  45.86
937.2  383182.20  175676.39  45.85
938.3  381547.73  174870.74  45.83
939.5  380136.00  174130.97  45.81
940.7  380472.00  174142.89  45.77
941.8  381958.70  174723.30  45.74
943.0  383356.00  175272.36  45.72
944.2  384052.07  175465.77  45.69
945.3  383591.00  175193.57  45.67
946.5  382931.10  174782.57  45.64
947.6  383179.87  174753.85  45.61
948.8  383134.70  174585.54  45.57
949.9  383219.20  174482.80  45.53
951.1  382869.07  174093.90  45.47
952.2  382704.00  173846.86  45.43
953.4  382445.33  173537.33  45.38
954.5  382590.00  173333.83  45.31
955.7  382561.20  173175.60  45.27
956.8  382487.13  172867.33  45.20
958.0  382013.67  172495.76  45.15
959.1  381926.70  172281.92  45.11
960.3  381451.87  171977.50  45.08
961.4  381378.30  171824.63  45.05
962.6  381522.17  171775.17  45.02
963.7  381398.60  171634.04  45.00
964.9  381390.65  171509.84  44.97
966.0  381304.80  171450.00  44.96
967.2  381256.50  171420.77  44.96
968.3  381156.30  171312.30  44.95
969.5  380781.15  171126.52  44.94
970.6  380924.52  171117.68  44.92
971.8  381068.22  171157.03  44.92
972.9  381122.65  171099.30  44.89
974.0  381303.00  171206.13  44.90
975.2  381150.33  171179.77  44.91
976.3  380992.57  171101.79  44.91
977.5  380948.28  171079.17  44.91
978.6  380895.20  171052.28  44.91
979.7  381403.05  171103.50  44.86
980.9  381482.55  171093.83  44.85
982.0  381080.30  171136.46  44.91
983.2  380809.43  170989.57  44.90
984.3  380297.47  170960.36  44.95
985.4  380316.63  170927.59  44.94
986.6  380348.08  170726.75  44.89
987.7  381769.03  171317.77  44.87
988.9  381468.00  171299.48  44.91
990.0  381799.93  171737.20  44.98
993.1  341757.91  152392.04  44.59
996.9  341841.58  152881.43  44.72
1000.7  342595.93  153565.06  44.82
1004.5  342966.33  154068.32  44.92
1008.4  342717.17  154271.72  45.01
1012.2  342601.71  154537.89  45.11
1016.0  342559.80  154833.00  45.20
1019.8  342521.03  155093.40  45.28
1023.7  342233.83  155203.10  45.35
1027.5  341645.22  155164.66  45.42
1031.3  341602.40  155301.01  45.46
1035.1  341295.50  155304.36  45.50
1038.9  341162.07  155354.10  45.54
1042.7  340990.92  155373.08  45.57
1046.5  340838.00  155374.19  45.59
1050.3  340825.64  155417.10  45.60
1054.2  340516.17  155338.58  45.62
1058.0  340082.75  155145.12  45.62
1061.8  339955.54  155134.04  45.63
1065.6  339646.97  154993.45  45.63
1069.4  339485.67  154914.99  45.63
1073.2  338905.78  154651.26  45.63
1077.0  338351.73  154397.13  45.63
1080.8  338001.04  154135.86  45.60
1084.6  337278.43  153707.87  45.57
1088.4  336849.19  153442.47  45.55
1092.2  336141.00  153019.29  45.52
1096.0  335576.71  152659.44  45.49
1099.8  335065.25  152325.24  45.46
1103.6  334378.92  151882.35  45.42
1107.4  333488.62  151302.75  45.37
1111.2  333231.00  151020.40  45.32
1114.9  332646.42  150564.50  45.26
1118.7  332090.55  150079.76  45.19
1122.5  331507.80  149493.81  45.10
1126.3  330536.68  148658.30  44.97
1130.1  330106.97  147929.06  44.81
1133.9  328619.20  146520.00  44.59
1137.7  327289.50  145017.76  44.31
1141.4  325592.26  143177.94  43.97
1145.2  324881.29  141640.44  43.60
1149.0  323828.75  140051.67  43.25
1152.8  322316.95  138402.38  42.94
1156.6  320762.75  137013.43  42.71
1160.3  319180.33  135832.14  42.56
1164.1  316972.00  134612.71  42.47
1167.9  315387.50  133776.49  42.42
1171.7  314212.50  133191.00  42.39
1175.4  313045.90  132659.45  42.38
1179.2  312021.00  132150.46  42.35
1183.0  311737.33  131921.38  42.32
1186.7  311315.67  131626.57  42.28
1190.5  310493.67  131180.79  42.25
1194.3  309452.83  130707.59  42.24
1198.0  308274.45  130226.41  42.24
1201.8  306858.08  129657.12  42.25
1205.6  305765.67  129265.33  42.28
1209.3  304974.87  129061.70  42.32
1213.1  304208.63  128873.36  42.36
1216.8  303371.57  128714.90  42.43
1220.6  302353.33  128485.87  42.50
1224.3  301189.75  128189.05  42.56
1228.1  299982.20  127929.14  42.65
1231.9  298768.60  127589.81  42.71
1235.6  297378.53  127154.81  42.76
1239.4  296118.88  126785.70  42.82
1243.1  294928.77  126400.67  42.86
1246.9  293795.42  126000.68  42.89
1250.6  292887.20  125661.43  42.90
1254.3  291877.12  125272.16  42.92
1258.1  290921.63  124889.58  42.93
1261.8  289702.13  124370.15  42.93
1265.6  288439.43  123788.73  42.92
1269.3  287251.10  123201.91  42.89
1273.1  287290.95  123117.58  42.85
1276.8  287410.00  123060.91  42.82
1280.6  287054.97  122796.76  42.78
1284.3  285655.20  122053.49  42.73
1288.0  284342.86  121309.01  42.66
1291.8  283352.12  120615.26  42.57
1295.5  282220.40  119838.40  42.46
1299.2  281100.25  119021.60  42.34
1302.9  279716.94  118034.68  42.20
1306.7  278260.38  116949.12  42.03
1310.4  276841.53  115789.22  41.83
1314.1  275543.40  114620.63  41.60
1317.9  274343.13  113408.54  41.34
1321.6  273055.02  112038.54  41.03
1325.3  271537.88  110483.48  40.69
1329.0  270331.60  108987.63  40.32
1332.8  268437.40  107118.00  39.90
1336.5  266800.27  105342.18  39.48
1340.2  266463.17  104056.33  39.05
1343.9  266100.21  102749.67  38.61
1347.6  265539.15  101349.79  38.17
1351.4  265825.00  100300.50  37.73
1355.1  266251.70  99332.25  37.31
1358.8  266592.00  98269.72  36.86
1362.5  266256.68  96876.70  36.38
1366.2  264730.80  94881.25  35.84
1369.9  262858.25  92535.38  35.20
1373.6  260869.12  89802.63  34.42
1377.3  259170.00  86655.00  33.44
1381.0  258181.67  83066.64  32.17
1384.8  256441.25  78496.79  30.61
1388.4  254198.93  73342.95  28.85
1392.2  252427.92  67963.57  26.92
1395.9  250999.58  62550.15  24.92
1399.6  249534.91  57339.90  22.98
1403.3  248445.88  52700.37  21.21
1407.0  247369.20  48701.40  19.69
1410.7  246254.25  45423.91  18.45
1414.3  245052.44  42851.47  17.49
1418.1  243932.67  40959.82  16.79
1421.7  243042.68  39620.95  16.30
1425.4  242124.03  38706.85  15.99
1429.1  241264.50  38143.18  15.81
1432.8  239892.34  37763.63  15.74
1436.5  239150.88  37665.14  15.75
1440.2  238419.07  37706.92  15.82
1443.9  237270.37  37768.68  15.92
1447.6  235866.40  37844.40  16.04
1451.2  234854.03  38000.36  16.18
1454.9  233658.45  38158.52  16.33
1458.6  232638.04  38416.92  16.51
1462.3  231558.43  38768.82  16.74
1466.0  230348.66  39238.73  17.03
1469.7  228843.66  39813.83  17.40
1473.3  227884.50  40603.07  17.82
1477.0  226136.73  41342.45  18.28
1480.7  224692.48  42173.80  18.77
1484.4  222938.23  42938.26  19.26
1488.0  221525.33  43790.48  19.77
1491.7  220071.52  44602.56  20.27
1495.4  218520.58  45386.64  20.77
1499.0  217094.00  46149.36  21.26
1502.7  215904.00  46948.91  21.75
1506.4  214614.01  47679.92  22.22
1510.0  213301.90  48382.83  22.68
1513.7  211974.00  49022.46  23.13
1517.4  210743.00  49656.81  23.56
1521.0  209634.40  50267.58  23.98
1524.7  208517.83  50814.68  24.37
1528.3  207355.00  51318.14  24.75
1532.0  206244.50  51783.97  25.11
1535.7  204979.98  52164.56  25.45
1539.3  203837.53  52545.62  25.78
1543.0  202938.73  52965.51  26.10
1546.6  202307.08  53420.10  26.41
1550.3  201420.80  53767.34  26.69
1553.9  200452.13  54068.43  26.97
1557.6  199316.33  54290.24  27.24
1561.2  198159.75  54468.77  27.49
1564.9  196968.49  54631.53  27.74
1568.5  195755.00  54761.82  27.97
1572.2  194704.90  54919.44  28.21
1575.8  193704.00  55080.00  28.44
1579.5  192792.00  55237.76  28.65
1583.1  191893.28  55386.96  28.86
1586.8  190764.00  55460.00  29.07
1590.4  189772.77  55561.98  29.28
1594.0  188578.87  55586.73  29.48
1597.7  187620.34  55677.52  29.68
1601.3  186528.83  55713.83  29.87
1604.9  185418.15  55718.45  30.05
1608.6  184216.43  55675.64  30.22
1612.2  183222.60  55675.24  30.39
1615.8  182108.23  55610.52  30.54
1619.5  181055.83  55539.43  30.68
1623.1  179848.77  55411.75  30.81
1626.7  178726.28  55281.11  30.93
1630.3  177632.33  55141.81  31.04
1634.0  176540.00  54976.00  31.14
1637.6  175481.67  54799.72  31.23
1641.2  174430.75  54572.21  31.29
1644.8  173222.12  54254.60  31.32
1648.5  172228.35  53965.05  31.33
1652.1  171300.90  53656.54  31.32
1655.7  170471.00  53335.20  31.29
1659.3  169687.63  53037.12  31.26
1662.9  168427.50  52570.48  31.21
1666.6  167168.27  52114.99  31.18
1670.2  165944.57  51652.33  31.13
1673.8  164667.93  51167.53  31.07
1677.4  163682.50  50744.59  31.00
1681.0  162974.43  50362.36  30.90
1684.6  162606.17  50040.10  30.77
1688.2  161960.90  49563.41  30.60
1691.8  161356.42  49146.33  30.46
1695.4  160999.60  48768.89  30.29
1699.0  160694.33  48419.77  30.13
1702.6  160418.67  48065.81  29.96
1706.2  159903.68  47625.72  29.78
1709.8  159089.40  47104.59  29.61
1713.4  158456.59  46631.89  29.43
1717.0  157677.50  46129.57  29.26
1720.6  156969.60  45648.42  29.08
1724.2  156324.45  45197.16  28.91
1727.8  155677.20  44765.15  28.76
1731.4  155212.75  44411.32  28.61
1735.0  155012.18  44147.90  28.48
1738.6  154793.55  43849.31  28.33
1742.2  154276.90  43438.84  28.16
1745.8  153702.65  42995.14  27.97
1749.4  152862.60  42452.38  27.77
1753.0  151527.67  41755.82  27.56
1756.6  150023.13  41037.46  27.35
1760.1  148833.48  40425.79  27.16
1763.7  147261.33  39733.05  26.98
1767.3  145968.33  39149.33  26.82
1770.9  144828.48  38625.54  26.67
1774.5  143519.10  38073.40  26.53
1778.0  142482.64  37612.40  26.40
1781.6  141470.70  37201.91  26.30
1785.2  140423.65  36794.08  26.20
1788.8  139357.90  36427.67  26.14
1792.3  138242.50  36059.48  26.08
1795.9  137782.88  35883.13  26.04
1799.5  137349.67  35737.91  26.02
1803.1  137058.72  35632.92  26.00
1806.6  137803.40  35780.83  25.97
1810.2  138917.33  36036.77  25.94
1813.8  139673.40  36199.79  25.92
1817.3  139534.20  36139.80  25.90
1820.9  138669.40  35887.20  25.88
1824.5  137509.78  35545.32  25.85
1828.0  136625.04  35253.30  25.80
1831.6  135915.83  34976.74  25.73
1835.2  135334.17  34680.00  25.63
1838.7  135029.20  34375.48  25.46
1842.3  134745.00  34022.14  25.25
1845.8  134016.17  33458.17  24.97
1849.4  133518.30  32835.74  24.59
1852.9  132916.47  32036.72  24.10
1856.5  132108.32  30999.26  23.47
1860.0  131379.57  29775.10  22.66
1863.6  131152.98  28445.36  21.69
1867.1  131060.30  26908.35  20.53
1870.7  131145.60  25059.72  19.11
1874.2  130533.75  22762.03  17.44
1877.8  129266.67  20242.11  15.66
1881.3  127767.50  17643.20  13.81
1884.9  126707.26  15230.18  12.02
1888.4  125713.56  12964.87  10.31
1891.9  124644.40  11019.53  8.84
1895.5  123556.12  9458.95  7.66
1899.0  122932.25  8326.02  6.77
1901.3  153256.75  6959.46  4.54
1904.1  153155.25  6288.75  4.11
1906.8  152406.90  5745.75  3.77
1909.6  150814.65  5317.90  3.53
1912.4  149309.48  5030.46  3.37
1915.1  148214.14  4817.86  3.25
1917.9  146984.75  4670.67  3.18
1920.6  145977.55  4593.48  3.15
1923.3  144962.48  4543.41  3.13
1926.1  143695.90  4526.01  3.15
1928.8  142549.00  4528.33  3.18
1931.6  141634.65  4566.41  3.22
1934.3  140794.51  4618.82  3.28
1937.0  139937.10  4688.43  3.35
1939.8  138982.63  4781.02  3.44
1942.5  137791.50  4875.75  3.54
1945.2  136270.61  4971.59  3.65
1947.9  135028.60  5089.41  3.77
1950.7  134032.85  5222.73  3.90
1953.4  132484.76  5343.23  4.03
1956.1  131249.50  5492.27  4.18
1958.8  130149.18  5650.56  4.34
1961.5  128850.60  5802.90  4.50
1964.2  127504.65  5965.05  4.68
1966.9  126098.18  6126.85  4.86
1969.6  124989.75  6304.50  5.04
1972.3  123714.45  6490.33  5.25
1975.0  122760.56  6695.03  5.45
1977.7  121769.19  6903.45  5.67
1980.4  120756.45  7109.77  5.89
1983.1  119773.54  7317.64  6.11
1985.8  118937.70  7545.08  6.34
1988.4  118020.50  7761.00  6.58
1991.1  117178.08  7983.68  6.81
1993.8  116376.70  8209.53  7.05
1996.5  115801.54  8442.18  7.29
1999.1  115174.68  8664.06  7.52
2001.8  114549.23  8896.65  7.77
2004.5  113914.01  9119.26  8.01
2007.1  113252.29  9313.89  8.22
2009.8  112587.30  9503.14  8.44
2012.4  112072.68  9702.37  8.66
2015.1  111577.20  9887.33  8.86
2017.8  110852.00  10036.25  9.05
2020.4  110405.35  10202.13  9.24
2023.1  110075.00  10368.64  9.42
2025.7  109837.00  10530.00  9.59
2028.3  109544.50  10664.33  9.74
2031.0  109201.60  10786.87  9.88
2033.6  108947.93  10903.28  10.01
2036.2  108706.50  11007.68  10.13
2038.9  108177.98  11075.10  10.24
2041.5  107862.21  11157.34  10.34
2044.1  107362.35  11209.95  10.44
2046.8  107023.05  11277.38  10.54
2049.4  106448.85  11303.48  10.62
2052.0  106162.40  11362.07  10.70
2054.6  105794.06  11410.00  10.79
2057.2  105297.80  11453.77  10.88
2059.8  105022.70  11528.00  10.98
2062.4  104246.98  11532.15  11.06
2065.0  103784.75  11580.40  11.16
2067.6  102985.24  11590.99  11.26
2070.2  102449.16  11621.50  11.34
2072.8  101867.33  11656.36  11.44
2075.4  101469.38  11705.31  11.54
2078.0  100874.39  11727.95  11.63
2080.6  100359.60  11756.80  11.71
2083.2  99736.18  11778.02  11.81
2085.8  99306.56  11809.19  11.89
2088.4  98712.50  11823.42  11.98
2090.9  97990.64  11818.74  12.06
2093.5  97191.65  11802.13  12.14
2096.1  96500.29  11802.61  12.23
2098.7  95802.01  11796.02  12.31
2101.2  94935.70  11776.90  12.41
2103.8  94326.55  11781.27  12.49
2106.4  93717.40  11787.82  12.58
2108.9  93141.00  11792.18  12.66
2111.5  92381.20  11772.53  12.74
2114.0  91811.35  11772.53  12.82
2116.6  91350.00  11784.07  12.90
2119.1  90859.93  11802.13  12.99
2121.7  90418.13  11814.69  13.07
2124.2  90057.78  11830.62  13.14
2126.8  89359.44  11800.41  13.21
2129.3  88994.40  11809.60  13.27
2131.9  88446.60  11787.60  13.33
2134.4  88053.08  11799.26  13.40
2136.9  87711.81  11801.51  13.45
2139.4  87241.35  11790.45  13.51
2142.0  86835.70  11781.58  13.57
2144.5  86581.43  11799.18  13.63
2147.0  86376.40  11823.27  13.69
2149.5  85914.10  11812.10  13.75
2152.1  85761.64  11837.79  13.80
2154.6  85686.80  11868.27  13.85
2157.1  85190.31  11849.21  13.91
2159.6  84829.25  11833.31  13.95
2162.1  84684.60  11850.48  13.99
2164.6  84453.65  11855.07  14.04
2167.1  84165.25  11848.80  14.08
2169.6  83869.36  11848.02  14.13
2172.1  83439.33  11830.21  14.18
2174.6  83149.80  11835.85  14.23
2177.1  82763.24  11822.33  14.28
2179.5  82389.61  11806.55  14.33
2182.0  81934.05  11785.68  14.38
2184.5  81444.99  11764.36  14.44
2187.0  80895.55  11732.71  14.50
2189.5  80285.90  11692.95  14.56
2191.9  79593.38  11632.75  14.62
2194.4  79031.03  11598.48  14.68
2196.9  78357.60  11548.80  14.74
2199.3  77763.50  11510.58  14.80
2201.8  76949.30  11422.07  14.84
2204.3  76518.46  11389.79  14.89
2206.7  75950.89  11344.74  14.94
2209.2  75540.79  11318.89  14.98
2211.6  74970.23  11253.83  15.01
2214.1  74692.16  11228.58  15.03
2216.5  74187.10  11160.10  15.04
2219.0  73889.10  11125.33  15.06
2221.4  73542.00  11064.52  15.05
2223.9  73095.75  10987.67  15.03
2226.3  72642.06  10898.42  15.00
2228.7  72145.86  10790.13  14.96
2231.1  71606.70  10657.35  14.88
2233.6  71073.00  10516.92  14.80
2236.0  70589.31  10380.27  14.71
2238.4  70128.19  10229.04  14.59
2240.9  69724.55  10077.37  14.45
2243.3  69247.75  9906.02  14.31
2245.7  68729.63  9726.13  14.15
2248.1  68291.60  9550.56  13.98
2250.5  67844.24  9374.35  13.82
2252.9  67282.48  9181.79  13.65
2255.3  66774.45  8989.83  13.46
2257.7  66345.00  8817.50  13.29
2260.1  65903.95  8646.23  13.12
2262.5  65347.50  8460.00  12.95
2264.9  64879.19  8288.66  12.78
2267.3  64327.50  8120.00  12.62
2269.7  63887.25  7968.98  12.47
2272.1  63382.96  7818.01  12.33
2274.5  62880.03  7677.18  12.21
2276.8  62451.41  7550.06  12.09
2279.2  61935.64  7409.36  11.96
2281.6  61555.15  7300.85  11.86
2284.0  61122.68  7188.68  11.76
2286.3  60693.60  7078.13  11.66
2288.7  60328.61  6975.59  11.56
2291.1  59849.65  6858.89  11.46
2293.4  59444.00  6747.77  11.35
2295.8  58887.68  6620.33  11.24
2298.2  58342.95  6497.21  11.14
2300.5  57753.00  6370.43  11.03
2302.9  57086.50  6236.17  10.92
2305.2  56438.85  6102.75  10.81
2307.6  55833.80  5991.41  10.73
2309.9  55141.25  5879.67  10.66
2312.2  54591.00  5789.25  10.60
2314.6  54034.76  5705.44  10.56
2316.9  53374.95  5601.94  10.50
2319.2  52838.90  5504.70  10.42
2321.6  52254.13  5414.91  10.36
2323.9  51750.00  5341.15  10.32
2326.2  51269.40  5247.97  10.24
2328.6  50810.51  5162.30  10.16
2330.9  50337.00  5071.50  10.08
2333.2  49903.06  4987.40  9.99
2335.5  49490.18  4905.95  9.91
2337.8  49091.13  4828.24  9.84
2340.1  48573.53  4733.88  9.75
2342.4  48181.25  4652.92  9.66
2344.8  47806.81  4576.81  9.57
2347.1  47293.75  4490.85  9.50
2349.4  46774.01  4412.18  9.43
2351.6  46261.74  4343.32  9.39
2353.9  45826.95  4275.42  9.33
2356.2  45347.66  4196.54  9.25
2358.5  44814.00  4107.60  9.17
2360.8  44276.40  4026.40  9.09
2363.1  43871.19  3962.29  9.03
2365.4  43442.85  3890.03  8.95
2367.7  43023.60  3813.30  8.86
2369.9  42525.30  3744.15  8.80
2372.2  41968.00  3666.47  8.74
2374.5  41441.40  3583.39  8.65
2376.7  40861.63  3487.91  8.54
2379.0  40318.23  3402.75  8.44
2381.3  39777.50  3325.00  8.36
2383.5  39309.60  3253.07  8.28
2385.8  38750.58  3168.18  8.18
2388.0  38240.85  3085.70  8.07
2390.3  37780.50  3023.03  8.00
2392.5  37350.00  2943.00  7.88
2394.8  36926.18  2867.70  7.77
2397.0  36472.80  2793.70  7.66
2399.3  36065.71  2732.11  7.58
2401.5  35665.88  2658.25  7.45
2403.8  35167.16  2586.50  7.35
2406.0  34698.38  2511.27  7.24
2408.2  34323.85  2449.70  7.14
2410.4  33939.06  2387.44  7.03
2412.7  33571.85  2321.69  6.92
2414.9  33244.20  2254.86  6.78
2417.1  32861.25  2197.10  6.69
2419.3  32486.40  2134.40  6.57
2421.6  32123.75  2082.81  6.48
2423.8  31771.58  2016.32  6.35
2426.0  31452.13  1963.73  6.24
2428.2  31134.60  1911.00  6.14
2430.4  30846.90  1859.29  6.03
2432.6  30590.00  1810.00  5.92
2434.8  30315.60  1774.43  5.85
2437.0  29973.13  1722.83  5.75
2439.2  29662.33  1665.93  5.62
2441.4  29366.20  1615.55  5.50
2443.6  29118.63  1561.28  5.36
2445.7  28884.28  1516.76  5.25
2447.9  28661.38  1482.13  5.17
2450.1  28377.49  1454.18  5.12
2452.3  28035.70  1408.14  5.02
2454.5  27700.05  1368.69  4.94
2456.6  27359.90  1319.67  4.82
2458.8  27016.28  1276.28  4.72
2461.0  26739.31  1239.84  4.64
2463.1  26462.81  1214.93  4.59
2465.3  26208.30  1174.33  4.48
2467.5  25996.88  1146.81  4.41
2469.6  25764.81  1115.02  4.33
2471.8  25464.51  1092.46  4.29
2473.9  25181.63  1070.92  4.25
2476.1  24865.75  1042.71  4.19
2478.2  24552.33  1009.21  4.11
2480.4  24256.84  993.92  4.10
2482.5  23944.98  959.97  4.01
2484.6  23632.13  927.21  3.92
2486.8  23385.15  918.45  3.93
2488.9  23094.96  903.60  3.91
2491.1  22776.60  872.67  3.83
2493.2  22429.18  838.25  3.74
2495.3  22077.90  813.70  3.69
2497.4  21759.15  813.05  3.74
2499.5  21446.96  805.12  3.75
2501.7  21346.90  797.02  3.73
2503.8  21263.60  789.86  3.71
2505.9  21191.88  785.84  3.71
2508.0  21151.38  779.49  3.69
2510.1  21151.51  777.92  3.68
2512.2  21263.06  770.70  3.62
2514.3  21427.44  759.33  3.54
2516.4  21571.50  773.23  3.58
