/*** Spectra Vista SIG Data ***/
name= 44_20220722_QUPA_23_avg.sig
comm= Averaged Ref/Tar of files: HR.072222.0008_moc.sig,HR.072222.0009_moc.sig,HR.072222.0010_moc.sig
data=
337.3  3225.63  254.27  7.88
338.8  3415.10  246.45  7.22
340.3  3560.60  240.05  6.74
341.8  3703.73  229.93  6.21
343.2  3907.20  233.42  5.97
344.7  4094.40  232.34  5.67
346.2  4248.40  230.32  5.42
347.7  4443.73  225.46  5.07
349.2  4649.40  220.32  4.74
350.6  4884.43  207.06  4.24
352.1  5180.13  216.39  4.18
353.6  5447.90  214.81  3.94
355.1  5691.08  208.46  3.66
356.6  5997.83  222.87  3.72
358.0  6284.30  226.03  3.60
359.5  6550.80  230.72  3.52
361.0  6852.83  230.28  3.36
362.5  7201.65  233.64  3.24
364.0  7570.20  240.87  3.18
365.4  7924.20  248.89  3.14
366.9  8259.88  259.94  3.15
368.4  8591.63  269.63  3.14
369.9  8945.28  272.31  3.04
371.3  9345.00  283.78  3.04
372.8  9743.85  292.30  3.00
374.3  10158.75  294.35  2.90
375.8  10537.45  303.89  2.88
377.2  10975.20  308.45  2.81
378.7  11351.80  308.45  2.72
380.2  11728.40  313.58  2.67
381.7  12269.35  326.36  2.66
383.1  12720.40  328.02  2.58
384.6  13217.75  337.06  2.55
386.1  13674.65  343.86  2.51
387.6  14121.80  345.47  2.45
389.0  14579.20  354.78  2.43
390.5  15053.85  361.59  2.40
392.0  15579.05  373.83  2.40
393.4  16132.85  384.87  2.39
394.9  16677.90  393.24  2.36
396.4  17206.88  398.23  2.31
397.9  17732.50  406.09  2.29
399.3  18284.65  421.60  2.31
400.8  18793.45  430.13  2.29
402.2  19419.05  443.30  2.28
403.7  20006.33  452.61  2.26
405.2  20597.25  465.84  2.26
406.6  21158.40  478.14  2.26
408.1  21741.20  492.03  2.26
409.6  22323.15  504.64  2.26
411.0  22951.25  521.75  2.27
412.5  23594.73  529.55  2.24
414.0  24225.88  541.78  2.24
415.4  24903.38  558.01  2.24
416.9  25577.93  573.48  2.24
418.4  26219.70  590.48  2.25
419.8  26899.60  611.17  2.27
421.3  27610.93  634.23  2.30
422.7  28379.40  651.59  2.30
424.2  29126.25  670.50  2.30
425.7  29861.60  687.08  2.30
427.1  30589.73  708.36  2.32
428.6  31356.50  728.35  2.32
430.0  32079.95  748.63  2.33
431.5  32909.63  769.85  2.34
432.9  33753.60  792.50  2.35
434.4  34623.53  811.75  2.34
435.9  35434.00  831.73  2.35
437.3  36231.25  854.60  2.36
438.8  37032.60  880.95  2.38
440.2  37864.75  902.18  2.38
441.7  38806.40  930.34  2.40
443.1  39683.75  951.98  2.40
444.6  40610.00  980.38  2.41
446.0  41507.03  1006.61  2.43
447.5  42419.85  1035.23  2.44
448.9  43318.20  1061.48  2.45
450.4  44276.05  1089.03  2.46
451.8  45123.00  1114.53  2.47
453.3  46010.93  1138.64  2.47
454.7  46982.05  1168.18  2.49
456.2  47821.60  1194.79  2.50
457.6  48759.08  1223.32  2.51
459.1  49688.93  1252.80  2.52
460.5  50584.25  1275.59  2.52
462.0  51597.88  1304.33  2.53
463.4  52580.60  1332.16  2.53
464.8  53543.63  1357.64  2.54
466.3  54487.13  1389.95  2.55
467.7  55455.50  1417.69  2.56
469.2  56482.98  1446.64  2.56
470.6  57408.30  1472.17  2.56
472.0  58411.25  1499.19  2.57
473.5  59367.38  1526.31  2.57
474.9  60363.00  1559.63  2.58
476.4  61459.20  1596.07  2.60
477.8  62495.00  1632.84  2.61
479.2  63481.00  1661.84  2.62
480.7  64544.03  1691.51  2.62
482.1  65617.45  1722.17  2.62
483.6  66759.00  1762.62  2.64
485.0  67800.90  1797.38  2.65
486.4  68937.90  1841.89  2.67
487.9  69995.25  1886.76  2.70
489.3  71107.03  1931.92  2.72
490.7  72137.78  1975.96  2.74
492.2  73323.60  2031.40  2.77
493.6  74378.05  2085.88  2.80
495.0  75450.38  2147.79  2.85
496.5  76574.15  2209.91  2.89
497.9  77630.75  2283.71  2.94
499.3  78746.05  2365.05  3.00
500.7  79945.05  2458.13  3.07
502.2  81044.60  2561.26  3.16
503.6  82227.20  2677.50  3.26
505.0  83241.30  2807.50  3.37
506.5  84498.23  2963.16  3.51
507.9  85658.85  3144.59  3.67
509.3  86979.60  3359.46  3.86
510.7  88203.38  3596.64  4.08
512.2  89527.88  3879.58  4.33
513.6  90935.95  4201.95  4.62
515.0  92291.80  4567.17  4.95
516.4  93611.70  4981.23  5.32
517.8  95146.00  5457.36  5.74
519.3  96385.60  5960.56  6.18
520.7  97872.30  6514.11  6.66
522.1  99110.70  7085.99  7.15
523.5  100427.50  7681.01  7.65
524.9  101807.10  8291.88  8.14
526.3  103147.80  8884.15  8.61
527.8  104558.85  9477.41  9.06
529.2  105641.00  10047.14  9.51
530.6  107117.85  10637.13  9.93
532.0  108766.00  11196.27  10.29
533.4  109998.23  11671.14  10.61
534.8  110838.73  12065.98  10.89
536.3  112462.20  12512.51  11.13
537.7  114408.00  12972.00  11.34
539.1  115793.38  13355.84  11.53
540.5  116909.10  13686.50  11.71
541.9  118574.25  14072.36  11.87
543.3  119778.10  14395.77  12.02
544.7  121022.40  14718.60  12.16
546.1  122705.83  15086.60  12.29
547.5  123905.60  15379.41  12.41
549.0  125565.00  15709.26  12.51
550.4  126968.75  15981.62  12.59
551.8  128426.05  16216.92  12.63
553.2  129879.53  16407.64  12.63
554.6  131164.80  16529.46  12.60
556.0  132624.90  16620.33  12.53
557.4  134152.73  16671.83  12.43
558.8  135709.20  16686.96  12.30
560.2  137074.50  16629.05  12.13
561.6  138652.50  16555.10  11.94
563.0  140155.50  16426.00  11.72
564.4  141654.85  16263.28  11.48
565.8  143108.13  16044.76  11.21
567.2  144759.50  15817.24  10.93
568.6  146192.63  15526.81  10.62
570.0  147558.88  15207.38  10.31
571.4  149186.05  14899.61  9.99
572.8  150843.88  14591.34  9.67
574.2  152387.20  14288.43  9.38
575.6  153855.00  13997.36  9.10
577.0  155307.20  13742.09  8.85
578.4  156952.25  13525.85  8.62
579.8  158377.95  13321.06  8.41
581.2  160012.80  13162.43  8.23
582.5  161343.00  13000.15  8.06
583.9  162792.80  12868.74  7.90
585.3  164505.38  12780.87  7.77
586.7  165896.90  12686.72  7.65
588.1  167312.88  12615.77  7.54
589.5  168878.50  12583.20  7.45
590.9  170413.20  12568.17  7.38
592.3  172148.35  12577.01  7.31
593.7  173508.08  12575.53  7.25
595.0  175048.43  12594.15  7.19
596.4  176430.80  12602.20  7.14
597.8  177833.08  12600.07  7.09
599.2  179295.60  12583.75  7.02
600.6  180953.50  12552.40  6.94
602.0  182190.68  12464.28  6.84
603.3  183873.50  12379.80  6.73
604.7  185460.35  12257.23  6.61
606.1  186879.60  12093.79  6.47
607.5  188447.03  11916.88  6.32
608.9  190054.35  11731.62  6.17
610.2  191362.50  11521.17  6.02
611.6  192857.48  11321.12  5.87
613.0  194323.60  11124.30  5.72
614.4  195639.30  10934.95  5.59
615.8  197028.00  10766.51  5.46
617.1  198479.40  10630.76  5.36
618.5  200022.00  10521.81  5.26
619.9  201442.73  10433.29  5.18
621.3  202984.88  10379.35  5.11
622.6  204472.00  10347.92  5.06
624.0  205855.80  10331.19  5.02
625.4  207223.50  10341.62  4.99
626.8  208713.05  10373.70  4.97
628.1  209951.50  10410.58  4.96
629.5  211701.78  10489.12  4.95
630.9  213210.25  10556.43  4.95
632.2  214496.10  10606.63  4.94
633.6  216014.75  10652.73  4.93
635.0  217459.60  10665.31  4.90
636.3  218896.90  10645.27  4.86
637.7  220193.38  10579.89  4.80
639.1  221760.00  10476.67  4.72
640.4  223146.88  10331.96  4.63
641.8  224274.15  10127.99  4.52
643.2  225781.15  9926.45  4.40
644.5  227066.50  9701.35  4.27
645.9  228687.75  9488.22  4.15
647.2  230349.70  9294.43  4.03
648.6  232085.25  9127.54  3.93
650.0  233452.80  8964.21  3.84
651.3  233887.78  8790.89  3.76
652.7  235110.00  8630.80  3.67
654.0  237083.70  8498.30  3.58
655.4  238477.03  8342.16  3.50
656.8  238622.40  8152.54  3.42
658.1  239802.80  7990.40  3.33
659.5  242139.45  7870.29  3.25
660.8  243855.00  7740.43  3.17
662.2  244697.60  7592.53  3.10
663.5  246241.55  7492.19  3.04
664.9  247453.70  7412.55  3.00
666.2  248151.60  7338.69  2.96
667.6  249794.43  7325.15  2.93
668.9  250905.98  7336.29  2.92
670.3  252076.75  7357.75  2.92
671.6  253486.13  7420.93  2.93
673.0  254592.38  7501.43  2.95
674.3  255763.30  7593.98  2.97
675.7  257019.23  7709.85  3.00
677.0  258088.95  7841.32  3.04
678.4  259344.38  7999.48  3.08
679.7  260401.58  8186.17  3.14
681.1  261632.90  8404.48  3.21
682.4  262724.80  8671.62  3.30
683.8  263918.20  8997.43  3.41
685.1  264858.38  9407.13  3.55
686.4  266089.20  9940.10  3.74
687.8  267289.25  10646.52  3.98
689.1  268335.00  11575.09  4.31
690.5  269630.40  12834.44  4.76
691.8  270374.25  14473.04  5.35
693.1  271664.10  16639.34  6.12
694.5  272772.50  19313.23  7.08
695.8  273910.00  22514.27  8.22
697.1  275070.25  26227.50  9.53
698.5  276100.10  30414.11  11.02
699.8  277156.53  35022.29  12.64
701.1  278244.93  39972.35  14.37
702.5  279011.15  45102.58  16.17
703.8  279922.50  50373.00  18.00
705.1  281030.10  55704.98  19.82
706.5  282014.50  60980.19  21.62
707.8  282973.35  66146.21  23.38
709.1  283817.73  71143.18  25.07
710.5  284911.65  76035.97  26.69
711.8  285729.90  80672.90  28.23
713.1  286688.80  85164.76  29.71
714.4  287558.50  89417.90  31.10
715.8  288361.30  93449.32  32.41
717.1  289633.65  97428.12  33.64
718.4  290528.00  101086.72  34.79
719.7  291590.65  104605.07  35.87
721.0  292095.00  107742.43  36.89
722.4  292856.85  110772.47  37.82
723.7  293770.50  113684.45  38.70
725.0  294788.70  116467.57  39.51
726.3  295675.05  119039.98  40.26
727.6  296200.03  121305.09  40.95
729.0  297062.15  123560.95  41.59
730.3  297805.35  125622.21  42.18
731.6  298658.15  127599.71  42.72
732.9  299456.15  129422.74  43.22
734.2  300228.50  131129.30  43.68
735.5  301214.10  132830.66  44.10
736.8  301985.40  134324.83  44.48
738.1  302789.10  135737.43  44.83
739.5  303710.53  137123.36  45.15
740.8  304395.58  138317.32  45.44
742.1  305128.90  139474.28  45.71
743.4  305850.00  140560.48  45.96
744.7  306757.38  141697.85  46.19
746.0  307571.55  142715.19  46.40
747.3  308086.75  143539.96  46.59
748.6  308794.00  144379.02  46.76
749.9  309530.00  145176.57  46.90
751.2  310243.60  145933.44  47.04
752.5  311106.55  146723.91  47.16
753.8  311700.55  147346.10  47.27
755.1  312364.00  147963.77  47.37
756.4  312972.78  148499.82  47.45
757.7  313916.93  149189.23  47.53
759.0  315670.33  150210.80  47.58
760.3  316800.00  150931.57  47.64
761.6  318269.00  151817.09  47.70
762.9  318806.50  152206.48  47.74
764.2  319168.50  152508.14  47.78
765.5  319462.53  152755.60  47.82
766.8  319899.20  153060.36  47.85
768.1  320443.00  153394.60  47.87
769.3  321016.50  153742.95  47.89
770.6  321648.60  154117.37  47.91
771.9  322350.18  154517.07  47.93
773.2  322766.00  154751.87  47.95
774.5  323351.60  155090.44  47.96
775.8  324043.20  155459.19  47.97
777.1  324614.40  155779.27  47.99
778.4  324940.28  155973.24  48.00
779.6  325696.83  156367.09  48.01
780.9  326190.00  156621.71  48.02
782.2  326609.25  156883.41  48.03
783.5  326960.00  157068.61  48.04
784.8  327453.98  157347.24  48.05
786.0  327853.75  157568.57  48.06
787.3  328284.25  157785.07  48.06
788.6  328688.60  158014.46  48.07
789.9  329148.40  158264.53  48.08
791.2  329756.73  158589.37  48.09
792.4  330442.48  158927.56  48.10
793.7  330927.20  159173.59  48.10
795.0  331552.65  159482.62  48.10
796.2  332187.85  159819.02  48.11
797.5  332873.85  160175.51  48.12
798.8  333545.53  160513.95  48.12
800.0  334203.40  160848.72  48.13
801.3  334683.10  161083.70  48.13
802.6  335282.85  161387.46  48.13
803.8  335876.13  161702.75  48.14
805.1  336405.13  161958.78  48.14
806.4  336842.10  162188.43  48.15
807.7  337387.28  162473.70  48.16
808.9  337930.20  162733.10  48.16
810.2  338468.90  162991.95  48.16
811.4  338965.30  163232.97  48.16
812.7  339584.38  163553.93  48.16
814.0  340392.80  163955.71  48.17
815.2  340972.25  164269.95  48.18
816.5  341412.90  164486.79  48.18
817.7  341900.15  164722.75  48.18
819.0  342386.00  164967.65  48.18
820.2  342540.00  165066.21  48.19
821.5  343179.90  165392.11  48.19
822.7  343546.70  165578.01  48.20
824.0  343836.90  165739.22  48.20
825.2  344328.98  165981.77  48.20
826.5  344634.75  166132.45  48.21
827.7  345155.68  166393.36  48.21
829.0  345557.70  166590.31  48.21
830.2  345853.30  166727.50  48.21
831.5  346285.75  166950.78  48.21
832.7  346595.55  167104.81  48.21
834.0  346919.58  167260.92  48.21
835.2  347242.78  167433.69  48.22
836.4  347521.90  167589.12  48.22
837.7  347909.80  167778.42  48.22
838.9  348349.38  167994.49  48.23
840.1  348699.60  168194.52  48.23
841.4  349081.50  168409.91  48.24
842.6  349458.80  168586.64  48.24
843.8  349783.40  168763.53  48.25
845.1  350283.70  169011.84  48.25
846.3  350623.40  169198.10  48.26
847.5  350966.70  169404.08  48.27
848.8  351394.80  169595.68  48.26
850.0  351717.10  169782.69  48.27
851.2  352274.40  170033.92  48.27
852.5  352621.20  170213.74  48.27
853.7  353067.75  170451.64  48.28
854.9  353502.80  170672.72  48.28
856.1  353897.70  170872.98  48.28
857.4  354114.33  170956.47  48.28
858.6  354577.25  171185.64  48.28
859.8  354991.88  171368.14  48.27
861.0  355422.60  171572.81  48.27
862.2  355872.53  171788.95  48.27
863.5  356180.18  171960.00  48.28
864.7  356683.80  172196.14  48.28
865.9  357164.40  172375.36  48.26
867.1  357403.00  172519.51  48.27
868.3  357857.85  172718.16  48.26
869.5  358278.40  172960.40  48.28
870.8  358785.00  173194.54  48.27
872.0  359329.28  173402.42  48.26
873.2  359724.45  173607.62  48.26
874.4  360126.00  173803.67  48.26
875.6  360503.23  173965.72  48.26
876.8  360989.40  174194.78  48.25
878.0  361464.55  174407.51  48.25
879.2  361924.35  174608.75  48.24
880.4  362430.75  174841.56  48.24
881.6  362911.33  175020.31  48.23
882.8  363372.00  175196.30  48.21
884.0  363874.73  175461.97  48.22
885.2  364393.50  175715.72  48.22
886.5  364995.80  175989.00  48.22
887.7  365411.48  176186.64  48.22
888.8  366012.75  176473.69  48.22
890.0  366656.70  176713.33  48.20
891.2  367210.30  176964.50  48.19
892.4  367841.78  177184.52  48.17
893.6  368442.40  177443.66  48.16
894.8  369201.75  177877.07  48.18
896.0  370004.00  178258.67  48.18
897.2  370860.75  178578.90  48.15
898.4  371553.60  178906.14  48.15
899.6  372184.13  179155.68  48.14
900.8  372571.95  179310.86  48.13
902.0  372827.70  179405.06  48.12
903.2  373108.95  179549.96  48.12
904.3  373459.20  179714.66  48.12
905.5  374110.93  179955.62  48.10
906.7  374663.50  180216.38  48.10
907.9  375273.85  180423.60  48.08
909.1  375665.18  180583.08  48.07
910.2  375762.53  180646.62  48.07
911.4  375964.88  180721.26  48.07
912.6  376197.25  180813.15  48.06
913.8  376452.38  180934.20  48.06
915.0  376974.15  181122.76  48.05
916.2  377208.00  181163.17  48.03
917.3  377202.60  181174.22  48.03
918.5  377550.20  181252.84  48.01
919.7  377811.60  181310.98  47.99
920.8  377924.03  181273.80  47.97
922.0  378108.50  181324.73  47.96
923.2  378241.50  181409.80  47.96
924.4  378455.63  181508.47  47.96
925.5  378810.00  181582.94  47.94
926.7  379429.38  181806.09  47.92
927.9  380298.00  182140.91  47.89
929.0  381707.10  182684.62  47.86
930.2  383655.60  183648.06  47.87
931.4  386127.00  184652.18  47.82
932.5  388870.20  185885.98  47.80
933.7  390027.60  186449.70  47.80
934.9  390928.13  186680.42  47.75
936.0  390453.38  186414.74  47.74
937.2  388476.60  185389.09  47.72
938.3  386952.25  184559.07  47.70
939.5  385437.60  183757.65  47.68
940.7  385743.60  183766.01  47.64
941.8  387338.40  184339.93  47.59
943.0  388614.00  184876.74  47.57
944.2  389592.45  185165.35  47.53
945.3  389210.25  184847.74  47.49
946.5  388435.50  184383.10  47.47
947.6  388646.60  184321.54  47.43
948.8  388826.10  184072.44  47.34
949.9  388878.00  183980.56  47.31
951.1  388416.93  183642.71  47.28
952.2  388212.00  183374.63  47.24
953.4  388179.25  183039.25  47.15
954.5  388135.80  182784.76  47.09
955.7  388130.40  182465.76  47.01
956.8  388079.90  182185.15  46.95
958.0  387625.00  181900.02  46.93
959.1  387569.83  181594.69  46.85
960.3  387047.93  181294.77  46.84
961.4  387242.05  181170.89  46.78
962.6  387436.00  181132.27  46.75
963.7  387122.85  180933.03  46.74
964.9  387080.55  180785.81  46.70
966.0  387048.38  180659.32  46.68
967.2  386979.75  180613.19  46.67
968.3  386402.40  180491.68  46.71
969.5  386372.65  180376.46  46.68
970.6  386602.78  180389.88  46.66
971.8  386857.10  180493.39  46.66
972.9  386534.55  180388.74  46.67
974.0  386843.30  180517.56  46.66
975.2  386494.63  180451.88  46.69
976.3  386489.95  180375.64  46.67
977.5  386116.68  180349.86  46.71
978.6  386096.50  180243.14  46.68
979.7  386075.03  180382.73  46.72
980.9  385540.88  180275.52  46.76
982.0  385399.85  180369.78  46.80
983.2  384726.53  180254.34  46.85
984.3  385010.40  180210.14  46.81
985.4  384752.38  180195.81  46.83
986.6  385056.38  180283.71  46.82
987.7  385464.98  180945.85  46.94
988.9  385374.60  181003.61  46.97
990.0  385681.00  181148.79  46.97
993.1  342466.13  159901.47  46.69
996.9  342396.18  160497.28  46.87
1000.7  343100.39  161285.20  47.01
1004.5  343484.58  161850.30  47.12
1008.4  343028.92  162095.16  47.25
1012.2  342839.00  162436.32  47.38
1016.0  342603.60  162767.06  47.51
1019.8  342440.18  163091.78  47.63
1023.7  342044.13  163246.73  47.73
1027.5  341429.92  163274.29  47.82
1031.3  341396.45  163465.46  47.88
1035.1  341093.55  163512.19  47.94
1038.9  341030.80  163595.77  47.97
1042.7  340861.25  163630.07  48.00
1046.5  340741.50  163645.62  48.03
1050.3  340762.63  163721.80  48.05
1054.2  340454.33  163664.00  48.07
1058.0  339961.18  163485.46  48.09
1061.8  339835.58  163476.01  48.10
1065.6  339556.87  163347.01  48.11
1069.4  339397.07  163298.24  48.11
1073.2  338846.46  163048.81  48.12
1077.0  338261.65  162769.82  48.12
1080.8  337819.79  162486.31  48.10
1084.6  336976.27  162008.82  48.08
1088.4  336550.28  161722.46  48.05
1092.2  335877.75  161288.68  48.02
1096.0  335345.58  160905.95  47.98
1099.8  334894.95  160536.14  47.94
1103.6  334210.82  160063.22  47.89
1107.4  333322.07  159455.76  47.84
1111.2  333092.50  159156.29  47.78
1114.9  332481.92  158652.42  47.72
1118.7  331954.43  158126.69  47.64
1122.5  331373.47  157477.05  47.52
1126.3  330376.73  156568.20  47.39
1130.1  329948.62  155737.23  47.20
1133.9  328463.80  154164.20  46.93
1137.7  327161.00  152463.41  46.60
1141.4  325466.05  150400.67  46.21
1145.2  324781.06  148649.61  45.77
1149.0  323704.79  146826.88  45.36
1152.8  322194.20  144985.29  45.00
1156.6  320665.22  143436.70  44.73
1160.3  319107.33  142155.33  44.55
1164.1  316923.53  140851.06  44.44
1167.9  315339.58  139961.16  44.38
1171.7  314165.25  139353.75  44.36
1175.4  312999.03  138812.37  44.35
1179.2  311950.73  138294.51  44.33
1183.0  311619.00  138061.19  44.30
1186.7  311221.40  137764.00  44.27
1190.5  310400.60  137299.92  44.23
1194.3  309383.73  136804.84  44.22
1198.0  308228.80  136333.73  44.23
1201.8  306767.98  135771.05  44.26
1205.6  305654.00  135387.86  44.29
1209.3  304842.77  135198.06  44.35
1213.1  304100.25  135016.67  44.40
1216.8  303329.58  134886.45  44.47
1220.6  302373.87  134681.07  44.54
1224.3  301310.25  134406.28  44.61
1228.1  300156.80  134167.63  44.70
1231.9  298939.83  133843.59  44.77
1235.6  297585.60  133428.91  44.84
1239.4  296305.13  133062.32  44.91
1243.1  295131.08  132674.86  44.95
1246.9  294013.72  132274.21  44.99
1250.6  293084.47  131940.66  45.02
1254.3  292071.73  131547.65  45.04
1258.1  291133.03  131153.57  45.05
1261.8  289894.27  130628.21  45.06
1265.6  288576.90  130021.37  45.06
1269.3  287352.65  129394.04  45.03
1273.1  287373.99  129291.13  44.99
1276.8  287541.20  129248.40  44.95
1280.6  287169.53  128978.69  44.91
1284.3  285737.20  128189.43  44.86
1288.0  284391.58  127367.15  44.79
1291.8  283319.63  126585.23  44.68
1295.5  282220.40  125722.46  44.55
1299.2  281116.16  124823.60  44.40
1302.9  279748.16  123747.33  44.24
1306.7  278306.93  122557.28  44.04
1310.4  276918.57  121272.39  43.79
1314.1  275649.92  119976.90  43.53
1317.9  274480.00  118611.97  43.21
1321.6  273161.36  117075.66  42.86
1325.3  271659.68  115333.73  42.46
1329.0  270423.30  113653.42  42.03
1332.8  268514.40  111579.60  41.55
1336.5  266876.60  109584.14  41.06
1340.2  266554.17  108112.33  40.56
1343.9  266176.25  106619.11  40.06
1347.6  265600.95  105060.00  39.56
1351.4  265840.50  103867.72  39.07
1355.1  266235.93  102769.39  38.60
1358.8  266528.00  101554.29  38.10
1362.5  266159.63  99975.36  37.56
1366.2  264666.20  97737.49  36.93
1369.9  262858.25  95132.07  36.19
1373.6  260900.73  92088.06  35.30
1377.3  259201.80  88563.00  34.17
1381.0  258181.67  84510.10  32.73
1384.8  256425.00  79392.86  30.96
1388.4  254214.92  73664.90  28.98
1392.2  252492.25  67717.73  26.82
1395.9  251063.68  61764.93  24.60
1399.6  249582.73  56114.67  22.48
1403.3  248477.40  51117.78  20.57
1407.0  247432.00  46855.53  18.94
1410.7  246316.95  43390.64  17.62
1414.3  245159.83  40694.87  16.60
1418.1  244055.00  38718.50  15.86
1421.7  243165.42  37321.90  15.35
1425.4  242230.95  36374.14  15.02
1429.1  241372.13  35784.21  14.83
1432.8  240000.20  35395.14  14.75
1436.5  239260.14  35283.75  14.75
1440.2  238528.03  35322.99  14.81
1443.9  237394.30  35387.39  14.91
1447.6  235989.60  35466.20  15.03
1451.2  235006.20  35635.26  15.16
1454.9  233825.10  35803.78  15.31
1458.6  232788.96  36079.86  15.50
1462.3  231723.80  36462.28  15.74
1466.0  230512.65  36968.41  16.04
1469.7  229006.92  37589.70  16.41
1473.3  228047.67  38426.81  16.85
1477.0  226284.40  39237.14  17.34
1480.7  224839.90  40145.77  17.86
1484.4  223100.38  41002.89  18.38
1488.0  221701.33  41944.57  18.92
1491.7  220246.62  42845.30  19.45
1495.4  218695.28  43731.15  20.00
1499.0  217268.00  44595.79  20.53
1502.7  216091.42  45499.00  21.06
1506.4  214800.67  46340.50  21.57
1510.0  213531.77  47151.40  22.08
1513.7  212188.38  47903.63  22.58
1517.4  210972.33  48637.10  23.05
1521.0  209862.67  49358.59  23.52
1524.7  208757.25  50009.92  23.96
1528.3  207581.00  50619.96  24.39
1532.0  206470.37  51193.08  24.79
1535.7  205219.82  51672.78  25.18
1539.3  204049.90  52155.25  25.56
1543.0  203162.86  52667.33  25.92
1546.6  202532.42  53218.91  26.28
1550.3  201645.60  53652.94  26.61
1553.9  200676.67  54040.36  26.93
1557.6  199525.33  54351.94  27.24
1561.2  198382.95  54606.28  27.53
1564.9  197176.37  54845.35  27.82
1568.5  195991.02  55041.47  28.08
1572.2  194929.70  55264.67  28.35
1575.8  193942.00  55494.00  28.61
1579.5  193027.45  55718.55  28.87
1583.1  192115.81  55929.38  29.11
1586.8  190974.00  56060.00  29.35
1590.4  189983.27  56217.53  29.59
1594.0  188763.36  56294.29  29.82
1597.7  187778.28  56424.15  30.05
1601.3  186684.75  56503.58  30.27
1604.9  185573.16  56547.85  30.47
1608.6  184412.20  56548.60  30.66
1612.2  183432.98  56582.86  30.85
1615.8  182345.80  56564.81  31.02
1619.5  181292.42  56531.49  31.18
1623.1  180100.17  56427.33  31.33
1626.7  178991.80  56323.24  31.47
1630.3  177896.75  56205.44  31.59
1634.0  176778.00  56064.00  31.71
1637.6  175748.93  55902.94  31.81
1641.2  174697.70  55686.17  31.88
1644.8  173490.18  55375.21  31.92
1648.5  172482.00  55098.42  31.94
1652.1  171554.70  54792.60  31.94
1655.7  170712.40  54475.26  31.91
1659.3  169942.48  54169.78  31.88
1662.9  168668.33  53691.66  31.83
1666.6  167393.33  53224.25  31.80
1670.2  166169.50  52752.89  31.75
1673.8  164905.78  52258.88  31.69
1677.4  163921.35  51808.37  31.61
1681.0  163213.70  51407.93  31.50
1684.6  162873.75  51066.17  31.35
1688.2  162229.75  50566.03  31.17
1691.8  161625.11  50128.17  31.02
1695.4  161241.00  49732.46  30.84
1699.0  160922.07  49363.23  30.68
1702.6  160662.33  48991.33  30.49
1706.2  160148.63  48521.10  30.30
1709.8  159349.35  47966.96  30.10
1713.4  158704.93  47462.48  29.91
1717.0  157928.25  46932.39  29.72
1720.6  157206.00  46418.83  29.53
1724.2  156548.33  45932.75  29.34
1727.8  155872.85  45468.20  29.17
1731.4  155409.38  45074.66  29.00
1735.0  155210.00  44771.78  28.85
1738.6  154994.40  44431.99  28.67
1742.2  154494.02  43981.63  28.47
1745.8  153920.93  43491.84  28.26
1749.4  153082.05  42913.67  28.03
1753.0  151729.60  42179.66  27.80
1756.6  150224.08  41417.29  27.57
1760.1  149035.08  40760.33  27.35
1763.7  147476.00  40035.33  27.15
1767.3  146180.78  39411.64  26.96
1770.9  145070.22  38852.16  26.78
1774.5  143731.32  38270.46  26.63
1778.0  142680.13  37790.36  26.49
1781.6  141682.80  37353.41  26.36
1785.2  140649.03  36927.15  26.25
1788.8  139584.40  36544.15  26.18
1792.3  138471.00  36172.64  26.12
1795.9  137999.77  35991.57  26.08
1799.5  137522.00  35843.10  26.06
1803.1  137198.37  35717.15  26.03
1806.6  137983.30  35849.36  25.98
1810.2  139187.77  36103.87  25.94
1813.8  140025.70  36284.96  25.91
1817.3  139949.60  36243.17  25.90
1820.9  139089.13  36005.25  25.89
1824.5  137915.10  35663.00  25.86
1828.0  137023.79  35359.63  25.81
1831.6  136271.38  35068.56  25.73
1835.2  135645.83  34748.81  25.62
1838.7  135305.33  34410.78  25.43
1842.3  135015.00  34017.86  25.20
1845.8  134276.13  33401.37  24.88
1849.4  133781.38  32711.94  24.45
1852.9  133185.21  31828.95  23.90
1856.5  132366.18  30695.34  23.19
1860.0  131621.19  29351.69  22.30
1863.6  131352.68  27893.81  21.24
1867.1  131214.65  26215.00  19.98
1870.7  131253.45  24204.62  18.44
1874.2  130626.00  21749.91  16.65
1877.8  129395.93  19115.64  14.77
1881.3  127897.88  16429.91  12.85
1884.9  126823.31  13967.45  11.01
1888.4  125793.93  11710.57  9.31
1891.9  124686.67  9820.96  7.88
1895.5  123510.75  8334.51  6.75
1899.0  122783.00  7288.38  5.94
1901.3  155709.75  5593.59  3.59
1904.1  155525.63  4958.44  3.19
1906.8  154733.40  4512.00  2.92
1909.6  153051.15  4156.16  2.72
1912.4  151448.68  3894.01  2.57
1915.1  150244.05  3729.14  2.48
1917.9  148849.25  3601.88  2.42
1920.6  147670.35  3539.89  2.40
1923.3  146503.18  3487.29  2.38
1926.1  145085.23  3467.48  2.39
1928.8  143726.00  3465.00  2.41
1931.6  142619.09  3488.71  2.45
1934.3  141573.51  3541.21  2.50
1937.0  140533.48  3599.66  2.56
1939.8  139417.00  3666.13  2.63
1942.5  138121.50  3748.25  2.71
1945.2  136521.41  3840.38  2.81
1947.9  135209.20  3933.07  2.91
1950.7  134186.68  4043.40  3.01
1953.4  132613.69  4149.48  3.13
1956.1  131390.75  4272.81  3.25
1958.8  130302.90  4406.78  3.38
1961.5  129002.40  4544.80  3.52
1964.2  127675.28  4688.78  3.67
1966.9  126267.86  4846.28  3.84
1969.6  125165.25  5010.75  4.00
1972.3  123914.70  5177.58  4.18
1975.0  122966.33  5356.46  4.36
1977.7  121967.56  5545.68  4.55
1980.4  120947.13  5739.98  4.75
1983.1  119950.05  5933.87  4.95
1985.8  119107.35  6142.20  5.16
1988.4  118189.50  6348.33  5.37
1991.1  117346.43  6561.33  5.59
1993.8  116544.73  6768.39  5.81
1996.5  115976.03  6990.27  6.03
1999.1  115362.09  7214.31  6.25
2001.8  114730.53  7435.46  6.48
2004.5  114115.13  7642.28  6.70
2007.1  113466.38  7834.74  6.90
2009.8  112794.50  8035.48  7.12
2012.4  112285.94  8235.38  7.33
2015.1  111810.30  8417.50  7.53
2017.8  111091.58  8577.22  7.72
2020.4  110631.54  8754.53  7.91
2023.1  110321.05  8924.71  8.09
2025.7  110097.00  9087.00  8.25
2028.3  109798.00  9232.17  8.41
2031.0  109455.59  9367.15  8.56
2033.6  109215.45  9496.05  8.69
2036.2  108974.03  9609.15  8.82
2038.9  108452.03  9700.50  8.94
2041.5  108149.86  9793.18  9.06
2044.1  107649.45  9859.28  9.16
2046.8  107323.20  9933.23  9.26
2049.4  106742.48  9981.08  9.35
2052.0  106463.70  10049.88  9.44
2054.6  106095.94  10110.63  9.53
2057.2  105612.20  10176.52  9.64
2059.8  105337.10  10266.03  9.75
2062.4  104541.16  10296.56  9.85
2065.0  104072.95  10359.92  9.95
2067.6  103285.96  10383.73  10.05
2070.2  102743.35  10438.21  10.16
2072.8  102161.51  10490.51  10.27
2075.4  101758.13  10552.50  10.37
2078.0  101170.83  10588.31  10.47
2080.6  100676.40  10639.20  10.57
2083.2  100064.93  10673.42  10.67
2085.8  99629.35  10720.06  10.76
2088.4  99043.75  10756.79  10.86
2090.9  98327.88  10767.35  10.95
2093.5  97520.40  10769.85  11.04
2096.1  96816.49  10781.54  11.14
2098.7  96131.39  10799.11  11.23
2101.2  95276.30  10790.03  11.32
2103.8  94680.25  10811.87  11.42
2106.4  94071.10  10824.97  11.51
2108.9  93475.05  10840.25  11.60
2111.5  92708.70  10838.07  11.69
2114.0  92138.85  10857.72  11.78
2116.6  91684.69  10880.63  11.87
2119.1  91195.25  10899.16  11.95
2121.7  90759.38  10920.00  12.03
2124.2  90399.68  10953.95  12.12
2126.8  89682.23  10930.86  12.19
2129.3  89331.00  10942.80  12.25
2131.9  88783.20  10936.20  12.32
2134.4  88391.59  10943.03  12.38
2136.9  88051.60  10955.37  12.44
2139.4  87600.45  10952.55  12.50
2142.0  87181.50  10961.42  12.57
2144.5  86921.85  10982.60  12.64
2147.0  86711.40  11010.33  12.70
2149.5  86289.30  11010.33  12.76
2152.1  86138.94  11033.78  12.81
2154.6  86040.40  11070.40  12.87
2157.1  85551.38  11056.69  12.92
2159.6  85197.13  11056.69  12.98
2162.1  85053.15  11072.43  13.02
2164.6  84823.55  11078.73  13.06
2167.1  84557.84  11079.69  13.10
2169.6  84256.46  11083.04  13.15
2172.1  83834.05  11073.08  13.21
2174.6  83552.90  11080.62  13.26
2177.1  83153.14  11072.69  13.32
2179.5  82773.93  11070.53  13.37
2182.0  82326.75  11061.05  13.44
2184.5  81860.20  11039.49  13.49
2187.0  81291.75  11015.78  13.55
2189.5  80669.98  10986.44  13.62
2191.9  79985.25  10939.25  13.68
2194.4  79424.96  10903.71  13.73
2196.9  78746.40  10857.60  13.79
2199.3  78155.00  10817.00  13.84
2201.8  77343.50  10743.17  13.89
2204.3  76916.04  10724.71  13.94
2206.7  76357.20  10684.79  13.99
2209.2  75955.89  10656.70  14.03
2211.6  75393.45  10595.48  14.05
2214.1  75110.06  10569.39  14.07
2216.5  74596.85  10514.43  14.10
2219.0  74291.40  10479.67  14.11
2221.4  73943.63  10427.38  14.10
2223.9  73512.25  10353.00  14.08
2226.3  73058.56  10266.23  14.05
2228.7  72560.96  10157.60  14.00
2231.1  72007.65  10031.18  13.93
2233.6  71475.30  9893.60  13.84
2236.0  70990.94  9753.05  13.74
2238.4  70537.25  9609.25  13.62
2240.9  70119.40  9456.53  13.49
2243.3  69635.15  9292.63  13.34
2245.7  69125.14  9114.20  13.19
2248.1  68695.25  8940.10  13.01
2250.5  68241.08  8757.88  12.83
2252.9  67671.18  8571.34  12.67
2255.3  67155.04  8382.88  12.48
2257.7  66750.00  8217.50  12.31
2260.1  66317.83  8046.73  12.13
2262.5  65760.00  7865.00  11.96
2264.9  65291.00  7704.64  11.80
2267.3  64755.00  7535.00  11.64
2269.7  64316.18  7392.06  11.49
2272.1  63811.18  7244.56  11.35
2274.5  63299.33  7105.64  11.23
2276.8  62864.60  6971.60  11.09
2279.2  62350.20  6846.56  10.98
2281.6  61962.85  6734.60  10.87
2284.0  61546.88  6625.60  10.77
2286.3  61126.80  6515.73  10.66
2288.7  60748.68  6420.59  10.57
2291.1  60256.43  6296.06  10.45
2293.4  59852.10  6188.23  10.34
2295.8  59289.38  6061.55  10.22
2298.2  58754.36  5943.49  10.12
2300.5  58164.41  5821.88  10.01
2302.9  57481.75  5693.67  9.91
2305.2  56832.83  5569.73  9.80
2307.6  56236.15  5462.68  9.71
2309.9  55528.75  5350.08  9.63
2312.2  54978.50  5257.08  9.56
2314.6  54422.89  5164.65  9.49
2316.9  53770.84  5068.91  9.43
2319.2  53235.43  4981.18  9.36
2321.6  52666.86  4890.55  9.29
2323.9  52164.06  4802.09  9.21
2326.2  51676.30  4723.69  9.14
2328.6  51186.71  4642.41  9.07
2330.9  50715.00  4557.00  8.99
2333.2  50292.00  4471.46  8.89
2335.5  49899.45  4389.68  8.80
2337.8  49471.24  4318.73  8.73
2340.1  48953.64  4229.76  8.64
2342.4  48563.13  4149.17  8.54
2344.8  48183.44  4071.92  8.45
2347.1  47655.65  3997.35  8.39
2349.4  47154.09  3921.94  8.32
2351.6  46625.29  3836.56  8.23
2353.9  46191.05  3765.13  8.15
2356.2  45714.51  3693.51  8.08
2358.5  45158.40  3626.00  8.03
2360.8  44637.60  3542.00  7.94
2363.1  44232.93  3474.36  7.85
2365.4  43798.80  3412.60  7.79
2367.7  43374.15  3348.75  7.72
2369.9  42877.39  3268.98  7.62
2372.2  42312.00  3190.60  7.54
2374.5  41787.90  3118.50  7.46
2376.7  41201.41  3034.85  7.37
2379.0  40649.78  2963.59  7.29
2381.3  40101.25  2890.42  7.21
2383.5  39626.40  2810.13  7.09
2385.8  39059.45  2729.87  6.99
2388.0  38586.00  2663.85  6.90
2390.3  38118.70  2589.90  6.79
2392.5  37665.00  2535.00  6.73
2394.8  37234.73  2471.43  6.64
2397.0  36800.40  2396.33  6.51
2399.3  36376.39  2330.06  6.41
2401.5  35959.88  2260.13  6.29
2403.8  35481.24  2189.29  6.17
2406.0  35024.31  2129.46  6.08
2408.2  34651.10  2072.58  5.98
2410.4  34257.39  2012.94  5.88
2412.7  33873.45  1950.98  5.76
2414.9  33547.80  1897.50  5.66
2417.1  33175.58  1835.15  5.53
2419.3  32803.20  1779.20  5.42
2421.6  32443.44  1734.06  5.34
2423.8  32092.50  1679.19  5.23
2426.0  31763.73  1616.43  5.09
2428.2  31418.80  1587.60  5.05
2430.4  31124.80  1531.76  4.92
2432.6  30860.00  1480.00  4.80
2434.8  30596.30  1436.92  4.70
2437.0  30265.30  1397.07  4.62
2439.2  29946.18  1358.43  4.54
2441.4  29652.50  1319.03  4.45
2443.6  29429.50  1278.04  4.34
2445.7  29175.83  1242.56  4.26
2447.9  28922.31  1203.80  4.16
2450.1  28640.93  1169.67  4.08
2452.3  28321.56  1125.81  3.98
2454.5  27976.63  1092.12  3.90
2456.6  27627.40  1055.73  3.82
2458.8  27284.40  1018.88  3.73
2461.0  26998.81  987.54  3.66
2463.1  26735.63  956.66  3.58
2465.3  26482.68  936.54  3.54
2467.5  26262.38  914.50  3.48
2469.6  26022.13  891.27  3.43
2471.8  25746.08  863.46  3.35
2473.9  25441.81  833.36  3.28
2476.1  25116.00  803.83  3.20
2478.2  24780.83  784.52  3.17
2480.4  24510.11  763.66  3.12
2482.5  24188.84  735.46  3.04
2484.6  23889.25  712.94  2.98
2486.8  23644.20  706.50  2.99
2488.9  23331.71  706.30  3.03
2491.1  23026.50  678.30  2.95
2493.2  22668.68  658.63  2.91
2495.3  22294.35  649.35  2.91
2497.4  21988.58  627.90  2.86
2499.5  21677.58  619.01  2.86
2501.7  21556.43  612.14  2.84
2503.8  21464.20  593.44  2.76
2505.9  21422.50  589.37  2.75
2508.0  21387.85  586.81  2.74
2510.1  21379.53  576.74  2.70
2512.2  21469.50  568.85  2.65
2514.3  21612.53  578.99  2.68
2516.4  21822.68  625.48  2.87
