/*** Spectra Vista SIG Data ***/
name= 49_20221021_QUPH_11_avg.sig
comm= Averaged Ref/Tar of files: HR.102122.0061_moc.sig,HR.102122.0062_moc.sig
data=
337.3  6217.05  386.78  6.22
338.8  6445.40  371.06  5.76
340.3  6900.33  391.60  5.68
341.8  7076.55  401.78  5.68
343.2  7461.30  406.06  5.44
344.7  7814.63  380.31  4.87
346.2  8142.75  364.25  4.47
347.7  8548.20  373.14  4.37
349.2  8920.80  367.20  4.12
350.6  9350.40  375.69  4.02
352.1  9763.50  384.07  3.93
353.6  10320.00  412.80  4.00
355.1  10843.58  408.65  3.77
356.6  11453.20  399.75  3.49
358.0  11968.43  407.09  3.40
359.5  12499.88  426.83  3.41
361.0  13105.30  465.93  3.56
362.5  13726.65  469.64  3.42
364.0  14426.63  484.93  3.36
365.4  15103.73  482.12  3.19
366.9  15764.93  487.58  3.09
368.4  16409.15  496.32  3.02
369.9  17066.00  545.15  3.19
371.3  17911.03  585.28  3.27
372.8  18650.05  601.14  3.22
374.3  19462.00  623.69  3.20
375.8  20284.80  618.81  3.05
377.2  21060.00  631.80  3.00
378.7  21912.80  639.63  2.92
380.2  22671.75  655.30  2.89
381.7  23526.50  670.68  2.85
383.1  24464.40  708.03  2.89
384.6  25393.73  713.52  2.81
386.1  26362.50  723.09  2.74
387.6  27233.85  743.56  2.73
389.0  28204.65  756.42  2.68
390.5  29238.05  780.38  2.67
392.0  30273.75  820.61  2.71
393.4  31287.38  851.36  2.72
394.9  32321.50  865.30  2.68
396.4  33446.60  896.34  2.68
397.9  34468.80  901.80  2.62
399.3  35415.35  937.18  2.65
400.8  36554.93  980.46  2.68
402.2  37705.80  1011.69  2.68
403.7  38874.60  1053.02  2.71
405.2  40014.80  1060.30  2.65
406.6  41223.00  1080.73  2.62
408.1  42264.00  1106.92  2.62
409.6  43416.63  1154.93  2.66
411.0  44597.85  1192.36  2.67
412.5  45943.15  1228.09  2.67
414.0  47272.75  1271.20  2.69
415.4  48568.50  1310.28  2.70
416.9  49833.20  1350.90  2.71
418.4  51109.28  1395.92  2.73
419.8  52424.05  1434.20  2.74
421.3  53846.10  1475.10  2.74
422.7  55296.80  1521.00  2.75
424.2  56766.30  1568.52  2.76
425.7  58190.00  1617.40  2.78
427.1  59650.10  1662.19  2.79
428.6  61070.85  1702.85  2.79
430.0  62557.55  1757.09  2.81
431.5  64184.58  1801.62  2.81
432.9  65801.63  1860.59  2.83
434.4  67482.65  1916.99  2.84
435.9  69105.00  1962.82  2.84
437.3  70769.25  2015.90  2.85
438.8  72335.08  2064.47  2.85
440.2  74000.85  2123.25  2.87
441.7  75804.70  2188.81  2.89
443.1  77565.60  2246.21  2.90
444.6  79343.23  2315.43  2.92
446.0  81117.63  2367.80  2.92
447.5  83050.00  2435.72  2.93
448.9  84745.00  2503.18  2.95
450.4  86575.00  2567.86  2.97
451.8  88364.63  2630.95  2.98
453.3  90130.65  2693.59  2.99
454.7  91911.38  2760.43  3.00
456.2  93666.30  2825.10  3.02
457.6  95546.25  2891.13  3.03
459.1  97343.40  2947.35  3.03
460.5  99168.00  3006.77  3.03
462.0  101137.50  3072.35  3.04
463.4  103083.93  3140.80  3.05
464.8  105011.55  3201.53  3.05
466.3  106919.18  3272.21  3.06
467.7  108881.60  3333.94  3.06
469.2  110690.55  3397.63  3.07
470.6  112677.25  3460.38  3.07
472.0  114732.85  3524.99  3.07
473.5  116682.45  3592.51  3.08
474.9  118823.15  3664.15  3.08
476.4  120874.40  3733.14  3.09
477.8  122892.00  3804.00  3.10
479.2  124907.43  3875.46  3.10
480.7  126978.53  3948.47  3.11
482.1  129153.13  4025.19  3.12
483.6  131325.30  4101.30  3.12
485.0  133496.70  4188.26  3.14
486.4  135546.10  4267.40  3.15
487.9  137747.00  4350.50  3.16
489.3  139822.58  4450.55  3.18
490.7  141937.05  4543.88  3.20
492.2  144145.00  4649.45  3.23
493.6  146367.60  4762.49  3.25
495.0  148613.40  4887.54  3.29
496.5  150736.95  5022.00  3.33
497.9  152998.00  5164.25  3.38
499.3  155211.25  5298.02  3.41
500.7  157461.20  5478.07  3.48
502.2  159809.95  5661.13  3.54
503.6  162065.40  5869.63  3.62
505.0  164285.00  6097.97  3.71
506.5  166703.45  6358.50  3.81
507.9  169067.80  6644.41  3.93
509.3  171307.13  6972.30  4.07
510.7  173891.25  7343.42  4.22
512.2  176466.30  7761.07  4.40
513.6  179269.85  8242.25  4.60
515.0  181966.93  8768.45  4.82
516.4  184785.60  9351.23  5.06
517.8  187534.50  9985.18  5.32
519.3  190400.00  10685.71  5.61
520.7  193006.20  11420.71  5.92
522.1  195622.70  12196.56  6.23
523.5  198156.28  12994.80  6.56
524.9  201022.05  13816.38  6.87
526.3  203604.98  14604.50  7.17
527.8  206357.63  15400.25  7.46
529.2  208857.60  16173.26  7.74
530.6  211565.70  16931.32  8.00
532.0  214343.35  17653.21  8.24
533.4  216888.10  18305.00  8.44
534.8  219459.08  18918.19  8.62
536.3  222306.08  19494.91  8.77
537.7  225137.00  20023.57  8.89
539.1  227949.80  20525.52  9.00
540.5  230756.25  21008.04  9.10
541.9  233688.55  21486.19  9.19
543.3  236290.80  21924.09  9.28
544.7  239228.00  22421.14  9.37
546.1  242041.80  22905.90  9.46
547.5  244900.80  23371.20  9.54
549.0  247785.60  23825.77  9.62
550.4  250675.43  24245.33  9.67
551.8  253640.25  24628.33  9.71
553.2  256484.78  24930.54  9.72
554.6  259286.60  25151.29  9.70
556.0  262162.95  25296.60  9.65
557.4  265227.20  25366.82  9.56
558.8  268110.80  25358.83  9.46
560.2  271280.00  25337.14  9.34
561.6  274184.35  25237.14  9.20
563.0  276941.60  25078.12  9.06
564.4  280119.70  24919.70  8.90
565.8  283109.80  24706.53  8.73
567.2  286266.05  24464.44  8.55
568.6  289267.20  24153.43  8.35
570.0  292095.38  23777.70  8.14
571.4  295467.20  23402.50  7.92
572.8  298594.20  23001.95  7.70
574.2  301414.58  22610.48  7.50
575.6  304458.38  22264.48  7.31
577.0  307430.48  21954.67  7.14
578.4  310800.00  21709.38  6.98
579.8  313840.28  21478.98  6.84
581.2  316884.50  21290.07  6.72
582.5  319747.50  21121.08  6.61
583.9  322771.30  20987.78  6.50
585.3  325638.00  20871.72  6.41
586.7  328620.60  20790.00  6.33
588.1  331559.00  20733.67  6.25
589.5  334857.45  20734.10  6.19
590.9  337767.03  20737.96  6.14
592.3  340661.25  20766.41  6.10
593.7  343614.95  20829.15  6.06
595.0  346540.20  20913.52  6.03
596.4  349817.13  21033.59  6.01
597.8  352429.10  21105.52  5.99
599.2  355483.05  21185.36  5.96
600.6  358612.65  21256.48  5.93
602.0  361561.20  21285.00  5.89
603.3  364416.00  21264.29  5.84
604.7  367412.25  21208.53  5.77
606.1  370385.25  21123.27  5.70
607.5  373615.50  20994.40  5.62
608.9  376680.15  20832.35  5.53
610.2  379788.75  20652.11  5.44
611.6  382690.00  20444.29  5.34
613.0  385488.40  20231.33  5.25
614.4  388241.28  20034.19  5.16
615.8  391404.90  19882.76  5.08
617.1  394077.45  19721.21  5.00
618.5  397296.23  19621.37  4.94
619.9  399982.65  19539.30  4.89
621.3  402896.33  19487.19  4.84
622.6  405756.00  19480.50  4.80
624.0  408410.25  19484.79  4.77
625.4  411456.08  19548.75  4.75
626.8  414380.20  19630.56  4.74
628.1  417129.65  19726.85  4.73
629.5  419788.78  19833.08  4.72
630.9  422483.15  19951.37  4.72
632.2  425396.93  20056.90  4.71
633.6  427742.58  20121.73  4.70
635.0  430554.58  20157.15  4.68
636.3  433530.90  20146.71  4.65
637.7  436257.58  20071.17  4.60
639.1  439135.95  19962.25  4.55
640.4  441831.63  19807.20  4.48
641.8  444565.80  19630.80  4.42
643.2  447077.00  19426.98  4.35
644.5  449890.00  19225.00  4.27
645.9  452444.65  18998.10  4.20
647.2  454627.25  18799.55  4.14
648.6  457141.60  18662.80  4.08
650.0  459871.20  18564.95  4.04
651.3  462792.90  18498.44  4.00
652.7  466749.00  18433.29  3.95
654.0  469501.95  18348.10  3.91
655.4  471786.53  18282.83  3.88
656.8  473703.83  18170.78  3.84
658.1  476405.48  18033.83  3.79
659.5  479260.80  17853.95  3.73
660.8  481858.65  17662.80  3.67
662.2  484451.55  17488.88  3.61
663.5  487166.28  17351.83  3.56
664.9  489150.03  17196.04  3.52
666.2  491358.08  17115.15  3.48
667.6  493890.75  17093.90  3.46
668.9  496411.20  17119.55  3.45
670.3  499408.00  17180.63  3.44
671.6  501507.20  17274.97  3.44
673.0  503796.80  17420.34  3.46
674.3  506209.55  17599.45  3.48
675.7  508615.20  17820.39  3.50
677.0  510880.28  18078.34  3.54
678.4  513025.40  18375.09  3.58
679.7  515356.13  18729.81  3.63
681.1  517761.73  19149.04  3.70
682.4  519898.88  19601.47  3.77
683.8  522187.13  20146.29  3.86
685.1  524384.85  20788.38  3.96
686.4  526610.18  21579.44  4.10
687.8  528956.63  22568.98  4.27
689.1  531358.80  23814.40  4.48
690.5  533311.10  25410.05  4.76
691.8  535931.28  27527.15  5.14
693.1  538356.00  30257.36  5.62
694.5  540612.70  33649.00  6.22
695.8  543016.20  37719.35  6.95
697.1  545244.90  42476.40  7.79
698.5  547493.75  47894.02  8.75
699.8  549839.60  53883.37  9.80
701.1  551833.80  60320.25  10.93
702.5  553812.00  67144.50  12.12
703.8  556163.03  74302.38  13.36
705.1  557972.65  81572.00  14.62
706.5  560233.45  89066.79  15.90
707.8  562035.58  96634.15  17.19
709.1  564272.88  104372.51  18.50
710.5  566424.13  112221.50  19.81
711.8  568288.00  120166.58  21.15
713.1  570180.00  128250.58  22.49
714.4  572275.53  136499.89  23.85
715.8  574491.28  144904.30  25.22
717.1  576656.60  153429.07  26.61
718.4  578889.68  162027.79  27.99
719.7  581026.50  170678.86  29.38
721.0  582669.18  179229.74  30.76
722.4  584473.50  187776.07  32.13
723.7  586362.20  196278.87  33.47
725.0  588033.70  204584.27  34.79
726.3  590246.80  212924.03  36.07
727.6  591932.25  220902.32  37.32
729.0  593718.65  228669.85  38.51
730.3  595607.10  236215.87  39.66
731.6  597035.30  243300.28  40.75
732.9  598930.15  250230.78  41.78
734.2  600492.75  256725.27  42.75
735.5  602214.80  262957.05  43.66
736.8  604170.18  268970.10  44.52
738.1  605939.10  274530.93  45.31
739.5  607673.85  279734.81  46.03
740.8  609483.33  284675.21  46.71
742.1  611051.70  289167.00  47.32
743.4  612649.45  293422.05  47.89
744.7  614411.00  297423.00  48.41
746.0  615822.63  300945.92  48.87
747.3  617323.70  304206.60  49.28
748.6  618800.85  307247.56  49.65
749.9  620464.70  310131.00  49.98
751.2  621589.15  312564.14  50.28
752.5  623016.45  314945.40  50.55
753.8  624234.60  317049.75  50.79
755.1  625743.60  319110.98  51.00
756.4  626849.75  320794.47  51.18
757.7  628764.13  322816.41  51.34
759.0  632267.13  325487.62  51.48
760.3  634889.80  327607.62  51.60
761.6  637587.08  329686.66  51.71
762.9  638860.75  330966.43  51.81
764.2  639586.05  331860.76  51.89
765.5  640344.65  332729.58  51.96
766.8  640776.40  333364.39  52.03
768.1  641850.30  334228.50  52.07
769.3  642978.80  335148.61  52.12
770.6  644268.85  336105.31  52.17
771.9  645313.78  336909.51  52.21
773.2  646670.70  337800.73  52.24
774.5  647453.40  338441.55  52.27
775.8  648492.53  339122.31  52.29
777.1  649571.78  339877.15  52.32
778.4  650759.13  340670.77  52.35
779.6  651956.40  341442.77  52.37
780.9  652493.48  341913.73  52.40
782.2  653370.20  342515.10  52.42
783.5  654202.75  343075.97  52.44
784.8  654948.00  343576.88  52.46
786.0  655652.60  344085.11  52.48
787.3  656345.35  344595.85  52.50
788.6  657120.63  345129.79  52.52
789.9  657754.40  345580.67  52.54
791.2  658932.00  346358.89  52.56
792.4  660015.13  346990.09  52.57
793.7  661474.88  347862.87  52.59
795.0  662438.40  348451.24  52.60
796.2  663576.30  349189.59  52.62
797.5  664695.63  349860.81  52.63
798.8  666019.38  350631.63  52.65
800.0  666960.00  351260.00  52.67
801.3  668067.75  351924.75  52.68
802.6  669024.00  352542.86  52.70
803.8  670056.45  353188.58  52.71
805.1  671006.63  353755.72  52.72
806.4  671928.50  354328.44  52.73
807.7  672919.80  354954.19  52.75
808.9  674108.73  355611.68  52.75
810.2  674824.50  356143.50  52.78
811.4  675867.60  356738.86  52.78
812.7  677128.00  357522.67  52.80
814.0  678331.50  358234.80  52.81
815.2  679620.15  359027.36  52.83
816.5  680793.75  359693.75  52.83
817.7  681582.50  360204.86  52.85
819.0  682175.20  360656.40  52.87
820.2  682879.50  361148.42  52.89
821.5  683874.20  361848.89  52.91
822.7  684986.75  362433.45  52.91
824.0  685937.20  362987.58  52.92
825.2  686641.80  363444.62  52.93
826.5  687360.35  363918.55  52.94
827.7  688331.05  364555.92  52.96
829.0  689221.13  365159.07  52.98
830.2  690176.40  365750.92  52.99
831.5  691128.68  366314.15  53.00
832.7  692113.95  366879.60  53.01
834.0  692784.23  367308.58  53.02
835.2  693681.45  367913.15  53.04
836.4  694530.40  368455.49  53.05
837.7  695328.75  369008.84  53.07
838.9  696555.15  369767.00  53.09
840.1  697459.95  370374.09  53.10
841.4  698506.00  370991.08  53.11
842.6  699433.00  371607.40  53.13
843.8  700216.40  372190.38  53.15
845.1  701259.90  372821.51  53.16
846.3  702170.70  373425.45  53.18
847.5  703101.75  374080.58  53.20
848.8  704228.50  374710.94  53.21
850.0  705412.40  375450.03  53.22
851.2  706347.25  376103.72  53.25
852.5  707565.70  376833.34  53.26
853.7  708442.88  377381.89  53.27
854.9  709690.80  378101.10  53.28
856.1  710851.85  378785.70  53.29
857.4  711798.38  379427.73  53.31
858.6  712814.20  380084.80  53.32
859.8  713960.00  380850.59  53.34
861.0  715036.70  381457.45  53.35
862.2  716163.00  382141.20  53.36
863.5  717382.90  382768.11  53.36
864.7  718318.75  383442.86  53.38
865.9  719315.50  384101.52  53.40
867.1  720128.13  384581.70  53.40
868.3  721304.48  385390.73  53.43
869.5  722609.05  386078.41  53.43
870.8  723825.45  386815.82  53.44
872.0  724837.48  387391.62  53.45
873.2  725823.63  387954.34  53.45
874.4  726861.65  388534.74  53.45
875.6  727993.23  389256.11  53.47
876.8  729507.90  390156.17  53.48
878.0  730521.40  390772.00  53.49
879.2  731663.00  391399.86  53.49
880.4  732890.00  392020.86  53.49
881.6  734058.80  392550.20  53.48
882.8  735296.20  393374.24  53.50
884.0  736182.85  393953.86  53.51
885.2  737600.25  394775.82  53.52
886.5  738789.80  395477.55  53.53
887.7  739854.88  396037.71  53.53
888.8  741404.70  396753.39  53.51
890.0  742350.00  397346.25  53.53
891.2  743410.20  397989.43  53.54
892.4  744742.35  398793.69  53.55
893.6  746768.88  399746.63  53.53
894.8  748145.33  400590.72  53.54
896.0  749622.73  401365.03  53.54
897.2  751580.78  402410.61  53.54
898.4  753486.30  403413.30  53.54
899.6  754771.20  404134.81  53.54
900.8  755190.15  404483.68  53.56
902.0  755901.40  404764.57  53.55
903.2  756350.00  404878.79  53.53
904.3  757282.50  405436.34  53.54
905.5  758463.75  406105.08  53.54
906.7  759437.33  406784.87  53.56
907.9  760645.85  407308.51  53.55
909.1  761897.68  407884.95  53.54
910.2  762142.50  408105.00  53.55
911.4  762250.73  408169.22  53.55
912.6  762662.50  408404.65  53.55
913.8  763493.15  409005.40  53.57
915.0  763912.20  409229.77  53.57
916.2  764237.48  409277.41  53.55
917.3  764891.50  409689.97  53.56
918.5  765292.80  409866.88  53.56
919.7  765390.75  409814.93  53.54
920.8  765432.00  409900.99  53.55
922.0  765406.68  409914.30  53.56
923.2  765952.20  410058.76  53.54
924.4  766527.88  410392.95  53.54
925.5  767441.00  410597.97  53.50
926.7  768053.15  411030.04  53.52
927.9  769517.65  411684.10  53.50
929.0  772537.50  413239.25  53.49
930.2  776917.60  415391.03  53.47
931.4  782072.83  417949.32  53.44
932.5  786443.35  420291.85  53.44
933.7  789304.95  421636.10  53.42
934.9  790921.25  422216.25  53.38
936.0  789829.65  421411.31  53.35
937.2  786258.70  419552.64  53.36
938.3  782310.75  417241.97  53.33
939.5  780050.70  415884.86  53.32
940.7  780117.80  415655.90  53.28
941.8  782772.90  416906.19  53.26
943.0  785187.68  417802.53  53.21
944.2  786900.00  418494.86  53.18
945.3  786253.80  417878.06  53.15
946.5  784481.25  416508.75  53.09
947.6  785020.25  416596.04  53.07
948.8  783986.13  415643.27  53.02
949.9  784129.50  415486.80  52.99
951.1  784202.93  414858.25  52.90
952.2  783489.80  413989.83  52.84
953.4  783114.00  413336.62  52.78
954.5  781433.63  411938.63  52.72
955.7  781037.45  411243.64  52.65
956.8  781955.45  410867.49  52.54
958.0  781062.75  409763.89  52.46
959.1  779738.40  408952.80  52.45
960.3  779775.00  408453.57  52.38
961.4  779767.30  408337.09  52.37
962.6  779076.00  407765.83  52.34
963.7  779847.60  407503.20  52.25
964.9  779861.58  407318.08  52.23
966.0  780132.15  407305.95  52.21
967.2  780364.20  407365.20  52.20
968.3  781725.05  407617.70  52.14
969.5  781804.50  407655.21  52.14
970.6  782027.60  407403.60  52.10
971.8  782068.53  407112.48  52.06
972.9  782372.50  407340.50  52.06
974.0  783245.60  407688.41  52.05
975.2  781818.75  406723.66  52.02
976.3  782113.65  407077.78  52.05
977.5  781594.95  406591.71  52.02
978.6  781889.55  406271.39  51.96
979.7  781334.40  405820.80  51.94
980.9  781007.10  405694.17  51.95
982.0  780760.00  405298.10  51.91
983.2  781190.20  404935.00  51.84
984.3  778870.40  403975.80  51.87
985.4  778975.40  403440.00  51.79
986.6  778137.55  403723.64  51.88
987.7  777554.88  403253.70  51.86
988.9  777663.65  403470.68  51.88
990.0  778295.90  402676.18  51.74
993.1  873374.40  451220.00  51.66
996.9  872164.80  451819.47  51.80
1000.7  871190.93  452512.93  51.94
1004.5  869979.87  453012.60  52.07
1008.4  870617.93  454496.94  52.20
1012.2  871510.83  456033.85  52.33
1016.0  870962.83  456724.81  52.44
1019.8  869059.96  456684.27  52.55
1023.7  867066.98  456560.78  52.66
1027.5  864141.20  455872.36  52.75
1031.3  862143.17  455604.74  52.85
1035.1  860720.78  455571.43  52.93
1038.9  860101.32  455889.77  53.00
1042.7  859734.73  456338.20  53.08
1046.5  859008.50  456520.75  53.15
1050.3  857354.62  456133.87  53.20
1054.2  855355.05  455484.33  53.25
1058.0  854452.80  455384.40  53.30
1061.8  853225.33  455062.50  53.33
1065.6  851121.79  454174.48  53.36
1069.4  848758.08  453024.49  53.37
1073.2  846404.00  451850.75  53.38
1077.0  844885.07  450902.23  53.37
1080.8  844592.83  450616.83  53.35
1084.6  844525.00  450458.56  53.34
1088.4  844074.92  450150.95  53.33
1092.2  842925.07  449306.51  53.30
1096.0  841578.07  448293.28  53.27
1099.8  839977.25  447114.09  53.23
1103.6  838037.15  445705.19  53.18
1107.4  836427.07  444383.03  53.13
1111.2  835034.35  443140.30  53.07
1114.9  834186.00  442062.00  52.99
1118.7  833970.75  441123.47  52.89
1122.5  834223.54  440071.78  52.75
1126.3  831915.00  437343.90  52.57
1130.1  831331.88  434979.71  52.32
1133.9  827834.65  430327.38  51.98
1137.7  825037.20  425408.00  51.56
1141.4  821121.25  419254.85  51.06
1145.2  820089.53  414253.39  50.51
1149.0  817989.00  408882.60  49.99
1152.8  814449.60  403343.30  49.52
1156.6  810698.69  398506.73  49.16
1160.3  807473.40  394598.40  48.87
1164.1  802863.93  390668.96  48.66
1167.9  799824.83  388058.74  48.52
1171.7  797232.70  385947.83  48.41
1175.4  794736.69  383972.91  48.31
1179.2  792573.00  382175.25  48.22
1183.0  792878.38  381542.75  48.12
1186.7  793086.00  381033.33  48.04
1190.5  791991.88  380029.00  47.98
1194.3  789364.45  378434.67  47.94
1198.0  786144.50  376733.19  47.92
1201.8  783603.33  375520.45  47.92
1205.6  782006.58  375036.35  47.96
1209.3  781035.75  375082.75  48.02
1213.1  780007.38  375322.81  48.12
1216.8  778312.00  375450.18  48.24
1220.6  776075.17  375400.39  48.37
1224.3  773712.50  375283.34  48.50
1228.1  771456.32  375233.97  48.64
1231.9  768875.25  374892.92  48.76
1235.6  766313.08  374399.21  48.86
1239.4  763810.85  373940.60  48.96
1243.1  761569.20  373438.50  49.04
1246.9  759537.81  372905.66  49.10
1250.6  757417.13  372276.94  49.15
1254.3  755330.40  371620.00  49.20
1258.1  753106.00  370785.11  49.23
1261.8  750456.70  369677.94  49.26
1265.6  748216.36  368617.21  49.27
1269.3  746311.80  367618.53  49.26
1273.1  746948.27  367804.97  49.24
1276.8  746831.47  367447.56  49.20
1280.6  745667.58  366465.91  49.15
1284.3  742779.48  364446.16  49.07
1288.0  740967.72  362783.56  48.96
1291.8  739783.80  361267.20  48.83
1295.5  738321.72  359495.85  48.69
1299.2  736072.35  357063.20  48.51
1302.9  733146.52  354054.53  48.29
1306.7  729933.75  350645.93  48.04
1310.4  726816.33  346888.52  47.73
1314.1  724220.63  343092.50  47.37
1317.9  721601.18  338892.85  46.96
1321.6  718714.21  334223.79  46.50
1325.3  715893.53  329225.40  45.99
1329.0  713240.73  324106.69  45.44
1332.8  709485.00  318262.92  44.86
1336.5  706077.83  312477.92  44.26
1340.2  704515.30  307564.44  43.66
1343.9  704497.00  303376.70  43.06
1347.6  705585.03  299824.97  42.49
1351.4  707817.50  296923.75  41.95
1355.1  712339.74  295046.89  41.42
1358.8  714112.77  291894.15  40.88
1362.5  715246.41  288189.03  40.29
1366.2  711677.38  281887.87  39.61
1369.9  704998.00  273541.00  38.80
1373.6  699896.82  264391.51  37.78
1377.3  698273.93  254700.82  36.48
1381.0  696734.27  242783.00  34.85
1384.8  692357.80  227500.95  32.86
1388.4  686301.35  210254.97  30.64
1392.2  681530.85  192630.12  28.26
1395.9  679608.82  175906.61  25.88
1399.6  674995.97  159576.63  23.64
1403.3  671869.20  145352.80  21.63
1407.0  668361.38  133093.13  19.91
1410.7  665768.03  123116.81  18.49
1414.3  662438.50  114926.33  17.35
1418.1  659421.88  108524.31  16.46
1421.7  656725.77  103501.38  15.76
1425.4  654686.63  99706.76  15.23
1429.1  650658.75  96517.75  14.83
1432.8  648985.20  94421.83  14.55
1436.5  645578.38  92577.88  14.34
1440.2  642091.33  91231.78  14.21
1443.9  639907.12  90419.38  14.13
1447.6  636014.40  89632.53  14.09
1451.2  632708.10  89154.43  14.09
1454.9  630713.18  89051.40  14.12
1458.6  626876.16  88965.96  14.19
1462.3  626009.13  89661.74  14.32
1466.0  626070.54  90878.70  14.52
1469.7  624197.93  92252.85  14.78
1473.3  621934.13  93905.78  15.10
1477.0  617514.71  95524.70  15.47
1480.7  614149.21  97496.50  15.88
1484.4  610272.98  99506.88  16.31
1488.0  607076.18  101732.98  16.76
1491.7  603567.15  103948.86  17.22
1495.4  600125.12  106206.68  17.70
1499.0  597159.23  108542.20  18.18
1502.7  594315.47  110929.02  18.67
1506.4  591504.53  113296.74  19.15
1510.0  588718.54  115612.43  19.64
1513.7  585961.83  117868.31  20.12
1517.4  583323.07  120122.18  20.59
1521.0  580937.59  122364.25  21.06
1524.7  578448.85  124462.14  21.52
1528.3  576002.43  126521.71  21.97
1532.0  573421.90  128433.87  22.40
1535.7  570624.75  130200.00  22.82
1539.3  567960.40  131947.22  23.23
1543.0  566301.17  133823.77  23.63
1546.6  564916.75  135697.81  24.02
1550.3  563325.96  137449.91  24.40
1553.9  560865.20  138873.94  24.76
1557.6  558683.60  140295.05  25.11
1561.2  556168.09  141524.35  25.45
1564.9  553412.33  142622.07  25.77
1568.5  550610.67  143647.11  26.09
1572.2  548241.40  144680.67  26.39
1575.8  546359.40  145808.00  26.69
1579.5  544461.48  146874.65  26.98
1583.1  542121.88  147789.06  27.26
1586.8  539817.88  148649.59  27.54
1590.4  537413.72  149448.37  27.81
1594.0  535032.40  150182.65  28.07
1597.7  533109.33  151047.65  28.33
1601.3  531115.65  151829.10  28.59
1604.9  528698.50  152438.73  28.83
1608.6  525812.63  152839.50  29.07
1612.2  522762.21  153085.44  29.28
1615.8  520167.60  153388.20  29.49
1619.5  517796.71  153697.18  29.68
1623.1  514955.10  153795.95  29.87
1626.7  512114.82  153822.69  30.04
1630.3  509512.20  153836.60  30.19
1634.0  507073.99  153781.91  30.33
1637.6  504820.00  153653.34  30.44
1641.2  502543.65  153366.97  30.52
1644.8  500011.72  152855.38  30.57
1648.5  497282.43  152114.29  30.59
1652.1  495085.10  151366.05  30.57
1655.7  493248.71  150631.17  30.54
1659.3  491392.13  149874.90  30.50
1662.9  488116.40  148739.59  30.47
1666.6  484464.20  147534.39  30.45
1670.2  481041.83  146417.61  30.44
1673.8  477753.98  145277.51  30.41
1677.4  475179.90  144275.95  30.36
1681.0  473494.58  143409.76  30.29
1684.6  472554.96  142624.63  30.18
1688.2  470943.20  141474.67  30.04
1691.8  469308.62  140282.01  29.89
1695.4  468458.48  139250.69  29.73
1699.0  467617.35  138182.72  29.55
1702.6  466985.07  137133.47  29.37
1706.2  465392.07  135697.58  29.16
1709.8  463211.85  134082.42  28.95
1713.4  461598.80  132666.30  28.74
1717.0  459839.47  131248.39  28.54
1720.6  458064.97  129860.23  28.35
1724.2  456551.29  128560.83  28.16
1727.8  455110.23  127440.23  28.00
1731.4  454300.78  126606.70  27.87
1735.0  454362.63  126110.86  27.76
1738.6  453853.88  125404.00  27.63
1742.2  453011.05  124442.95  27.47
1745.8  451298.13  123140.27  27.29
1749.4  448953.04  121554.94  27.08
1753.0  445248.40  119570.54  26.85
1756.6  441462.00  117570.25  26.63
1760.1  438138.00  115813.34  26.43
1763.7  434170.43  113997.08  26.26
1767.3  431046.43  112497.47  26.10
1770.9  428354.88  111243.89  25.97
1774.5  425196.09  109951.95  25.86
1778.0  423068.24  108976.36  25.76
1781.6  420744.57  108082.52  25.69
1785.2  418061.40  107159.73  25.63
1788.8  415265.83  106336.60  25.61
1792.3  413000.23  105728.27  25.60
1795.9  412545.63  105686.28  25.62
1799.5  413420.40  106004.17  25.64
1803.1  416698.67  107004.31  25.68
1806.6  420180.72  108091.26  25.72
1810.2  422922.15  108942.40  25.76
1813.8  423058.93  109091.56  25.79
1817.3  422557.58  109059.13  25.81
1820.9  421781.25  108911.46  25.82
1824.5  420901.81  108660.25  25.82
1828.0  421648.13  108750.45  25.79
1831.6  423558.42  109019.62  25.74
1835.2  424100.98  108782.81  25.65
1838.7  424874.92  108352.03  25.50
1842.3  423228.75  107024.75  25.29
1845.8  420802.80  105118.39  24.98
1849.4  420172.67  103233.28  24.57
1852.9  417943.75  100421.53  24.03
1856.5  415845.63  97023.37  23.33
1860.0  415048.57  93164.32  22.45
1863.6  415114.95  88713.72  21.37
1867.1  416948.83  83787.35  20.10
1870.7  419321.67  77964.58  18.59
1874.2  416942.18  70435.64  16.89
1877.8  410345.78  61953.28  15.10
1881.3  404133.05  53514.87  13.24
1884.9  400348.54  45988.76  11.49
1888.4  397208.61  39175.32  9.86
1891.9  394843.67  33494.73  8.48
1895.5  393110.67  29100.40  7.40
1899.0  392698.20  25913.03  6.60
1901.3  415734.93  18808.67  4.52
1904.1  416125.67  17069.38  4.10
1906.8  414263.65  15596.79  3.76
1909.6  410008.67  14330.40  3.50
1912.4  405661.87  13469.24  3.32
1915.1  401326.47  12824.17  3.20
1917.9  397282.05  12319.33  3.10
1920.6  394022.83  11907.62  3.02
1923.3  390944.67  11629.37  2.97
1926.1  386929.05  11382.38  2.94
1928.8  382514.60  11137.10  2.91
1931.6  380806.23  11077.77  2.91
1934.3  376529.07  11001.11  2.92
1937.0  372268.20  10955.70  2.94
1939.8  368603.57  10980.19  2.98
1942.5  363650.18  10972.97  3.02
1945.2  359588.25  11030.17  3.07
1947.9  356420.57  11116.41  3.12
1950.7  351909.13  11207.95  3.18
1953.4  348192.77  11347.17  3.26
1956.1  345393.47  11514.57  3.33
1958.8  343110.25  11719.75  3.42
1961.5  340041.45  11934.65  3.51
1964.2  336548.33  12141.10  3.61
1966.9  333527.47  12387.20  3.71
1969.6  330728.20  12653.39  3.83
1972.3  328127.27  12948.02  3.95
1975.0  325582.67  13278.33  4.08
1977.7  323331.18  13596.69  4.21
1980.4  321038.67  13921.60  4.34
1983.1  318616.97  14272.69  4.48
1985.8  316465.20  14657.40  4.63
1988.4  314427.85  15038.65  4.78
1991.1  312599.70  15438.15  4.94
1993.8  311117.80  15854.30  5.10
1996.5  309554.70  16270.45  5.26
1999.1  308142.88  16730.78  5.43
2001.8  306871.08  17193.34  5.60
2004.5  305625.25  17627.90  5.77
2007.1  304114.20  18041.37  5.93
2009.8  302166.67  18446.46  6.10
2012.4  300858.00  18895.35  6.28
2015.1  299675.27  19309.50  6.44
2017.8  298483.13  19735.70  6.61
2020.4  297343.00  20163.70  6.78
2023.1  296876.17  20578.22  6.93
2025.7  296611.98  21029.00  7.09
2028.3  295828.55  21420.72  7.24
2031.0  295213.22  21800.24  7.38
2033.6  294919.75  22171.38  7.52
2036.2  294512.87  22542.22  7.65
2038.9  293508.80  22848.80  7.78
2041.5  292520.83  23125.00  7.91
2044.1  291729.17  23416.67  8.03
2046.8  290621.48  23647.74  8.14
2049.4  289733.67  23871.47  8.24
2052.0  289486.07  24151.82  8.34
2054.6  289118.93  24416.27  8.45
2057.2  288048.20  24649.55  8.56
2059.8  286524.00  24864.00  8.68
2062.4  285133.12  25083.40  8.80
2065.0  283754.00  25291.58  8.91
2067.6  281867.70  25439.82  9.03
2070.2  280374.33  25618.60  9.14
2072.8  279459.58  25869.25  9.26
2075.4  278426.33  26087.92  9.37
2078.0  277734.85  26336.74  9.48
2080.6  276463.30  26526.72  9.60
2083.2  275134.22  26699.13  9.70
2085.8  273835.10  26879.65  9.82
2088.4  272702.23  27057.21  9.92
2090.9  271029.00  27176.00  10.03
2093.5  269105.00  27252.90  10.13
2096.1  267288.45  27348.75  10.23
2098.7  265748.83  27455.70  10.33
2101.2  263819.20  27520.40  10.43
2103.8  262332.75  27627.50  10.53
2106.4  260865.10  27734.73  10.63
2108.9  259797.95  27874.63  10.73
2111.5  258848.92  28025.96  10.83
2114.0  258223.33  28155.84  10.90
2116.6  256030.50  28144.97  10.99
2119.1  254909.90  28242.55  11.08
2121.7  254367.32  28383.69  11.16
2124.2  254205.50  28558.00  11.23
2126.8  252995.70  28644.75  11.32
2129.3  251863.05  28710.23  11.40
2131.9  252054.40  28917.20  11.47
2134.4  251222.30  28968.34  11.53
2136.9  250961.70  29118.47  11.60
2139.4  249856.17  29164.09  11.67
2142.0  249407.62  29295.79  11.75
2144.5  248823.17  29403.50  11.82
2147.0  248405.18  29545.05  11.89
2149.5  248020.07  29687.74  11.97
2152.1  248384.50  29891.12  12.03
2154.6  248402.40  30067.20  12.10
2157.1  248340.93  30248.15  12.18
2159.6  247266.07  30294.89  12.25
2162.1  247081.07  30416.47  12.31
2164.6  246407.63  30489.36  12.37
2167.1  245455.80  30510.64  12.43
2169.6  245621.28  30663.96  12.48
2172.1  244783.80  30723.45  12.55
2174.6  244419.00  30858.80  12.63
2177.1  243313.92  30886.88  12.69
2179.5  242842.23  30970.20  12.75
2182.0  242530.75  31106.84  12.83
2184.5  241547.45  31178.50  12.91
2187.0  240756.77  31230.77  12.97
2189.5  239740.07  31279.14  13.05
2191.9  238507.87  31295.37  13.12
2194.4  236819.75  31221.63  13.18
2196.9  235669.87  31255.31  13.26
2199.3  234204.10  31199.80  13.32
2201.8  233005.27  31206.99  13.39
2204.3  232281.60  31244.40  13.45
2206.7  231014.30  31224.23  13.52
2209.2  229790.25  31156.43  13.56
2211.6  227835.73  31003.30  13.61
2214.1  227118.38  30977.98  13.64
2216.5  226761.73  31000.07  13.67
2219.0  225428.87  30848.59  13.68
2221.4  225459.45  30877.50  13.70
2223.9  224309.80  30668.30  13.67
2226.3  223024.13  30431.94  13.65
2228.7  222053.00  30198.14  13.60
2231.1  221375.97  29939.42  13.52
2233.6  220320.00  29593.60  13.43
2236.0  219311.90  29257.92  13.34
2238.4  218403.08  28879.41  13.22
2240.9  217665.60  28496.00  13.09
2243.3  216788.53  28060.48  12.94
2245.7  215954.50  27605.70  12.78
2248.1  214988.80  27178.67  12.64
2250.5  214183.20  26738.07  12.48
2252.9  213469.57  26316.64  12.33
2255.3  212688.90  25888.78  12.17
2257.7  211806.47  25395.88  11.99
2260.1  210955.20  24963.60  11.83
2262.5  209904.40  24537.60  11.69
2264.9  208899.70  24125.69  11.55
2267.3  207922.00  23738.00  11.42
2269.7  206976.17  23387.30  11.30
2272.1  206187.17  23081.09  11.19
2274.5  205472.93  22775.80  11.08
2276.8  204745.60  22483.07  10.98
2279.2  203986.60  22224.05  10.89
2281.6  203381.70  21969.70  10.80
2284.0  203029.20  21755.25  10.72
2286.3  202558.87  21522.07  10.63
2288.7  202047.23  21249.07  10.52
2291.1  201513.50  20968.75  10.41
2293.4  200778.00  20676.45  10.30
2295.8  200059.38  20387.04  10.19
2298.2  199287.10  20063.30  10.07
2300.5  198103.55  19703.43  9.95
2302.9  196682.70  19324.38  9.83
2305.2  195248.17  18950.00  9.71
2307.6  193732.00  18627.47  9.62
2309.9  192708.32  18361.56  9.53
2312.2  191745.50  18158.08  9.47
2314.6  190672.03  17947.32  9.41
2316.9  189635.70  17748.83  9.36
2319.2  188892.73  17606.14  9.32
2321.6  188268.25  17452.49  9.27
2323.9  187440.80  17251.10  9.20
2326.2  186606.12  17043.65  9.13
2328.6  185904.20  16840.38  9.06
2330.9  185622.53  16670.74  8.98
2333.2  185182.75  16454.13  8.89
2335.5  184600.22  16245.67  8.80
2337.8  184119.40  16002.60  8.69
2340.1  183543.27  15815.24  8.62
2342.4  183088.35  15618.83  8.53
2344.8  182351.20  15417.24  8.45
2347.1  181539.10  15162.45  8.35
2349.4  180893.60  14999.00  8.29
2351.6  180120.00  14801.00  8.22
2353.9  179081.60  14611.50  8.16
2356.2  178290.25  14480.03  8.12
2358.5  177482.10  14259.85  8.03
2360.8  176739.58  14071.88  7.96
2363.1  176311.92  13910.96  7.89
2365.4  175851.00  13729.50  7.81
2367.7  175269.13  13553.44  7.73
2369.9  174540.30  13338.14  7.64
2372.2  173379.35  13130.35  7.57
2374.5  172167.50  12920.00  7.50
2376.7  171193.20  12714.50  7.43
2379.0  170019.85  12470.15  7.33
2381.3  168606.53  12202.94  7.24
2383.5  167580.00  11970.00  7.14
2385.8  166865.42  11813.08  7.08
2388.0  166042.00  11636.55  7.01
2390.3  165264.10  11449.85  6.93
2392.5  164818.25  11260.00  6.83
2394.8  163924.58  11086.92  6.76
2397.0  163364.53  10926.27  6.69
2399.3  162811.10  10693.31  6.57
2401.5  162049.10  10426.95  6.43
2403.8  161357.50  10306.87  6.39
2406.0  160901.77  10193.34  6.34
2408.2  160112.40  9981.30  6.23
2410.4  159284.43  9767.45  6.13
2412.7  158799.40  9599.50  6.05
2414.9  158148.73  9374.93  5.93
2417.1  158145.00  9272.44  5.86
2419.3  157699.37  9042.02  5.73
2421.6  156871.63  8839.02  5.63
2423.8  156192.03  8680.47  5.56
2426.0  155792.20  8563.45  5.50
2428.2  155520.75  8373.75  5.38
2430.4  155567.93  8291.85  5.33
2432.6  155440.50  8116.45  5.22
2434.8  154797.75  7905.85  5.11
2437.0  154277.50  7729.15  5.01
2439.2  153863.23  7621.90  4.95
2441.4  152980.80  7504.60  4.91
2443.6  152927.13  7399.70  4.84
2445.7  153126.43  7243.79  4.73
2447.9  153030.15  7090.20  4.63
2450.1  152276.08  6957.96  4.57
2452.3  151185.65  6829.26  4.52
2454.5  150642.80  6711.13  4.45
2456.6  149979.92  6528.38  4.35
2458.8  148731.80  6362.30  4.28
2461.0  148259.37  6286.37  4.24
2463.1  147904.83  6177.67  4.18
2465.3  147368.00  6067.67  4.12
2467.5  146965.00  5967.00  4.06
2469.6  146761.75  5843.50  3.98
2471.8  146364.17  5664.49  3.87
2473.9  145680.17  5614.92  3.85
2476.1  144847.08  5571.04  3.85
2478.2  143937.15  5554.23  3.86
2480.4  143270.92  5467.44  3.82
2482.5  142346.28  5306.59  3.73
2484.6  141286.00  5207.00  3.69
2486.8  140658.47  5065.03  3.60
2488.9  140277.20  5009.90  3.57
2491.1  138920.50  4970.55  3.58
2493.2  137567.30  4989.94  3.63
2495.3  135868.08  4818.33  3.55
2497.4  134600.63  4682.14  3.48
2499.5  133659.07  4697.57  3.51
2501.7  133759.00  4706.00  3.52
2503.8  134133.07  4631.67  3.45
2505.9  134920.25  4529.13  3.36
2508.0  135913.42  4625.59  3.40
2510.1  136788.30  4751.70  3.47
2512.2  137689.58  4780.17  3.47
2514.3  138911.50  4791.91  3.45
2516.4  140763.05  4815.29  3.42
