/*** Spectra Vista SIG Data ***/
name= 35_20220825_QUPH_15_avg.sig
comm= Averaged Ref/Tar of files: HR.082522.0025_moc.sig,HR.082522.0026_moc.sig
data=
337.3  3424.13  287.83  8.41
338.8  3607.50  269.36  7.47
340.3  3748.00  271.73  7.25
341.8  3978.08  265.21  6.67
343.2  4173.60  275.28  6.60
344.7  4307.65  281.49  6.53
346.2  4493.50  277.78  6.18
347.7  4719.00  267.41  5.67
349.2  4914.00  257.04  5.23
350.6  5178.23  264.42  5.11
352.1  5465.93  271.51  4.97
353.6  5725.50  263.72  4.61
355.1  6027.83  262.67  4.36
356.6  6325.58  275.31  4.35
358.0  6667.10  280.72  4.21
359.5  6952.50  290.46  4.18
361.0  7271.78  287.28  3.95
362.5  7640.78  292.75  3.83
364.0  8029.00  292.49  3.64
365.4  8373.80  292.24  3.49
366.9  8757.13  314.93  3.60
368.4  9137.13  327.30  3.58
369.9  9539.83  335.11  3.51
371.3  9959.10  347.10  3.49
372.8  10381.05  355.77  3.43
374.3  10830.63  360.13  3.33
375.8  11265.10  371.91  3.30
377.2  11701.50  381.98  3.26
378.7  12131.90  387.36  3.19
380.2  12562.30  392.74  3.13
381.7  13080.10  405.38  3.10
383.1  13609.75  415.03  3.05
384.6  14134.90  431.60  3.05
386.1  14620.53  437.81  2.99
387.6  15118.95  441.98  2.92
389.0  15624.40  450.24  2.88
390.5  16115.85  451.35  2.80
392.0  16716.40  465.52  2.78
393.4  17288.95  488.72  2.83
394.9  17878.50  501.12  2.80
396.4  18448.88  517.50  2.81
397.9  19039.38  522.75  2.75
399.3  19601.55  541.96  2.76
400.8  20164.33  553.34  2.74
402.2  20842.95  569.56  2.73
403.7  21474.90  582.62  2.71
405.2  22136.13  596.61  2.70
406.6  22736.00  612.48  2.69
408.1  23345.80  623.76  2.67
409.6  23969.40  636.55  2.66
411.0  24659.25  657.58  2.67
412.5  25344.03  674.73  2.66
414.0  26018.88  692.75  2.66
415.4  26771.63  711.53  2.66
416.9  27466.88  732.45  2.67
418.4  28199.25  750.74  2.66
419.8  28919.80  771.68  2.67
421.3  29660.80  791.43  2.67
422.7  30484.80  814.32  2.67
424.2  31303.13  837.00  2.67
425.7  32111.00  863.90  2.69
427.1  32900.18  883.04  2.68
428.6  33712.50  911.40  2.70
430.0  34477.60  931.75  2.70
431.5  35387.18  955.20  2.70
432.9  36302.70  978.62  2.70
434.4  37245.00  1014.21  2.72
435.9  38108.00  1036.00  2.72
437.3  38981.25  1069.75  2.74
438.8  39842.63  1096.86  2.75
440.2  40734.93  1121.12  2.75
441.7  41754.40  1152.40  2.76
443.1  42691.50  1176.60  2.76
444.6  43701.60  1207.82  2.76
446.0  44672.93  1243.01  2.78
447.5  45676.95  1269.24  2.78
448.9  46646.40  1308.06  2.80
450.4  47681.90  1341.62  2.81
451.8  48594.00  1375.40  2.83
453.3  49554.25  1404.26  2.83
454.7  50618.35  1438.71  2.84
456.2  51524.60  1465.33  2.84
457.6  52542.45  1494.77  2.84
459.1  53539.85  1529.71  2.86
460.5  54516.50  1556.85  2.86
462.0  55628.33  1593.25  2.86
463.4  56704.30  1627.56  2.87
464.8  57733.88  1662.23  2.88
466.3  58778.78  1685.81  2.87
467.7  59804.68  1722.78  2.88
469.2  60916.60  1759.38  2.89
470.6  61918.35  1789.97  2.89
472.0  62999.70  1824.12  2.90
473.5  64056.88  1856.03  2.90
474.9  65136.75  1892.40  2.91
476.4  66340.80  1929.60  2.91
477.8  67454.00  1969.10  2.92
479.2  68527.00  2006.80  2.93
480.7  69668.18  2043.87  2.93
482.1  70862.80  2080.80  2.94
483.6  72105.50  2124.15  2.95
485.0  73243.50  2162.57  2.95
486.4  74496.00  2211.60  2.97
487.9  75611.25  2258.10  2.99
489.3  76835.05  2311.83  3.01
490.7  77954.15  2361.89  3.03
492.2  79247.70  2419.62  3.05
493.6  80399.20  2472.92  3.08
495.0  81563.63  2535.98  3.11
496.5  82796.35  2603.35  3.14
497.9  83955.68  2679.66  3.19
499.3  85159.03  2761.84  3.24
500.7  86464.30  2847.96  3.29
502.2  87673.00  2946.28  3.36
503.6  88972.40  3060.16  3.44
505.0  90082.85  3179.05  3.53
506.5  91442.48  3330.29  3.64
507.9  92715.55  3492.77  3.77
509.3  94142.80  3682.24  3.91
510.7  95457.38  3887.33  4.07
512.2  96924.60  4131.17  4.26
513.6  98441.00  4408.32  4.48
515.0  99916.40  4711.32  4.72
516.4  101351.25  5049.14  4.98
517.8  103013.63  5432.48  5.27
519.3  104394.28  5832.68  5.59
520.7  106007.25  6263.49  5.91
522.1  107355.95  6705.21  6.25
523.5  108781.40  7164.06  6.59
524.9  110232.90  7613.91  6.91
526.3  111643.00  8053.22  7.21
527.8  113231.25  8503.11  7.51
529.2  114536.30  8931.06  7.80
530.6  116134.65  9354.93  8.06
532.0  117908.00  9763.60  8.28
533.4  119269.95  10102.52  8.47
534.8  120215.25  10371.05  8.63
536.3  121943.70  10696.68  8.77
537.7  123996.60  11030.04  8.90
539.1  125505.48  11302.03  9.01
540.5  126753.95  11534.26  9.10
541.9  128606.55  11819.75  9.19
543.3  129929.38  12054.21  9.28
544.7  131328.00  12291.48  9.36
546.1  133169.03  12564.86  9.44
547.5  134433.60  12770.24  9.50
549.0  136268.00  13010.80  9.55
550.4  137816.88  13215.38  9.59
551.8  139414.15  13392.01  9.61
553.2  141014.45  13533.70  9.60
554.6  142407.20  13619.84  9.56
556.0  143999.55  13680.63  9.50
557.4  145654.78  13713.67  9.42
558.8  147352.95  13711.68  9.31
560.2  148860.50  13657.65  9.17
561.6  150578.70  13587.95  9.02
563.0  152233.18  13479.23  8.85
564.4  153882.30  13335.20  8.67
565.8  155443.75  13160.13  8.47
567.2  157261.75  12975.25  8.25
568.6  158818.50  12747.68  8.03
570.0  160311.83  12500.53  7.80
571.4  162114.55  12272.13  7.57
572.8  163926.88  12052.83  7.35
574.2  165614.40  11840.64  7.15
575.6  167208.75  11637.00  6.96
577.0  168776.80  11462.72  6.79
578.4  170579.50  11318.13  6.64
579.8  172147.95  11183.54  6.50
581.2  173925.95  11079.59  6.37
582.5  175394.70  10979.28  6.26
583.9  176964.60  10900.84  6.16
585.3  178827.30  10854.14  6.07
586.7  180350.95  10800.86  5.99
588.1  181911.38  10764.58  5.92
589.5  183615.25  10750.60  5.85
590.9  185293.20  10753.28  5.80
592.3  187170.70  10777.94  5.76
593.7  188654.70  10796.57  5.72
595.0  190335.83  10821.74  5.69
596.4  191841.30  10836.56  5.65
597.8  193379.25  10854.87  5.61
599.2  194977.20  10858.32  5.57
600.6  196783.60  10859.88  5.52
602.0  198126.15  10820.55  5.46
603.3  199984.45  10785.80  5.39
604.7  201719.93  10718.47  5.31
606.1  203260.20  10631.52  5.23
607.5  204948.15  10535.66  5.14
608.9  206703.60  10439.15  5.05
610.2  208117.35  10322.24  4.96
611.6  209789.63  10213.73  4.87
613.0  211389.05  10109.22  4.78
614.4  212822.85  10004.58  4.70
615.8  214329.38  9912.83  4.63
617.1  215898.90  9849.00  4.56
618.5  217589.60  9800.56  4.50
619.9  219158.70  9763.94  4.46
621.3  220833.68  9753.53  4.42
622.6  222482.25  9760.00  4.39
624.0  223978.65  9767.49  4.36
625.4  225484.88  9793.74  4.34
626.8  227122.35  9841.65  4.33
628.1  228480.45  9890.76  4.33
629.5  230408.08  9964.58  4.32
630.9  232065.35  10031.45  4.32
632.2  233491.13  10079.76  4.32
633.6  235177.63  10124.30  4.30
635.0  236758.00  10158.32  4.29
636.3  238359.40  10165.48  4.26
637.7  239775.00  10129.63  4.22
639.1  241465.00  10073.00  4.17
640.4  242978.23  9986.38  4.11
641.8  244238.15  9867.92  4.04
643.2  245879.03  9755.13  3.97
644.5  247305.75  9625.05  3.89
645.9  249056.55  9509.13  3.82
647.2  250855.33  9392.53  3.74
648.6  252740.25  9306.90  3.68
650.0  254318.40  9231.84  3.63
651.3  254909.60  9143.70  3.59
652.7  256154.65  9072.48  3.54
654.0  258289.10  9022.60  3.49
655.4  259817.20  8941.47  3.44
656.8  260142.00  8834.84  3.40
658.1  261322.40  8753.12  3.35
659.5  263743.73  8713.95  3.30
660.8  265545.00  8658.00  3.26
662.2  266470.40  8574.72  3.22
663.5  268214.35  8536.61  3.18
664.9  269575.80  8517.34  3.16
666.2  270396.00  8498.16  3.14
667.6  272253.38  8523.69  3.13
668.9  273408.45  8559.50  3.13
670.3  274586.00  8583.05  3.13
671.6  276230.63  8664.15  3.14
673.0  277469.63  8757.08  3.16
674.3  278747.30  8853.26  3.18
675.7  280109.68  8966.87  3.20
677.0  281281.28  9091.92  3.23
678.4  282712.90  9246.10  3.27
679.7  283858.20  9413.49  3.32
681.1  285231.08  9611.46  3.37
682.4  286438.10  9830.08  3.43
683.8  287719.90  10099.70  3.51
685.1  288753.38  10416.45  3.61
686.4  290131.80  10820.28  3.73
687.8  291452.75  11338.60  3.89
689.1  292565.25  11983.85  4.10
690.5  294014.25  12864.66  4.38
691.8  294894.48  13970.46  4.74
693.1  296307.30  15429.18  5.21
694.5  297524.50  17244.50  5.80
695.8  298798.50  19474.00  6.52
697.1  300049.75  22135.75  7.38
698.5  301183.60  25219.70  8.37
699.8  302325.78  28738.30  9.51
701.1  303527.55  32661.07  10.76
702.5  304334.80  36891.80  12.12
703.8  305370.00  41413.50  13.56
705.1  306572.18  46173.08  15.06
706.5  307723.38  51068.70  16.60
707.8  308765.25  56035.92  18.15
709.1  309692.40  61027.62  19.71
710.5  310897.95  66068.61  21.25
711.8  311798.60  71025.50  22.78
713.1  312869.00  75962.72  24.28
714.4  313850.20  80797.36  25.74
715.8  314742.20  85520.50  27.17
717.1  316140.75  90271.65  28.55
718.4  317161.60  94801.28  29.89
719.7  318335.90  99245.11  31.18
721.0  318870.00  103374.00  32.42
722.4  319691.35  107423.69  33.60
723.7  320724.00  111388.17  34.73
725.0  321831.45  115238.48  35.81
726.3  322836.80  118886.30  36.83
727.6  323453.08  122218.75  37.79
729.0  324411.68  125528.13  38.69
730.3  325228.13  128626.86  39.55
731.6  326206.65  131612.38  40.35
732.9  327060.30  134399.16  41.09
734.2  327951.25  137056.98  41.79
735.5  329020.65  139663.22  42.45
736.8  329880.30  142038.84  43.06
738.1  330752.10  144298.64  43.63
739.5  331753.53  146471.49  44.15
740.8  332492.88  148426.19  44.64
742.1  333298.08  150300.02  45.09
743.4  334075.00  152085.00  45.52
744.7  335154.78  153874.64  45.91
746.0  336115.65  155501.97  46.26
747.3  336700.28  156876.65  46.59
748.6  337505.25  158259.50  46.89
749.9  338286.00  159562.00  47.17
751.2  339087.05  160791.12  47.42
752.5  340054.60  162046.32  47.65
753.8  340748.10  163088.70  47.86
755.1  341510.00  164091.20  48.05
756.4  342116.73  164956.84  48.22
757.7  343147.00  165977.81  48.37
759.0  345042.33  167352.22  48.50
760.3  346315.20  168395.04  48.62
761.6  348007.80  169590.96  48.73
762.9  348606.00  170215.60  48.83
764.2  349027.50  170723.54  48.91
765.5  349352.18  171154.73  48.99
766.8  349846.40  171642.88  49.06
768.1  350418.60  172154.20  49.13
769.3  351072.05  172674.25  49.18
770.6  351806.65  173222.92  49.24
771.9  352581.95  173772.13  49.29
773.2  353040.40  174143.12  49.33
774.5  353724.80  174614.44  49.36
775.8  354451.10  175119.50  49.41
777.1  355105.30  175558.79  49.44
778.4  355483.43  175867.34  49.47
779.6  356343.30  176388.15  49.50
780.9  356880.00  176754.00  49.53
782.2  357373.50  177125.85  49.56
783.5  357734.50  177394.10  49.59
784.8  358340.63  177773.94  49.61
786.0  358816.85  178084.55  49.63
787.3  359255.65  178387.71  49.65
788.6  359749.80  178722.84  49.68
789.9  360253.60  179064.20  49.71
791.2  360963.58  179501.28  49.73
792.4  361735.75  179937.98  49.74
793.7  362256.40  180273.16  49.76
795.0  362976.08  180686.39  49.78
796.2  363709.08  181111.86  49.80
797.5  364508.33  181577.03  49.81
798.8  365248.03  182035.76  49.84
800.0  365989.83  182470.49  49.86
801.3  366523.30  182795.96  49.87
802.6  367226.78  183191.63  49.89
803.8  367920.98  183599.89  49.90
805.1  368461.63  183941.10  49.92
806.4  368960.40  184274.46  49.94
807.7  369552.38  184633.83  49.96
808.9  370219.75  184996.92  49.97
810.2  370820.80  185339.21  49.98
811.4  371406.20  185679.04  49.99
812.7  372084.38  186095.00  50.01
814.0  372942.45  186607.02  50.04
815.2  373620.75  187031.65  50.06
816.5  374091.48  187303.62  50.07
817.7  374637.55  187631.58  50.08
819.0  375234.20  187956.01  50.09
820.2  375452.00  188117.60  50.10
821.5  376220.90  188548.02  50.12
822.7  376597.45  188814.86  50.14
824.0  376976.70  189034.56  50.14
825.2  377536.95  189364.64  50.16
826.5  377869.08  189601.12  50.18
827.7  378485.03  189929.27  50.18
829.0  378934.33  190193.17  50.19
830.2  379232.05  190402.28  50.21
831.5  379735.80  190700.39  50.22
832.7  380104.20  190907.64  50.23
834.0  380489.10  191134.22  50.23
835.2  380911.30  191369.59  50.24
836.4  381239.10  191601.19  50.26
837.7  381676.40  191857.16  50.27
838.9  382165.43  192134.65  50.28
840.1  382538.70  192389.85  50.29
841.4  382993.90  192708.92  50.32
842.6  383387.40  192971.08  50.33
843.8  383830.00  193192.48  50.33
845.1  384409.95  193528.48  50.34
846.3  384760.20  193798.46  50.37
847.5  385253.40  194063.94  50.37
848.8  385693.80  194336.28  50.39
850.0  386111.95  194565.84  50.39
851.2  386664.30  194893.02  50.40
852.5  387086.00  195137.64  50.41
853.7  387585.00  195449.85  50.43
854.9  388073.10  195748.54  50.44
856.1  388577.80  196042.99  50.45
857.4  388840.73  196177.03  50.45
858.6  389382.80  196490.03  50.46
859.8  389818.13  196733.63  50.47
861.0  390241.80  197037.36  50.49
862.2  390770.35  197289.99  50.49
863.5  391158.95  197533.12  50.50
864.7  391749.60  197835.00  50.50
865.9  392249.60  198077.24  50.50
867.1  392624.25  198277.10  50.50
868.3  393037.35  198532.14  50.51
869.5  393531.30  198853.59  50.53
870.8  394128.00  199160.10  50.53
872.0  394744.13  199452.11  50.53
873.2  395204.55  199704.51  50.53
874.4  395664.75  199933.11  50.53
875.6  396162.65  200171.43  50.53
876.8  396717.35  200463.64  50.53
878.0  397227.25  200744.69  50.54
879.2  397711.80  201054.39  50.55
880.4  398389.50  201369.00  50.55
881.6  398940.28  201643.72  50.54
882.8  399409.60  201896.16  50.55
884.0  400063.08  202221.89  50.55
885.2  400613.60  202481.76  50.54
886.5  401335.45  202826.78  50.54
887.7  401871.60  203114.41  50.54
888.8  402614.03  203488.49  50.54
890.0  403174.45  203778.29  50.54
891.2  403847.00  204116.08  50.54
892.4  404521.43  204455.79  50.54
893.6  405248.10  204763.02  50.53
894.8  406249.00  205294.55  50.53
896.0  407123.50  205784.95  50.55
897.2  408037.50  206194.95  50.53
898.4  408893.10  206625.54  50.53
899.6  409475.25  206919.00  50.53
900.8  409997.83  207181.21  50.53
902.0  410260.20  207311.88  50.53
903.2  410658.60  207456.39  50.52
904.3  411003.30  207670.62  50.53
905.5  411779.10  208013.28  50.52
906.7  412459.00  208363.30  50.52
907.9  413158.20  208697.86  50.51
909.1  413500.28  208863.77  50.51
910.2  413776.95  208996.44  50.51
911.4  413981.10  209149.20  50.52
912.6  414363.95  209260.48  50.50
913.8  414652.13  209433.21  50.51
915.0  415208.85  209641.11  50.49
916.2  415486.50  209796.60  50.49
917.3  415488.15  209825.37  50.50
918.5  415799.60  209955.38  50.49
919.7  416224.20  210032.73  50.46
920.8  416368.25  210099.69  50.46
922.0  416512.25  210183.05  50.46
923.2  416871.00  210319.20  50.45
924.4  417200.63  210413.03  50.43
925.5  417532.80  210506.12  50.42
926.7  418155.38  210800.43  50.41
927.9  419050.80  211231.68  50.41
929.0  420701.85  211925.43  50.37
930.2  422981.80  213081.96  50.38
931.4  425659.05  214300.49  50.35
932.5  428633.90  215631.97  50.31
933.7  430177.50  216331.49  50.29
934.9  430911.25  216621.13  50.27
936.0  430499.88  216349.58  50.26
937.2  428515.50  215217.36  50.22
938.3  426901.10  214252.87  50.19
939.5  425199.60  213361.20  50.18
940.7  425452.50  213362.28  50.15
941.8  427159.88  214088.67  50.12
943.0  428586.75  214741.50  50.10
944.2  429592.80  215088.64  50.07
945.3  429409.50  214778.85  50.02
946.5  428967.90  214296.30  49.96
947.6  429075.00  214156.10  49.91
948.8  428795.25  213854.36  49.87
949.9  429147.60  213705.24  49.80
951.1  428722.45  213278.39  49.75
952.2  428808.00  212935.20  49.66
953.4  428593.00  212638.50  49.61
954.5  428571.00  212369.04  49.55
955.7  428614.20  211972.32  49.46
956.8  428609.30  211624.48  49.37
958.0  428159.50  211222.40  49.33
959.1  427974.60  210917.44  49.28
960.3  427753.50  210611.11  49.24
961.4  427819.20  210438.26  49.19
962.6  427953.75  210356.65  49.15
963.7  427846.80  210145.40  49.12
964.9  427746.60  210007.52  49.10
966.0  427939.20  209854.80  49.04
967.2  427923.00  209946.42  49.06
968.3  427647.60  209862.09  49.07
969.5  427470.18  209737.17  49.06
970.6  427601.73  209729.84  49.05
971.8  427878.33  209777.16  49.03
972.9  427748.25  209690.31  49.02
974.0  427906.70  209879.60  49.05
975.2  428111.88  209928.33  49.04
976.3  428078.85  209952.24  49.05
977.5  428472.28  209887.13  48.98
978.6  428107.00  209812.44  49.01
979.7  428547.53  209899.10  48.98
980.9  428829.68  209950.68  48.96
982.0  428595.35  210026.12  49.00
983.2  428666.08  210092.36  49.01
984.3  428514.40  210015.56  49.01
985.4  428145.50  210138.44  49.08
986.6  428045.13  210030.75  49.07
987.7  429164.05  210538.23  49.06
988.9  429496.20  210680.64  49.05
990.0  430798.40  211178.54  49.02
993.1  374021.49  182617.13  48.83
996.9  374770.95  183549.50  48.98
1000.7  375953.78  184655.82  49.12
1004.5  376595.00  185495.11  49.26
1008.4  376490.08  185976.20  49.40
1012.2  376581.88  186495.43  49.52
1016.0  376767.60  187040.60  49.64
1019.8  377043.98  187612.43  49.76
1023.7  377140.17  188026.26  49.86
1027.5  376918.53  188243.97  49.94
1031.3  377231.75  188673.08  50.02
1035.1  377074.31  188879.35  50.09
1038.9  377129.13  189122.45  50.15
1042.7  377005.83  189280.92  50.21
1046.5  376896.83  189418.78  50.26
1050.3  376965.70  189617.15  50.30
1054.2  376688.67  189632.53  50.34
1058.0  376218.44  189522.44  50.38
1061.8  376095.50  189597.32  50.41
1065.6  375837.13  189520.35  50.43
1069.4  375900.27  189613.85  50.44
1073.2  375563.48  189437.66  50.44
1077.0  375102.33  189197.54  50.44
1080.8  374643.75  188943.06  50.43
1084.6  373598.87  188380.78  50.42
1088.4  372898.54  187998.66  50.42
1092.2  372060.00  187502.25  50.40
1096.0  371431.27  187073.54  50.37
1099.8  370941.78  186686.65  50.33
1103.6  370268.27  186180.09  50.28
1107.4  369352.38  185527.45  50.23
1111.2  369130.20  185192.97  50.17
1114.9  368480.00  184587.28  50.09
1118.7  367864.20  183941.18  50.00
1122.5  367186.73  183141.11  49.88
1126.3  366045.58  181996.45  49.72
1130.1  365524.58  180897.28  49.49
1133.9  363920.90  178943.10  49.17
1137.7  362498.50  176747.47  48.76
1141.4  360703.42  174117.02  48.27
1145.2  359988.02  171850.05  47.74
1149.0  358884.17  169475.84  47.22
1152.8  357251.60  167128.22  46.78
1156.6  355582.15  165205.21  46.46
1160.3  353806.67  163657.89  46.26
1164.1  351383.33  162129.08  46.14
1167.9  349576.04  161119.79  46.09
1171.7  348279.75  160468.88  46.07
1175.4  347071.10  159909.07  46.07
1179.2  346034.10  159375.90  46.06
1183.0  345746.33  159158.34  46.03
1186.7  345251.67  158847.19  46.01
1190.5  344207.07  158321.92  46.00
1194.3  342966.33  157778.34  46.00
1198.0  341735.90  157279.47  46.02
1201.8  340262.65  156713.93  46.06
1205.6  339020.00  156333.34  46.11
1209.3  338043.90  156149.54  46.19
1213.1  337046.25  156002.20  46.29
1216.8  336034.60  155919.10  46.40
1220.6  334898.67  155786.40  46.52
1224.3  333624.33  155572.20  46.63
1228.1  332341.40  155387.53  46.76
1231.9  331092.08  155142.53  46.86
1235.6  329606.93  154747.78  46.95
1239.4  328247.00  154401.25  47.04
1243.1  327003.83  154042.47  47.11
1246.9  325776.37  153665.01  47.17
1250.6  324808.53  153359.89  47.22
1254.3  323739.81  152968.05  47.25
1258.1  322737.33  152577.95  47.28
1261.8  321439.07  152000.76  47.29
1265.6  320022.40  151333.62  47.29
1269.3  318579.28  150609.93  47.28
1273.1  318531.23  150499.18  47.25
1276.8  318783.20  150475.47  47.20
1280.6  318626.27  150207.81  47.14
1284.3  317274.40  149316.54  47.06
1288.0  315802.97  148329.73  46.97
1291.8  314487.39  147338.99  46.85
1295.5  313067.33  146237.91  46.71
1299.2  311755.61  145110.51  46.55
1302.9  310293.67  143799.58  46.34
1306.7  308719.60  142329.21  46.10
1310.4  307211.35  140749.99  45.82
1314.1  305824.57  139110.77  45.49
1317.9  304577.29  137371.81  45.10
1321.6  303149.71  135423.58  44.67
1325.3  301485.45  133208.60  44.18
1329.0  300118.82  131029.11  43.66
1332.8  298020.80  128405.20  43.09
1336.5  296188.60  125843.14  42.49
1340.2  295810.67  123881.34  41.88
1343.9  295330.63  121869.45  41.27
1347.6  294646.95  119799.30  40.66
1351.4  294825.50  118125.50  40.07
1355.1  295167.77  116552.46  39.49
1358.8  295296.00  114853.33  38.89
1362.5  294789.38  112772.10  38.26
1366.2  293041.75  109965.35  37.53
1369.9  291147.50  106785.84  36.68
1373.6  289118.61  103043.99  35.64
1377.3  287249.40  98675.40  34.35
1381.0  286036.83  93664.28  32.75
1384.8  284001.25  87457.50  30.79
1388.4  281578.38  80657.23  28.64
1392.2  279673.08  73699.20  26.35
1395.9  278081.83  66824.25  24.03
1399.6  276428.50  60387.04  21.85
1403.3  275219.29  54791.73  19.91
1407.0  274074.90  50072.54  18.27
1410.7  272901.75  46303.95  16.97
1414.3  271685.58  43406.69  15.98
1418.1  270494.29  41312.99  15.27
1421.7  269583.77  39857.65  14.78
1425.4  268641.43  38890.15  14.48
1429.1  267771.00  38309.38  14.31
1432.8  266256.00  37925.05  14.24
1436.5  265450.93  37865.82  14.26
1440.2  264586.63  37941.16  14.34
1443.9  263280.88  38047.53  14.45
1447.6  261646.00  38156.07  14.58
1451.2  260554.98  38371.36  14.73
1454.9  259261.95  38582.00  14.88
1458.6  258173.14  38901.29  15.07
1462.3  256994.83  39327.20  15.30
1466.0  255618.28  39894.70  15.61
1469.7  253926.08  40572.17  15.98
1473.3  252908.33  41508.61  16.41
1477.0  250989.03  42400.02  16.89
1480.7  249399.52  43409.30  17.41
1484.4  247483.10  44372.42  17.93
1488.0  245930.67  45417.78  18.47
1491.7  244308.28  46435.55  19.01
1495.4  242556.39  47431.05  19.55
1499.0  240961.00  48410.67  20.09
1502.7  239633.83  49444.36  20.63
1506.4  238204.75  50416.89  21.17
1510.0  236777.03  51341.68  21.68
1513.7  235298.00  52212.23  22.19
1517.4  233963.00  53081.11  22.69
1521.0  232717.87  53928.00  23.17
1524.7  231501.83  54713.75  23.63
1528.3  230209.25  55445.34  24.08
1532.0  228986.45  56132.58  24.51
1535.7  227581.53  56734.31  24.93
1539.3  226320.96  57331.81  25.33
1543.0  225324.04  57966.49  25.73
1546.6  224629.17  58638.31  26.10
1550.3  223647.90  59192.65  26.47
1553.9  222568.67  59683.77  26.82
1557.6  221303.13  60085.18  27.15
1561.2  220033.35  60436.05  27.47
1564.9  218698.36  60750.32  27.78
1568.5  217371.35  61026.51  28.07
1572.2  216229.50  61318.88  28.36
1575.8  215124.00  61628.00  28.65
1579.5  214121.00  61923.35  28.92
1583.1  213131.30  62211.98  29.19
1586.8  211890.00  62407.34  29.45
1590.4  210836.80  62635.45  29.71
1594.0  209511.58  62769.74  29.96
1597.7  208353.78  62946.93  30.21
1601.3  207040.05  63050.40  30.45
1604.9  205738.33  63125.97  30.68
1608.6  204380.40  63158.06  30.90
1612.2  203306.40  63234.05  31.10
1615.8  202148.38  63264.83  31.30
1619.5  201026.25  63265.17  31.47
1623.1  199737.30  63189.86  31.64
1626.7  198486.93  63092.47  31.79
1630.3  197254.83  62977.56  31.93
1634.0  196140.00  62864.67  32.05
1637.6  195132.80  62746.71  32.16
1641.2  194100.75  62555.29  32.23
1644.8  192875.03  62227.16  32.26
1648.5  191787.58  61895.30  32.27
1652.1  190815.30  61532.40  32.25
1655.7  189854.00  61121.53  32.19
1659.3  188971.28  60710.94  32.13
1662.9  187524.17  60109.17  32.05
1666.6  186059.80  59530.14  32.00
1670.2  184628.09  58951.28  31.93
1673.8  183164.91  58359.24  31.86
1677.4  182003.70  57848.54  31.78
1681.0  181187.48  57421.31  31.69
1684.6  180801.83  57075.06  31.57
1688.2  180129.50  56576.42  31.41
1691.8  179457.75  56076.42  31.25
1695.4  179019.40  55616.67  31.07
1699.0  178656.80  55163.66  30.88
1702.6  178335.33  54686.45  30.66
1706.2  177726.79  54108.10  30.44
1709.8  176794.88  53429.36  30.22
1713.4  176059.63  52809.13  30.00
1717.0  175200.50  52156.00  29.77
1720.6  174404.10  51545.05  29.55
1724.2  173697.15  50978.83  29.35
1727.8  172984.70  50457.64  29.17
1731.4  172500.63  50028.46  29.00
1735.0  172283.10  49702.71  28.85
1738.6  172004.85  49331.85  28.68
1742.2  171367.08  48820.24  28.49
1745.8  170681.98  48245.82  28.27
1749.4  169666.20  47563.18  28.03
1753.0  168148.33  46729.45  27.79
1756.6  166455.33  45859.73  27.55
1760.1  165086.21  45113.74  27.33
1763.7  163376.67  44292.89  27.11
1767.3  161947.60  43597.78  26.92
1770.9  160707.34  42973.14  26.74
1774.5  159253.45  42327.12  26.58
1778.0  158084.48  41772.02  26.42
1781.6  156984.30  41278.70  26.29
1785.2  155824.28  40787.87  26.18
1788.8  154654.20  40347.20  26.09
1792.3  153430.13  39921.49  26.02
1795.9  152933.73  39710.31  25.97
1799.5  152421.00  39527.00  25.93
1803.1  151768.52  39319.24  25.91
1806.6  152195.40  39398.10  25.89
1810.2  153250.30  39635.09  25.86
1813.8  154144.80  39814.42  25.83
1817.3  154140.20  39762.27  25.80
1820.9  153346.95  39503.03  25.76
1824.5  152166.85  39129.12  25.71
1828.0  151312.33  38798.38  25.64
1831.6  150561.75  38458.66  25.54
1835.2  149869.17  38080.00  25.41
1838.7  149504.40  37694.62  25.21
1842.3  149145.00  37225.00  24.96
1845.8  148375.04  36526.70  24.62
1849.4  147863.63  35736.93  24.17
1852.9  147238.82  34741.45  23.60
1856.5  146355.45  33452.83  22.86
1860.0  145587.12  31937.46  21.94
1863.6  145315.03  30293.38  20.85
1867.1  145174.75  28400.40  19.56
1870.7  145148.13  26165.61  18.03
1874.2  144408.15  23486.85  16.26
1877.8  143172.07  20664.20  14.43
1881.3  141699.00  17836.54  12.59
1884.9  140729.97  15267.03  10.85
1888.4  139717.45  12939.03  9.26
1891.9  138676.93  11010.47  7.94
1895.5  137574.42  9511.88  6.91
1899.0  136986.63  8474.09  6.19
1901.3  168067.67  6913.00  4.11
1904.1  167990.25  6304.88  3.75
1906.8  167254.20  5851.50  3.50
1909.6  165550.70  5491.85  3.32
1912.4  163960.77  5236.59  3.19
1915.1  162800.00  5056.98  3.11
1917.9  161477.00  4934.33  3.06
1920.6  160410.43  4849.17  3.02
1923.3  159371.33  4804.34  3.01
1926.1  158063.93  4763.40  3.01
1928.8  156874.67  4766.67  3.04
1931.6  155921.08  4787.48  3.07
1934.3  155021.00  4849.28  3.13
1937.0  154152.23  4905.57  3.18
1939.8  153201.17  4975.05  3.25
1942.5  151976.00  5032.50  3.31
1945.2  150344.15  5094.38  3.39
1947.9  148995.00  5187.23  3.48
1950.7  147945.47  5288.65  3.57
1953.4  146248.70  5386.20  3.68
1956.1  144922.50  5508.75  3.80
1958.8  143746.85  5631.93  3.92
1961.5  142296.40  5763.80  4.05
1964.2  140804.30  5901.35  4.19
1966.9  139252.35  6040.88  4.34
1969.6  138024.00  6201.00  4.49
1972.3  136641.70  6359.05  4.65
1975.0  135617.40  6535.73  4.82
1977.7  134515.88  6722.71  5.00
1980.4  133384.83  6908.13  5.18
1983.1  132284.13  7104.09  5.37
1985.8  131370.00  7316.70  5.57
1988.4  130346.67  7518.34  5.77
1991.1  129430.93  7722.52  5.97
1993.8  128560.67  7927.34  6.17
1996.5  127923.03  8159.98  6.38
1999.1  127242.32  8388.33  6.59
2001.8  126547.40  8607.44  6.80
2004.5  125866.15  8827.33  7.01
2007.1  125130.90  9030.60  7.22
2009.8  124389.07  9224.72  7.42
2012.4  123804.27  9422.33  7.61
2015.1  123240.83  9626.17  7.81
2017.8  122463.83  9785.89  7.99
2020.4  121943.07  9973.80  8.18
2023.1  121574.60  10148.48  8.35
2025.7  121342.00  10330.67  8.51
2028.3  121021.33  10491.00  8.67
2031.0  120620.18  10637.08  8.82
2033.6  120338.40  10774.95  8.95
2036.2  120094.80  10905.45  9.08
2038.9  119494.50  10996.80  9.20
2041.5  119148.12  11100.68  9.32
2044.1  118572.30  11162.10  9.41
2046.8  118206.90  11249.10  9.52
2049.4  117589.20  11310.00  9.62
2052.0  117314.87  11388.27  9.71
2054.6  116926.25  11458.13  9.80
2057.2  116362.93  11519.27  9.90
2059.8  116022.33  11615.33  10.01
2062.4  115138.45  11649.83  10.12
2065.0  114607.53  11711.40  10.22
2067.6  113708.92  11728.28  10.31
2070.2  113098.75  11776.22  10.41
2072.8  112462.43  11828.52  10.52
2075.4  112026.25  11891.25  10.61
2078.0  111416.58  11932.16  10.71
2080.6  110844.80  11981.20  10.81
2083.2  110161.93  12014.72  10.91
2085.8  109659.92  12059.52  11.00
2088.4  108994.50  12084.00  11.09
2090.9  108189.32  12092.06  11.18
2093.5  107295.23  12089.23  11.27
2096.1  106533.05  12094.65  11.35
2098.7  105768.90  12099.05  11.44
2101.2  104808.73  12073.84  11.52
2103.8  104118.80  12091.30  11.61
2106.4  103455.07  12104.40  11.70
2108.9  102817.53  12113.14  11.78
2111.5  101961.67  12095.67  11.86
2114.0  101315.40  12108.77  11.95
2116.6  100791.25  12127.50  12.03
2119.1  100238.07  12141.84  12.11
2121.7  99750.00  12153.75  12.18
2124.2  99352.63  12176.90  12.26
2126.8  98566.57  12134.18  12.31
2129.3  98172.80  12144.00  12.37
2131.9  97574.40  12126.40  12.43
2134.4  97146.45  12137.78  12.49
2136.9  96748.38  12143.52  12.55
2139.4  96229.93  12120.74  12.60
2142.0  95777.73  12120.73  12.66
2144.5  95505.90  12144.05  12.72
2147.0  95274.00  12176.14  12.78
2149.5  94782.67  12171.67  12.84
2152.1  94612.47  12203.86  12.90
2154.6  94538.13  12249.07  12.96
2157.1  94012.50  12235.25  13.01
2159.6  93585.58  12226.17  13.06
2162.1  93411.50  12239.50  13.10
2164.6  93169.13  12252.37  13.15
2167.1  92852.68  12264.34  13.21
2169.6  92526.12  12262.78  13.25
2172.1  92065.57  12243.40  13.30
2174.6  91749.27  12250.54  13.35
2177.1  91310.87  12249.36  13.42
2179.5  90874.77  12237.45  13.47
2182.0  90405.15  12225.13  13.52
2184.5  89864.18  12207.72  13.58
2187.0  89258.20  12178.44  13.64
2189.5  88574.33  12143.41  13.71
2191.9  87799.00  12084.00  13.76
2194.4  87172.40  12061.65  13.84
2196.9  86438.40  12004.80  13.89
2199.3  85772.33  11957.67  13.94
2201.8  84874.67  11874.67  13.99
2204.3  84413.52  11853.63  14.04
2206.7  83784.10  11790.45  14.07
2209.2  83316.50  11766.11  14.12
2211.6  82694.70  11701.80  14.15
2214.1  82386.00  11671.35  14.17
2216.5  81820.87  11597.17  14.17
2219.0  81473.20  11552.47  14.18
2221.4  81088.58  11503.34  14.19
2223.9  80612.58  11414.09  14.16
2226.3  80116.75  11305.00  14.11
2228.7  79570.72  11173.11  14.04
2231.1  78972.30  11023.65  13.96
2233.6  78383.93  10867.07  13.86
2236.0  77826.00  10700.09  13.75
2238.4  77330.17  10536.46  13.63
2240.9  76903.87  10360.47  13.47
2243.3  76367.47  10176.70  13.33
2245.7  75789.15  9989.80  13.18
2248.1  75308.13  9797.24  13.01
2250.5  74815.10  9613.95  12.85
2252.9  74181.90  9413.52  12.69
2255.3  73610.10  9208.73  12.51
2257.7  73150.00  9030.00  12.34
2260.1  72681.47  8849.40  12.18
2262.5  72090.00  8670.00  12.03
2264.9  71550.55  8510.79  11.89
2267.3  70930.00  8340.00  11.76
2269.7  70434.00  8192.22  11.63
2272.1  69896.30  8038.38  11.50
2274.5  69324.27  7901.81  11.40
2276.8  68854.57  7777.95  11.30
2279.2  68259.60  7643.03  11.20
2281.6  67849.33  7529.87  11.10
2284.0  67387.20  7408.35  10.99
2286.3  66920.53  7301.07  10.91
2288.7  66507.35  7189.44  10.81
2291.1  65964.07  7055.89  10.70
2293.4  65521.87  6940.27  10.59
2295.8  64890.00  6798.00  10.48
2298.2  64294.20  6660.23  10.36
2300.5  63642.15  6530.85  10.26
2302.9  62888.67  6396.33  10.17
2305.2  62170.80  6267.55  10.08
2307.6  61497.65  6133.26  9.97
2309.9  60729.00  6019.17  9.91
2312.2  60140.00  5921.00  9.85
2314.6  59533.20  5821.88  9.78
2316.9  58819.05  5713.20  9.71
2319.2  58250.30  5613.55  9.64
2321.6  57627.50  5518.74  9.58
2323.9  57052.08  5421.88  9.50
2326.2  56506.93  5321.00  9.42
2328.6  55980.65  5235.45  9.35
2330.9  55482.00  5139.75  9.26
2333.2  55022.75  5042.96  9.17
2335.5  54570.00  4954.10  9.08
2337.8  54121.55  4874.07  9.01
2340.1  53539.25  4782.41  8.93
2342.4  53105.00  4690.84  8.83
2344.8  52672.92  4612.29  8.76
2347.1  52102.63  4518.27  8.67
2349.4  51569.02  4439.72  8.61
2351.6  50996.15  4351.59  8.53
2353.9  50488.53  4269.90  8.46
2356.2  49958.30  4196.54  8.40
2358.5  49358.40  4116.00  8.34
2360.8  48787.20  4037.60  8.28
2363.1  48332.62  3953.88  8.18
2365.4  47866.80  3881.55  8.11
2367.7  47401.20  3807.60  8.03
2369.9  46864.85  3726.98  7.95
2372.2  46233.60  3646.40  7.89
2374.5  45634.05  3568.95  7.82
2376.7  45014.58  3485.00  7.74
2379.0  44392.80  3396.94  7.65
2381.3  43773.33  3313.34  7.57
2383.5  43249.07  3244.27  7.50
2385.8  42618.87  3153.47  7.40
2388.0  42114.20  3073.90  7.30
2390.3  41616.40  3008.20  7.23
2392.5  41124.00  2928.00  7.12
2394.8  40656.00  2867.70  7.05
2397.0  40173.47  2790.67  6.95
2399.3  39705.48  2716.89  6.84
2401.5  39249.00  2639.88  6.73
2403.8  38723.60  2574.18  6.65
2406.0  38218.50  2514.38  6.58
2408.2  37811.40  2443.47  6.46
2410.4  37375.10  2384.32  6.38
2412.7  36946.00  2318.55  6.28
2414.9  36583.80  2258.03  6.17
2417.1  36169.60  2203.45  6.09
2419.3  35763.20  2144.00  5.99
2421.6  35365.83  2086.04  5.90
2423.8  35010.00  2022.80  5.78
2426.0  34639.53  1966.98  5.68
2428.2  34286.93  1927.33  5.62
2430.4  33969.97  1872.52  5.51
2432.6  33693.33  1833.34  5.44
2434.8  33363.20  1777.77  5.33
2437.0  33005.70  1732.90  5.25
2439.2  32656.27  1689.59  5.17
2441.4  32338.27  1642.82  5.08
2443.6  32068.48  1602.74  5.00
2445.7  31792.83  1568.82  4.93
2447.9  31507.33  1523.88  4.84
2450.1  31219.10  1489.30  4.77
2452.3  30830.80  1446.96  4.69
2454.5  30479.98  1404.15  4.61
2456.6  30102.67  1355.33  4.50
2458.8  29729.70  1322.75  4.45
2461.0  29438.83  1297.50  4.41
2463.1  29129.10  1273.13  4.37
2465.3  28856.93  1229.20  4.26
2467.5  28585.50  1187.38  4.15
2469.6  28326.75  1163.50  4.11
2471.8  28036.12  1141.27  4.07
2473.9  27738.25  1123.71  4.05
2476.1  27360.67  1084.42  3.96
2478.2  26993.47  1051.10  3.89
2480.4  26693.65  1028.45  3.85
2482.5  26368.12  1014.16  3.85
2484.6  26024.17  1012.92  3.89
2486.8  25732.30  989.10  3.84
2488.9  25426.95  962.79  3.79
2491.1  25069.33  936.14  3.73
2493.2  24668.50  934.05  3.79
2495.3  24242.40  897.87  3.70
2497.4  23892.40  853.30  3.57
2499.5  23595.30  841.53  3.57
2501.7  23450.37  846.32  3.61
2503.8  23353.18  835.84  3.58
2505.9  23284.58  837.09  3.60
2508.0  23262.13  823.28  3.54
2510.1  23266.22  822.64  3.54
2512.2  23359.55  825.75  3.53
2514.3  23482.38  825.78  3.52
2516.4  23679.40  807.70  3.41
