/*** Spectra Vista SIG Data ***/
name= 7_20221020_QUPH_06_avg.sig
comm= Averaged Ref/Tar of files: HR.102022.0020_moc.sig,HR.102022.0021_moc.sig
data=
337.3  3027.13  267.98  8.85
338.8  3174.60  278.98  8.79
340.3  3279.50  271.73  8.29
341.8  3429.38  265.21  7.73
343.2  3640.80  275.28  7.56
344.7  3795.85  264.43  6.97
346.2  4003.30  253.27  6.33
347.7  4168.45  259.55  6.23
349.2  4347.00  264.60  6.09
350.6  4590.63  271.77  5.92
352.1  4858.60  271.51  5.59
353.6  5100.90  270.66  5.31
355.1  5354.33  276.14  5.16
356.6  5670.08  288.42  5.09
358.0  5933.40  299.86  5.05
359.5  6210.90  309.00  4.98
361.0  6523.65  305.24  4.68
362.5  6850.35  310.32  4.53
364.0  7168.75  326.90  4.56
365.4  7530.80  331.58  4.40
366.9  7900.75  337.03  4.27
368.4  8237.05  354.58  4.30
369.9  8593.95  378.35  4.40
371.3  8997.90  400.50  4.45
372.8  9398.70  408.87  4.35
374.3  9809.38  408.50  4.16
375.8  10214.05  415.03  4.06
377.2  10598.60  430.40  4.06
378.7  11002.10  435.78  3.96
380.2  11405.60  451.92  3.96
381.7  11891.00  464.83  3.91
383.1  12343.10  485.10  3.93
384.6  12786.15  496.34  3.88
386.1  13269.28  508.07  3.83
387.6  13690.60  528.22  3.86
389.0  14150.40  530.64  3.75
390.5  14629.05  546.93  3.74
392.0  15182.30  576.61  3.80
393.4  15712.45  593.82  3.78
394.9  16208.10  615.96  3.80
396.4  16741.13  641.70  3.83
397.9  17296.88  656.00  3.79
399.3  17828.80  673.65  3.78
400.8  18369.73  697.90  3.80
402.2  18977.15  726.68  3.83
403.7  19548.90  755.96  3.87
405.2  20147.43  786.01  3.90
406.6  20694.40  812.00  3.92
408.1  21266.60  836.20  3.93
409.6  21840.25  851.66  3.90
411.0  22481.55  888.16  3.95
412.5  23136.58  924.63  4.00
414.0  23777.63  961.70  4.04
415.4  24466.13  993.75  4.06
416.9  25096.05  1029.29  4.10
418.4  25771.50  1057.01  4.10
419.8  26481.00  1088.36  4.11
421.3  27183.13  1126.54  4.14
422.7  27944.40  1165.80  4.17
424.2  28687.50  1208.25  4.21
425.7  29437.80  1238.80  4.21
427.1  30178.28  1275.50  4.23
428.6  30953.50  1308.20  4.23
430.0  31670.23  1341.47  4.24
431.5  32521.58  1388.03  4.27
432.9  33372.70  1423.98  4.27
434.4  34236.75  1466.88  4.28
435.9  35056.00  1500.80  4.28
437.3  35887.50  1540.00  4.29
438.8  36706.80  1580.13  4.30
440.2  37568.30  1625.09  4.33
441.7  38511.60  1672.32  4.34
443.1  39405.50  1722.50  4.37
444.6  40334.90  1773.74  4.40
446.0  41260.50  1821.69  4.42
447.5  42200.13  1881.88  4.46
448.9  43111.80  1929.84  4.48
450.4  44107.70  1991.71  4.52
451.8  44967.00  2041.00  4.54
453.3  45867.10  2097.23  4.57
454.7  46850.30  2158.07  4.61
456.2  47689.35  2200.64  4.61
457.6  48652.88  2256.75  4.64
459.1  49622.30  2305.23  4.65
460.5  50544.13  2351.33  4.65
462.0  51597.88  2404.75  4.66
463.4  52608.00  2449.56  4.66
464.8  53585.25  2497.50  4.66
466.3  54529.20  2546.94  4.67
467.7  55483.65  2595.43  4.68
469.2  56539.28  2643.29  4.68
470.6  57520.70  2694.79  4.68
472.0  58552.00  2747.44  4.69
473.5  59565.13  2799.58  4.70
474.9  60576.75  2852.85  4.71
476.4  61718.40  2914.56  4.72
477.8  62756.00  2972.50  4.74
479.2  63742.00  3030.50  4.75
480.7  64819.05  3083.18  4.76
482.1  65935.35  3147.21  4.77
483.6  67105.80  3216.57  4.79
485.0  68162.78  3277.14  4.81
486.4  69330.75  3349.41  4.83
487.9  70390.13  3416.40  4.85
489.3  71519.33  3501.61  4.90
490.7  72579.53  3578.18  4.93
492.2  73794.00  3672.06  4.98
493.6  74876.15  3762.12  5.02
495.0  75962.25  3869.78  5.09
496.5  77117.13  3979.86  5.16
497.9  78217.75  4103.13  5.25
499.3  79362.40  4232.27  5.33
500.7  80604.30  4389.14  5.45
502.2  81760.00  4552.28  5.57
503.6  83001.00  4733.32  5.70
505.0  84061.70  4919.47  5.85
506.5  85340.40  5150.57  6.04
507.9  86503.88  5399.27  6.24
509.3  87823.20  5680.24  6.47
510.7  89051.63  5975.78  6.71
512.2  90439.80  6311.10  6.98
513.6  91897.40  6678.49  7.27
515.0  93316.00  7075.52  7.58
516.4  94689.00  7504.25  7.93
517.8  96304.25  7980.63  8.29
519.3  97610.13  8456.26  8.66
520.7  99164.90  8975.14  9.05
522.1  100424.35  9477.85  9.44
523.5  101761.90  9999.66  9.83
524.9  103216.05  10529.46  10.20
526.3  104611.50  11035.15  10.55
527.8  106088.40  11538.45  10.88
529.2  107160.80  12000.46  11.20
530.6  108707.35  12484.80  11.48
532.0  110362.00  12950.00  11.73
533.4  111640.80  13349.66  11.96
534.8  112531.53  13664.07  12.14
536.3  114087.60  14035.20  12.30
537.7  115983.00  14434.56  12.45
539.1  117383.30  14753.03  12.57
540.5  118559.95  15031.17  12.68
541.9  120281.63  15371.09  12.78
543.3  121583.80  15651.72  12.87
544.7  122892.00  15941.76  12.97
546.1  124667.68  16290.12  13.07
547.5  125876.80  16558.08  13.15
549.0  127523.00  16869.60  13.23
550.4  129008.75  17146.63  13.29
551.8  130552.10  17408.35  13.33
553.2  132037.38  17627.33  13.35
554.6  133359.20  17786.08  13.34
556.0  134839.80  17915.85  13.29
557.4  136413.90  18015.06  13.21
558.8  138048.30  18079.38  13.10
560.2  139491.88  18077.40  12.96
561.6  141133.65  18070.70  12.80
563.0  142700.93  18017.00  12.63
564.4  144292.35  17939.22  12.43
565.8  145785.63  17822.38  12.23
567.2  147522.25  17698.80  12.00
568.6  148987.50  17521.80  11.76
570.0  150390.43  17314.16  11.51
571.4  152103.25  17123.08  11.26
572.8  153825.38  16938.93  11.01
574.2  155433.60  16746.24  10.77
575.6  156960.00  16569.00  10.56
577.0  158482.50  16409.86  10.35
578.4  160171.38  16293.55  10.17
579.8  161682.75  16179.75  10.01
581.2  163369.55  16100.83  9.86
582.5  164794.50  16010.28  9.72
583.9  166285.60  15948.88  9.59
585.3  168059.03  15924.65  9.48
586.7  169528.45  15882.62  9.37
588.1  170986.75  15861.93  9.28
589.5  172614.75  15868.65  9.19
590.9  174220.00  15894.32  9.12
592.3  176001.20  15951.05  9.06
593.7  177450.00  15990.78  9.01
595.0  179037.00  16049.21  8.96
596.4  180471.20  16107.21  8.93
597.8  181938.63  16160.70  8.88
599.2  183466.80  16214.88  8.84
600.6  185177.53  16272.49  8.79
602.0  186459.83  16276.47  8.73
603.3  188223.05  16300.65  8.66
604.7  189863.70  16281.46  8.58
606.1  191337.00  16228.80  8.48
607.5  192944.80  16166.93  8.38
608.9  194634.65  16095.68  8.27
610.2  195983.55  15980.90  8.15
611.6  197570.40  15883.56  8.04
613.0  199121.00  15782.29  7.93
614.4  200484.45  15664.53  7.81
615.8  201927.38  15563.93  7.71
617.1  203448.00  15490.86  7.61
618.5  205054.00  15430.48  7.53
619.9  206547.08  15390.66  7.45
621.3  208155.60  15382.53  7.39
622.6  209718.00  15390.30  7.34
624.0  211186.05  15409.83  7.30
625.4  212631.38  15452.42  7.27
626.8  214159.40  15514.14  7.24
628.1  215435.55  15576.00  7.23
629.5  217204.60  15685.53  7.22
630.9  218695.68  15765.15  7.21
632.2  219962.05  15817.31  7.19
633.6  221477.63  15874.88  7.17
635.0  222912.00  15889.36  7.13
636.3  224398.30  15860.64  7.07
637.7  225753.38  15779.98  6.99
639.1  227360.00  15680.00  6.90
640.4  228820.55  15529.26  6.79
641.8  230031.63  15336.63  6.67
643.2  231585.20  15151.82  6.54
644.5  232924.75  14935.80  6.41
645.9  234462.60  14748.93  6.29
647.2  235461.80  14550.41  6.18
648.6  236904.75  14405.85  6.08
650.0  238226.40  14290.56  6.00
651.3  239274.48  14188.02  5.93
652.7  241471.80  14157.31  5.86
654.0  243564.40  14115.56  5.80
655.4  244899.58  14024.85  5.73
656.8  245046.50  13860.62  5.66
658.1  246408.50  13738.04  5.58
659.5  248618.48  13630.79  5.48
660.8  249907.50  13459.50  5.39
662.2  250880.00  13265.28  5.29
663.5  252332.80  13108.37  5.19
664.9  253354.40  12941.76  5.11
666.2  254123.40  12800.52  5.04
667.6  255799.85  12729.72  4.98
668.9  256694.90  12668.06  4.94
670.3  258543.13  12664.25  4.90
671.6  259548.38  12659.93  4.88
673.0  260743.13  12690.90  4.87
674.3  262017.60  12760.54  4.87
675.7  263354.75  12860.90  4.88
677.0  264432.15  12985.94  4.91
678.4  265731.63  13148.93  4.95
679.7  266788.83  13325.13  4.99
681.1  268100.88  13567.30  5.06
682.4  269244.30  13856.70  5.15
683.8  270459.80  14236.82  5.26
685.1  271473.75  14704.28  5.42
686.4  272793.60  15326.88  5.62
687.8  274053.25  16113.45  5.88
689.1  275121.25  17096.90  6.21
690.5  276514.20  18340.41  6.63
691.8  277319.03  19863.41  7.16
693.1  278685.60  21757.59  7.81
694.5  279870.50  23996.70  8.57
695.8  281144.50  26581.10  9.45
697.1  282350.25  29474.90  10.44
698.5  283409.50  32674.38  11.53
699.8  284480.55  36134.88  12.70
701.1  285659.65  39835.44  13.95
702.5  286452.65  43638.76  15.23
703.8  287392.50  47583.00  16.56
705.1  288564.90  51635.81  17.89
706.5  289599.63  55718.23  19.24
707.8  290572.35  59813.07  20.58
709.1  291385.90  63903.08  21.93
710.5  292524.48  68064.46  23.27
711.8  293356.50  72180.64  24.61
713.1  294337.70  76350.74  25.94
714.4  295252.00  80503.00  27.27
715.8  296077.10  84646.34  28.59
717.1  297366.75  88908.30  29.90
718.4  298345.60  93058.56  31.19
719.7  299434.43  97222.36  32.47
721.0  299947.50  101160.00  33.73
722.4  300681.70  105128.10  34.96
723.7  301652.70  109095.99  36.17
725.0  302674.28  112997.79  37.33
726.3  303618.15  116768.14  38.46
727.6  304143.13  120264.93  39.54
729.0  305040.05  123762.91  40.57
730.3  305841.08  127093.40  41.56
731.6  306714.35  130306.72  42.48
732.9  307486.03  133337.82  43.36
734.2  308316.25  136229.50  44.18
735.5  309306.70  139060.98  44.96
736.8  310090.80  141654.90  45.68
738.1  310915.10  144117.00  46.35
739.5  311857.50  146490.83  46.97
740.8  312545.75  148592.62  47.54
742.1  313230.33  150582.45  48.07
743.4  313900.00  152420.00  48.56
744.7  314788.20  154262.33  49.01
746.0  315658.20  155968.41  49.41
747.3  316254.75  157422.89  49.78
748.6  316982.50  158841.45  50.11
749.9  317668.00  160123.60  50.41
751.2  318271.65  161298.43  50.68
752.5  319030.00  162480.41  50.93
753.8  319575.20  163453.75  51.15
755.1  320216.00  164418.80  51.35
756.4  320765.28  165268.54  51.52
757.7  321739.43  166264.63  51.68
759.0  323485.38  167598.73  51.81
760.3  324640.80  168564.00  51.92
761.6  326142.60  169697.36  52.03
762.9  326644.25  170258.40  52.12
764.2  326996.40  170707.40  52.20
765.5  327218.70  171068.25  52.28
766.8  327596.80  171468.80  52.34
768.1  328115.00  171907.60  52.39
769.3  328675.55  172359.04  52.44
770.6  329278.95  172842.80  52.49
771.9  329957.43  173304.43  52.52
773.2  330292.00  173597.84  52.56
774.5  330844.80  173990.96  52.59
775.8  331486.50  174421.33  52.62
777.1  331989.35  174777.57  52.65
778.4  332296.53  175008.13  52.67
779.6  333009.18  175466.68  52.69
780.9  333420.00  175746.00  52.71
782.2  333839.00  176036.85  52.73
783.5  334097.00  176235.10  52.75
784.8  334574.55  176534.78  52.76
786.0  334924.80  176776.25  52.78
787.3  335240.23  177009.11  52.80
788.6  335626.45  177252.52  52.81
789.9  336007.00  177505.72  52.83
791.2  336630.05  177859.50  52.84
792.4  337235.33  178229.88  52.85
793.7  337674.00  178502.96  52.86
795.0  338216.18  178853.07  52.88
796.2  338827.50  179202.10  52.89
797.5  339436.88  179569.92  52.90
798.8  340026.93  179929.30  52.92
800.0  340660.58  180287.18  52.92
801.3  341036.70  180543.32  52.94
802.6  341590.95  180859.10  52.95
803.8  342233.05  181213.26  52.95
805.1  342613.25  181465.38  52.97
806.4  343014.30  181714.14  52.98
807.7  343504.80  182025.23  52.99
808.9  344006.40  182324.95  53.00
810.2  344440.95  182594.44  53.01
811.4  344900.10  182872.04  53.02
812.7  345475.00  183210.63  53.03
814.0  346277.25  183660.68  53.04
815.2  346859.00  184017.30  53.05
816.5  347246.85  184268.27  53.07
817.7  347684.90  184537.81  53.08
819.0  348164.85  184818.92  53.08
820.2  348304.00  184923.20  53.09
821.5  348939.75  185306.43  53.11
822.7  349251.35  185527.90  53.12
824.0  349574.40  185738.94  53.13
825.2  350011.13  186001.92  53.14
826.5  350355.03  186206.77  53.15
827.7  350870.65  186519.50  53.16
829.0  351209.80  186733.69  53.17
830.2  351540.05  186921.00  53.17
831.5  352002.85  187199.92  53.18
832.7  352299.15  187424.37  53.20
834.0  352661.05  187647.96  53.21
835.2  353020.53  187892.43  53.22
836.4  353283.70  188069.42  53.23
837.7  353709.20  188301.64  53.24
838.9  354132.25  188587.82  53.25
840.1  354526.20  188837.87  53.26
841.4  354942.20  189101.46  53.28
842.6  355296.60  189341.24  53.29
843.8  355584.80  189594.44  53.32
845.1  356100.00  189896.26  53.33
846.3  356513.20  190156.40  53.34
847.5  356874.00  190409.94  53.35
848.8  357327.60  190665.36  53.36
850.0  357731.50  190944.67  53.38
851.2  358238.70  191263.68  53.39
852.5  358536.80  191498.26  53.41
853.7  359136.00  191795.85  53.40
854.9  359584.00  192086.60  53.42
856.1  359990.15  192347.35  53.43
857.4  360286.40  192500.92  53.43
858.6  360755.75  192796.66  53.44
859.8  361096.88  193042.88  53.46
861.0  361530.00  193316.76  53.47
862.2  362056.05  193594.09  53.47
863.5  362428.95  193826.95  53.48
864.7  362927.40  194117.88  53.49
865.9  363256.60  194348.52  53.50
867.1  363557.45  194539.94  53.51
868.3  363995.55  194789.64  53.51
869.5  364481.70  195101.35  53.53
870.8  365058.00  195396.30  53.52
872.0  365592.60  195694.11  53.53
873.2  366054.60  195922.05  53.52
874.4  366365.03  196173.90  53.55
875.6  366725.68  196374.14  53.55
876.8  367199.45  196640.83  53.55
878.0  367751.60  196923.47  53.55
879.2  368205.75  197186.37  53.55
880.4  368702.63  197455.35  53.55
881.6  369085.30  197702.52  53.57
882.8  369535.20  197907.20  53.56
884.0  370194.70  198239.44  53.55
885.2  370620.20  198465.10  53.55
886.5  371215.30  198775.22  53.55
887.7  371623.20  199009.27  53.55
888.8  372128.18  199381.11  53.58
890.0  372665.95  199636.53  53.57
891.2  373113.40  199937.06  53.59
892.4  373733.33  200217.68  53.57
893.6  374319.75  200504.35  53.56
894.8  375164.50  200954.45  53.56
896.0  375959.00  201358.40  53.56
897.2  376805.00  201802.25  53.56
898.4  377487.00  202144.80  53.55
899.6  377897.25  202410.83  53.56
900.8  378159.48  202521.43  53.55
902.0  378389.10  202648.86  53.56
903.2  378643.73  202811.52  53.56
904.3  378964.20  202958.34  53.56
905.5  379476.13  203206.95  53.55
906.7  379998.00  203505.50  53.55
907.9  380455.60  203723.38  53.55
909.1  380686.50  203865.80  53.55
910.2  380854.80  203927.85  53.54
911.4  381121.65  203992.43  53.52
912.6  381180.80  204033.83  53.53
913.8  381381.38  204085.25  53.51
915.0  381597.30  204268.26  53.53
916.2  381644.25  204295.65  53.53
917.3  381699.23  204275.25  53.52
918.5  381843.50  204335.06  53.51
919.7  382021.20  204455.01  53.52
920.8  381914.78  204379.61  53.51
922.0  382016.25  204388.80  53.50
923.2  382200.00  204422.40  53.49
924.4  382330.13  204407.55  53.46
925.5  382317.50  204473.22  53.48
926.7  382846.38  204706.78  53.47
927.9  383623.80  205100.64  53.46
929.0  385091.55  205803.99  53.44
930.2  387258.00  206807.78  53.40
931.4  389497.95  207987.62  53.40
932.5  392001.20  209213.42  53.37
933.7  393214.10  209831.03  53.36
934.9  393680.00  210049.00  53.36
936.0  393243.50  209718.93  53.33
937.2  391123.80  208467.00  53.30
938.3  389459.50  207366.29  53.24
939.5  387806.40  206424.00  53.23
940.7  387806.40  206417.52  53.23
941.8  389092.65  207071.67  53.22
943.0  390406.50  207643.20  53.19
944.2  391236.30  207892.23  53.14
945.3  390692.25  207405.90  53.09
946.5  389749.05  206865.36  53.08
947.6  389981.50  206718.80  53.01
948.8  389796.23  206442.60  52.96
949.9  389667.60  206243.52  52.93
951.1  389219.03  205778.76  52.87
952.2  388824.00  205387.20  52.82
953.4  388593.75  204970.25  52.75
954.5  388557.00  204618.96  52.66
955.7  388344.60  204218.28  52.59
956.8  388079.90  203823.66  52.52
958.0  387403.50  203469.90  52.52
959.1  387118.38  203107.36  52.47
960.3  386817.95  202653.97  52.39
961.4  386538.40  202322.83  52.34
962.6  386477.00  202157.20  52.31
963.7  386141.55  201902.48  52.29
964.9  386076.45  201723.69  52.25
966.0  385762.50  201522.33  52.24
967.2  385659.00  201440.79  52.23
968.3  385317.00  201070.35  52.18
969.5  385254.35  200958.51  52.16
970.6  385159.15  200837.11  52.14
971.8  385359.98  200854.29  52.12
972.9  384973.43  200760.68  52.15
974.0  384887.90  200884.76  52.19
975.2  384789.00  200581.50  52.13
976.3  384338.80  200558.89  52.18
977.5  384603.98  200508.39  52.13
978.6  384896.20  200450.10  52.08
979.7  385225.58  200555.15  52.06
980.9  384639.03  200300.89  52.08
982.0  384439.95  200043.16  52.03
983.2  383704.68  199976.05  52.12
984.3  383379.00  199792.12  52.11
985.4  383595.23  199724.09  52.07
986.6  383828.13  199836.28  52.06
987.7  384812.75  200102.63  52.00
988.9  383995.80  199926.00  52.06
990.0  383497.90  200117.50  52.18
993.1  388579.45  201057.21  51.74
996.9  387180.13  200834.53  51.87
1000.7  387115.11  201240.16  51.98
1004.5  387132.75  201752.81  52.11
1008.4  386725.88  201996.68  52.23
1012.2  386595.58  202346.52  52.34
1016.0  386184.60  202516.60  52.44
1019.8  385452.38  202502.30  52.54
1023.7  384159.38  202140.56  52.62
1027.5  382372.80  201508.84  52.70
1031.3  381213.45  201155.95  52.77
1035.1  380036.24  200771.96  52.83
1038.9  379557.57  200717.68  52.88
1042.7  379307.42  200756.42  52.93
1046.5  379180.67  200859.39  52.97
1050.3  379171.28  201002.16  53.01
1054.2  378821.92  200958.34  53.05
1058.0  378467.43  200868.66  53.07
1061.8  378434.85  200944.17  53.10
1065.6  377789.30  200632.68  53.11
1069.4  376933.93  200196.63  53.11
1073.2  375563.48  199452.29  53.11
1077.0  374892.15  199055.74  53.10
1080.8  375157.29  199133.34  53.08
1084.6  375381.65  199188.27  53.06
1088.4  375738.25  199327.60  53.05
1092.2  375306.75  198997.50  53.02
1096.0  374667.13  198514.65  52.98
1099.8  373922.03  197973.75  52.95
1103.6  372985.88  197274.69  52.89
1107.4  371795.12  196436.47  52.83
1111.2  371457.00  196051.37  52.78
1114.9  370865.25  195508.25  52.72
1118.7  370586.70  195021.75  52.63
1122.5  370276.40  194389.29  52.50
1126.3  369377.87  193326.24  52.34
1130.1  369008.28  192289.69  52.11
1133.9  367339.70  190321.84  51.81
1137.7  365813.80  188106.87  51.42
1141.4  363757.66  185425.29  50.97
1145.2  362794.55  183168.07  50.49
1149.0  361536.88  180855.21  50.02
1152.8  359755.70  178511.24  49.62
1156.6  357922.95  176502.83  49.31
1160.3  356118.33  174851.23  49.10
1164.1  353806.67  173211.79  48.96
1167.9  352187.50  172116.67  48.87
1171.7  350902.13  171273.38  48.81
1175.4  349437.87  170383.77  48.76
1179.2  348025.23  169487.68  48.70
1183.0  347734.33  169129.89  48.64
1186.7  347796.87  168957.29  48.58
1190.5  347510.93  168675.58  48.54
1194.3  346582.57  168151.01  48.52
1198.0  345068.35  167398.55  48.51
1201.8  343371.10  166609.92  48.52
1205.6  342303.00  166197.23  48.55
1209.3  341786.73  166130.43  48.61
1213.1  341337.90  166175.00  48.68
1216.8  340736.73  166226.01  48.78
1220.6  339580.27  166039.38  48.90
1224.3  338283.67  165767.84  49.00
1228.1  336764.60  165410.87  49.12
1231.9  335144.40  164934.07  49.21
1235.6  333409.58  164354.80  49.30
1239.4  331823.00  163837.92  49.38
1243.1  330424.68  163373.18  49.44
1246.9  329160.02  162900.31  49.49
1250.6  328144.13  162511.87  49.52
1254.3  326977.38  162037.98  49.56
1258.1  325732.17  161509.60  49.58
1261.8  324286.13  160833.07  49.60
1265.6  323184.13  160263.23  49.59
1269.3  322488.95  159879.20  49.58
1273.1  322849.39  159971.47  49.55
1276.8  322522.40  159681.34  49.51
1280.6  321244.93  158865.78  49.45
1284.3  319209.60  157614.93  49.38
1288.0  318028.08  156726.67  49.28
1291.8  317654.52  156179.87  49.17
1295.5  316987.73  155433.91  49.03
1299.2  315828.14  154369.17  48.88
1302.9  314180.14  152940.86  48.68
1306.7  312350.50  151328.88  48.45
1310.4  310585.78  149625.19  48.18
1314.1  308974.42  147890.78  47.87
1317.9  307558.13  146086.18  47.50
1321.6  305990.55  144092.96  47.09
1325.3  304302.08  141897.00  46.63
1329.0  303007.37  139817.03  46.14
1332.8  301085.40  137347.47  45.62
1336.5  299409.87  134952.25  45.07
1340.2  299238.33  133244.23  44.53
1343.9  299102.29  131567.29  43.99
1347.6  299081.10  129986.00  43.46
1351.4  300343.50  129001.34  42.95
1355.1  302136.63  128251.32  42.45
1358.8  303696.00  127333.33  41.93
1362.5  303912.08  125712.10  41.36
1366.2  302118.05  122993.02  40.71
1369.9  299053.25  119422.34  39.93
1373.6  296169.13  115406.10  38.97
1377.3  294531.60  111151.60  37.74
1381.0  293958.50  106425.17  36.20
1384.8  292142.50  100311.25  34.34
1388.4  288978.67  93230.79  32.26
1392.2  286717.58  86163.78  30.05
1395.9  285261.03  79382.51  27.83
1399.6  283522.54  72959.70  25.73
1403.3  282137.20  67330.11  23.86
1407.0  280527.60  62486.00  22.27
1410.7  278826.90  58504.33  20.98
1414.3  276978.45  55301.60  19.97
1418.1  275357.04  52863.29  19.20
1421.7  274017.51  51021.27  18.62
1425.4  272658.75  49643.75  18.21
1429.1  271414.88  48651.63  17.93
1432.8  269753.69  47873.69  17.75
1436.5  268947.19  47459.74  17.65
1440.2  268369.33  47260.40  17.61
1443.9  267308.71  47084.34  17.61
1447.6  265788.60  46918.67  17.65
1451.2  264556.97  46862.26  17.71
1454.9  263125.20  46833.70  17.80
1458.6  261870.60  46950.18  17.93
1462.3  260632.90  47199.66  18.11
1466.0  259270.83  47582.43  18.35
1469.7  257562.28  48067.21  18.66
1473.3  256483.17  48806.61  19.03
1477.0  254429.67  49473.26  19.44
1480.7  252775.36  50288.74  19.89
1484.4  250755.75  51045.48  20.36
1488.0  249172.00  51915.11  20.84
1491.7  247591.40  52782.93  21.32
1495.4  245919.37  53642.61  21.81
1499.0  244354.00  54505.50  22.31
1502.7  243079.42  55422.47  22.80
1506.4  241679.47  56279.89  23.29
1510.0  240210.67  57088.34  23.77
1513.7  238699.42  57852.67  24.24
1517.4  237317.00  58618.56  24.70
1521.0  236056.27  59387.38  25.16
1524.7  234811.42  60093.58  25.59
1528.3  233514.50  60742.21  26.01
1532.0  232261.52  61369.86  26.42
1535.7  230854.66  61902.67  26.81
1539.3  229563.22  62447.69  27.20
1543.0  228587.98  63023.49  27.57
1546.6  227882.42  63656.67  27.93
1550.3  226865.35  64156.98  28.28
1553.9  225796.33  64609.47  28.61
1557.6  224535.67  64966.49  28.93
1561.2  223241.85  65286.00  29.24
1564.9  221913.49  65554.54  29.54
1568.5  220564.52  65793.12  29.83
1572.2  219390.75  66049.05  30.11
1575.8  218274.00  66313.33  30.38
1579.5  217251.10  66572.34  30.64
1583.1  216163.32  66801.73  30.90
1586.8  214816.00  66929.34  31.16
1590.4  213573.30  67074.66  31.41
1594.0  212264.76  67173.89  31.65
1597.7  211469.53  67431.52  31.89
1601.3  210555.45  67643.10  32.13
1604.9  209599.45  67804.40  32.35
1608.6  208225.82  67795.86  32.56
1612.2  206812.65  67745.43  32.76
1615.8  205348.65  67648.32  32.94
1619.5  204074.00  67588.61  33.12
1623.1  202712.20  67482.28  33.29
1626.7  201477.58  67373.48  33.44
1630.3  200288.67  67254.61  33.58
1634.0  199150.00  67120.67  33.70
1637.6  198129.00  66985.47  33.81
1641.2  197093.40  66774.97  33.88
1644.8  195865.99  66440.85  33.92
1648.5  194775.02  66108.71  33.94
1652.1  193804.50  65743.60  33.92
1655.7  192850.20  65362.60  33.89
1659.3  192015.32  65005.63  33.85
1662.9  190570.00  64453.61  33.82
1666.6  189126.33  63904.87  33.79
1670.2  187692.81  63360.91  33.76
1673.8  186215.09  62794.60  33.72
1677.4  185024.45  62297.70  33.67
1681.0  184185.45  61859.63  33.59
1684.6  183773.42  61506.61  33.47
1688.2  183101.00  61000.65  33.32
1691.8  182399.22  60498.05  33.17
1695.4  181958.80  60042.33  33.00
1699.0  181574.63  59599.71  32.82
1702.6  181216.33  59129.78  32.63
1706.2  180579.64  58545.86  32.42
1709.8  179625.45  57853.32  32.21
1713.4  178849.83  57235.45  32.00
1717.0  177958.75  56590.84  31.80
1720.6  177122.70  55982.48  31.61
1724.2  176383.65  55411.55  31.42
1727.8  175663.60  54897.38  31.25
1731.4  175208.00  54515.55  31.11
1735.0  175037.32  54262.64  31.00
1738.6  174801.30  53956.55  30.87
1742.2  174251.63  53503.75  30.70
1745.8  173628.80  52970.09  30.51
1749.4  172691.48  52312.70  30.29
1753.0  171192.87  51477.47  30.07
1756.6  169516.08  50605.43  29.85
1760.1  168156.86  49854.12  29.65
1763.7  166397.33  49020.67  29.46
1767.3  164921.90  48317.20  29.30
1770.9  163638.36  47707.08  29.15
1774.5  162133.53  47061.57  29.03
1778.0  160955.71  46537.14  28.91
1781.6  159847.65  46066.10  28.82
1785.2  158679.03  45620.91  28.75
1788.8  157493.00  45204.37  28.70
1792.3  156217.83  44796.16  28.68
1795.9  155644.78  44616.00  28.67
1799.5  155429.00  44556.00  28.67
1803.1  156501.10  44894.89  28.69
1806.6  158656.81  45539.69  28.70
1810.2  160366.97  46054.32  28.72
1813.8  161014.65  46250.67  28.72
1817.3  160371.20  46069.20  28.73
1820.9  158960.88  45650.37  28.72
1824.5  157475.30  45187.20  28.69
1828.0  156243.54  44761.91  28.65
1831.6  155621.50  44475.66  28.58
1835.2  155280.83  44214.17  28.47
1838.7  155041.60  43880.98  28.30
1842.3  154860.00  43475.00  28.07
1845.8  153757.71  42679.04  27.76
1849.4  153140.60  41880.51  27.35
1852.9  152344.91  40827.66  26.80
1856.5  151335.50  39496.58  26.10
1860.0  150306.86  37897.54  25.21
1863.6  150157.76  36267.74  24.15
1867.1  150594.15  34477.22  22.89
1870.7  151385.45  32384.96  21.39
1874.2  150570.45  29618.40  19.67
1877.8  148176.53  26462.73  17.86
1881.3  145349.50  23256.42  16.00
1884.9  143476.48  20399.02  14.22
1888.4  141927.53  17794.52  12.54
1891.9  140283.07  15561.18  11.09
1895.5  138776.63  13768.78  9.92
1899.0  137931.88  12454.08  9.03
1901.3  176095.67  12302.17  6.99
1904.1  176020.50  11384.25  6.47
1906.8  174924.60  10617.30  6.07
1909.6  172732.35  10002.13  5.79
1912.4  170712.62  9514.98  5.57
1915.1  169271.30  9147.33  5.40
1917.9  167748.50  8870.50  5.29
1920.6  166511.57  8675.60  5.21
1923.3  165235.93  8506.99  5.15
1926.1  163621.23  8390.43  5.13
1928.8  162096.00  8301.34  5.12
1931.6  160922.72  8269.28  5.14
1934.3  159902.73  8276.88  5.18
1937.0  158898.77  8306.43  5.23
1939.8  157741.83  8357.38  5.30
1942.5  156233.00  8393.00  5.37
1945.2  154294.25  8427.93  5.46
1947.9  152697.30  8488.20  5.56
1950.7  151441.93  8584.90  5.67
1953.4  149543.45  8666.63  5.80
1956.1  148067.67  8771.63  5.92
1958.8  146765.45  8892.76  6.06
1961.5  145212.80  9016.00  6.21
1964.2  143652.60  9136.40  6.36
1966.9  142021.65  9258.15  6.52
1969.6  140742.00  9409.50  6.69
1972.3  139302.80  9563.05  6.86
1975.0  138210.45  9739.43  7.05
1977.7  137072.72  9914.35  7.23
1980.4  135909.63  10090.44  7.42
1983.1  134785.82  10272.59  7.62
1985.8  133849.50  10479.15  7.83
1988.4  132808.00  10668.67  8.03
1991.1  131865.53  10865.05  8.24
1993.8  130973.33  11059.49  8.44
1996.5  130309.85  11274.91  8.65
1999.1  129603.28  11481.71  8.86
2001.8  128895.67  11689.54  9.07
2004.5  128201.65  11898.08  9.28
2007.1  127457.75  12092.70  9.49
2009.8  126711.43  12280.92  9.69
2012.4  126096.30  12489.86  9.91
2015.1  125537.30  12678.05  10.10
2017.8  124743.03  12842.08  10.29
2020.4  124226.48  13028.40  10.49
2023.1  123845.17  13217.64  10.67
2025.7  123595.33  13403.00  10.84
2028.3  123257.33  13567.67  11.01
2031.0  122851.80  13728.35  11.17
2033.6  122565.60  13889.55  11.33
2036.2  122295.90  14024.40  11.47
2038.9  121669.50  14124.45  11.61
2041.5  121301.13  14234.32  11.73
2044.1  120747.30  14311.50  11.85
2046.8  120373.20  14415.90  11.98
2049.4  119720.70  14472.45  12.09
2052.0  119419.60  14549.74  12.18
2054.6  119000.00  14625.63  12.29
2057.2  118424.00  14680.74  12.40
2059.8  118083.40  14776.80  12.51
2062.4  117195.58  14809.62  12.64
2065.0  116651.13  14872.87  12.75
2067.6  115748.62  14879.35  12.85
2070.2  115121.02  14927.29  12.97
2072.8  114475.98  14962.16  13.07
2075.4  114038.75  15023.75  13.17
2078.0  113392.83  15054.64  13.28
2080.6  112816.00  15105.20  13.39
2083.2  112099.37  15131.27  13.50
2085.8  111592.25  15182.00  13.60
2088.4  110920.17  15202.17  13.71
2090.9  110102.53  15213.16  13.82
2093.5  109206.37  15183.87  13.90
2096.1  108421.47  15186.39  14.01
2098.7  107639.75  15182.00  14.10
2101.2  106660.20  15161.07  14.21
2103.8  105970.27  15165.43  14.31
2106.4  105297.80  15174.17  14.41
2108.9  104634.07  15182.90  14.51
2111.5  103769.47  15156.70  14.61
2114.0  103123.20  15165.44  14.71
2116.6  102585.00  15181.25  14.80
2119.1  102017.70  15197.02  14.90
2121.7  101517.50  15203.13  14.98
2124.2  101105.97  15236.47  15.07
2126.8  100288.10  15195.17  15.15
2129.3  99888.80  15210.80  15.23
2131.9  99290.40  15193.20  15.30
2134.4  98845.65  15199.88  15.38
2136.9  98445.10  15212.71  15.45
2139.4  97905.73  15201.90  15.53
2142.0  97444.67  15193.04  15.59
2144.5  97161.30  15227.90  15.67
2147.0  96899.87  15267.07  15.76
2149.5  96390.67  15258.13  15.83
2152.1  96220.48  15303.11  15.90
2154.6  96142.93  15358.93  15.98
2157.1  95602.08  15328.13  16.03
2159.6  95175.17  15323.58  16.10
2162.1  95013.10  15347.15  16.15
2164.6  94749.20  15357.70  16.21
2167.1  94413.85  15349.94  16.26
2169.6  94083.73  15350.36  16.32
2172.1  93598.30  15318.10  16.37
2174.6  93269.00  15317.80  16.42
2177.1  92824.05  15298.94  16.48
2179.5  92393.38  15283.99  16.54
2182.0  91901.15  15259.20  16.60
2184.5  91356.13  15224.46  16.66
2187.0  90729.80  15173.52  16.72
2189.5  90044.25  15116.44  16.79
2191.9  89243.00  15038.50  16.85
2194.4  88595.35  14979.18  16.91
2196.9  87830.40  14904.00  16.97
2199.3  87145.00  14833.50  17.02
2201.8  86237.33  14721.67  17.07
2204.3  85758.40  14685.73  17.12
2206.7  85104.00  14627.25  17.19
2209.2  84630.98  14572.98  17.22
2211.6  84001.50  14493.60  17.25
2214.1  83689.45  14452.38  17.27
2216.5  83102.27  14363.60  17.28
2219.0  82754.60  14304.00  17.28
2221.4  82387.67  14230.42  17.27
2223.9  81901.75  14131.25  17.25
2226.3  81386.08  14012.25  17.22
2228.7  80806.13  13866.32  17.16
2231.1  80209.80  13706.55  17.09
2233.6  79605.73  13519.27  16.98
2236.0  79045.75  13342.88  16.88
2238.4  78520.17  13164.38  16.77
2240.9  78066.07  12967.97  16.61
2243.3  77509.80  12754.40  16.46
2245.7  76933.40  12537.00  16.30
2248.1  76424.40  12338.74  16.15
2250.5  75913.27  12129.75  15.98
2252.9  75268.27  11895.22  15.80
2255.3  74674.75  11686.28  15.65
2257.7  74210.00  11480.00  15.47
2260.1  73704.87  11287.50  15.31
2262.5  73080.00  11085.00  15.17
2264.9  72538.90  10896.81  15.02
2267.3  71920.00  10700.00  14.88
2269.7  71407.23  10535.00  14.75
2272.1  70837.87  10372.26  14.64
2274.5  70242.73  10212.95  14.54
2276.8  69766.08  10071.76  14.44
2279.2  69174.15  9924.38  14.35
2281.6  68735.20  9794.87  14.25
2284.0  68255.80  9660.65  14.15
2286.3  67761.60  9535.47  14.07
2288.7  67352.57  9414.49  13.98
2291.1  66803.20  9271.40  13.88
2293.4  66343.20  9127.07  13.76
2295.8  65724.30  8966.15  13.64
2298.2  65122.20  8802.68  13.52
2300.5  64439.10  8626.73  13.39
2302.9  63674.00  8457.84  13.28
2305.2  62922.70  8291.50  13.18
2307.6  62240.45  8124.38  13.05
2309.9  61462.67  7967.00  12.96
2312.2  60842.67  7843.00  12.89
2314.6  60237.00  7726.28  12.83
2316.9  59522.85  7596.90  12.76
2319.2  58944.87  7495.10  12.72
2321.6  58302.42  7382.55  12.66
2323.9  57750.00  7270.83  12.59
2326.2  57185.10  7157.27  12.52
2328.6  56670.35  7043.30  12.43
2330.9  56164.50  6930.00  12.34
2333.2  55689.50  6831.54  12.27
2335.5  55222.70  6735.65  12.20
2337.8  54746.98  6610.19  12.07
2340.1  54175.47  6486.18  11.97
2342.4  53733.33  6380.84  11.88
2344.8  53295.17  6277.08  11.78
2347.1  52716.77  6168.75  11.70
2349.4  52163.92  6064.68  11.63
2351.6  51580.03  5954.51  11.54
2353.9  51073.30  5864.22  11.48
2356.2  50514.13  5780.67  11.44
2358.5  49940.80  5672.80  11.36
2360.8  49369.60  5566.40  11.27
2363.1  48904.67  5473.73  11.19
2365.4  48409.20  5384.45  11.12
2367.7  47914.20  5301.00  11.06
2369.9  47380.10  5198.30  10.97
2372.2  46738.13  5079.74  10.87
2374.5  46153.80  4978.05  10.79
2376.7  45525.72  4867.39  10.69
2379.0  44881.40  4758.04  10.60
2381.3  44251.67  4655.00  10.52
2383.5  43741.87  4558.40  10.42
2385.8  43124.83  4471.34  10.37
2388.0  42586.20  4360.10  10.24
2390.3  42043.60  4248.27  10.10
2392.5  41568.00  4158.00  10.00
2394.8  41091.60  4083.75  9.94
2397.0  40598.13  3991.87  9.83
2399.3  40144.08  3910.85  9.74
2401.5  39690.00  3828.13  9.65
2403.8  39142.37  3731.95  9.53
2406.0  38615.83  3631.88  9.41
2408.2  38210.33  3559.24  9.31
2410.4  37774.57  3482.85  9.22
2412.7  37373.27  3399.29  9.10
2414.9  37013.90  3326.95  8.99
2417.1  36588.70  3257.55  8.90
2419.3  36160.00  3180.80  8.80
2421.6  35779.17  3100.00  8.66
2423.8  35386.03  3027.72  8.56
2426.0  35003.07  2966.69  8.48
2428.2  34639.73  2887.74  8.34
2430.4  34340.50  2825.32  8.23
2432.6  34066.67  2780.00  8.16
2434.8  33764.20  2706.75  8.02
2437.0  33395.27  2632.94  7.88
2439.2  33007.70  2568.17  7.78
2441.4  32679.10  2528.99  7.74
2443.6  32455.35  2473.18  7.62
2445.7  32181.57  2436.53  7.57
2447.9  31883.08  2379.75  7.46
2450.1  31570.35  2318.25  7.34
2452.3  31226.07  2258.67  7.23
2454.5  30862.93  2205.51  7.15
2456.6  30459.33  2154.27  7.07
2458.8  30072.90  2102.10  6.99
2461.0  29756.00  2047.17  6.88
2463.1  29449.20  2015.18  6.84
2465.3  29164.23  1960.87  6.72
2467.5  28910.00  1917.50  6.63
2469.6  28669.83  1879.50  6.56
2471.8  28366.48  1839.54  6.48
2473.9  28070.08  1794.92  6.39
2476.1  27709.50  1751.75  6.32
2478.2  27374.30  1698.52  6.20
2480.4  27046.70  1665.48  6.16
2482.5  26708.75  1641.24  6.14
2484.6  26367.00  1628.46  6.18
2486.8  26093.40  1585.70  6.08
2488.9  25758.40  1554.66  6.04
2491.1  25402.53  1499.40  5.90
2493.2  25035.73  1468.94  5.87
2495.3  24627.20  1434.99  5.83
2497.4  24262.70  1416.80  5.84
2499.5  23951.33  1399.86  5.84
2501.7  23811.90  1388.62  5.83
2503.8  23720.95  1370.77  5.78
2505.9  23660.42  1375.21  5.81
2508.0  23647.50  1375.06  5.81
2510.1  23659.65  1332.31  5.63
2512.2  23781.60  1330.38  5.59
2514.3  23919.00  1338.33  5.60
2516.4  24211.30  1398.70  5.78
