/*** Spectra Vista SIG Data ***/
name= 11_20220720_ACSA_1_avg.sig
comm= Averaged Ref/Tar of files: 10_20220720_ACSA_1_1_avg.sig,11_20220720_ACSA_1_2_avg.sig
data=
337.3  3275.25  264.67  8.08
338.8  3391.05  254.24  7.50
340.3  3560.60  256.56  7.21
341.8  3749.45  259.11  6.91
343.2  3929.40  260.06  6.62
344.7  4094.40  247.78  6.05
346.2  4268.83  243.16  5.70
347.7  4463.39  237.83  5.33
349.2  4668.30  243.00  5.21
350.6  4884.43  250.08  5.12
352.1  5180.13  248.37  4.79
353.6  5447.90  256.12  4.70
355.1  5724.76  253.37  4.43
356.6  5997.83  251.28  4.19
358.0  6268.35  256.72  4.10
359.5  6566.25  264.86  4.03
361.0  6867.79  276.45  4.03
362.5  7216.29  284.39  3.94
364.0  7541.53  290.85  3.86
365.4  7896.10  297.06  3.76
366.9  8232.26  301.24  3.66
368.4  8564.36  309.12  3.61
369.9  8904.74  324.30  3.64
371.3  9304.95  339.47  3.65
372.8  9690.75  348.94  3.60
374.3  10091.57  355.77  3.53
375.8  10470.08  359.34  3.43
377.2  10867.60  371.48  3.42
378.7  11271.10  376.60  3.34
380.2  11634.25  380.45  3.27
381.7  12120.72  393.79  3.25
383.1  12572.18  401.69  3.20
384.6  13028.93  409.77  3.15
386.1  13444.94  415.67  3.09
387.6  13879.25  422.22  3.04
389.0  14311.20  435.18  3.04
390.5  14761.80  448.82  3.04
392.0  15301.33  459.73  3.00
393.4  15817.55  472.95  2.99
394.9  16338.60  482.23  2.95
396.4  16818.75  495.32  2.95
397.9  17335.32  505.18  2.91
399.3  17841.47  514.95  2.89
400.8  18382.19  525.80  2.86
402.2  18989.43  540.10  2.84
403.7  19560.94  553.73  2.83
405.2  20123.76  565.95  2.81
406.6  20648.00  580.01  2.81
408.1  21210.10  591.90  2.79
409.6  21796.35  608.33  2.79
411.0  22417.50  622.20  2.78
412.5  23042.87  639.63  2.78
414.0  23665.57  652.97  2.76
415.4  24327.00  675.75  2.78
416.9  24951.49  694.82  2.78
418.4  25612.77  714.10  2.79
419.8  26299.00  732.34  2.78
421.3  26987.05  752.05  2.79
422.7  27735.60  775.54  2.80
424.2  28468.13  798.75  2.81
425.7  29185.15  821.21  2.81
427.1  29893.43  844.76  2.83
428.6  30651.25  868.74  2.83
430.0  31351.55  892.44  2.85
431.5  32170.84  918.25  2.85
432.9  33006.45  942.49  2.86
434.4  33849.98  971.37  2.87
435.9  34629.00  993.33  2.87
437.3  35420.00  1018.81  2.88
438.8  36218.10  1042.04  2.88
440.2  37036.04  1069.66  2.89
441.7  37955.50  1099.44  2.90
443.1  38815.88  1126.25  2.90
444.6  39719.20  1154.67  2.91
446.0  40598.78  1181.96  2.91
447.5  41495.72  1211.88  2.92
448.9  42382.95  1240.86  2.93
450.4  43324.23  1272.80  2.94
451.8  44148.00  1298.77  2.94
453.3  45017.23  1326.18  2.95
454.7  45960.99  1357.65  2.95
456.2  46783.44  1382.33  2.95
457.6  47690.44  1410.31  2.96
459.1  48622.93  1439.10  2.96
460.5  49500.88  1466.79  2.96
462.0  50495.59  1496.77  2.96
463.4  51464.05  1524.62  2.96
464.8  52398.94  1554.00  2.97
466.3  53337.08  1582.16  2.97
467.7  54259.13  1609.91  2.97
469.2  55258.45  1640.74  2.97
470.6  56171.90  1668.61  2.97
472.0  57144.51  1698.39  2.97
473.5  58082.01  1727.29  2.97
474.9  59052.00  1756.15  2.97
476.4  60141.60  1789.03  2.97
477.8  61153.75  1824.24  2.98
479.2  62118.00  1854.62  2.99
480.7  63161.67  1890.72  2.99
482.1  64215.80  1924.60  3.00
483.6  65335.68  1961.07  3.00
485.0  66346.17  1996.86  3.01
486.4  67468.35  2035.61  3.02
487.9  68488.88  2074.67  3.03
489.3  69597.72  2117.60  3.04
490.7  70599.02  2163.88  3.07
492.2  71765.40  2210.60  3.08
493.6  72810.50  2258.89  3.10
495.0  73848.94  2311.45  3.13
496.5  74952.57  2370.37  3.16
497.9  75979.82  2429.07  3.20
499.3  77080.44  2493.36  3.23
500.7  78252.98  2567.94  3.28
502.2  79321.80  2646.77  3.34
503.6  80482.50  2737.16  3.40
505.0  81475.98  2833.03  3.48
506.5  82703.07  2950.78  3.57
507.9  83827.97  3082.19  3.68
509.3  85144.40  3235.56  3.80
510.7  86331.38  3402.06  3.94
512.2  87631.66  3593.94  4.10
513.6  89005.88  3816.42  4.29
515.0  90321.64  4062.26  4.50
516.4  91598.86  4338.23  4.74
517.8  93119.07  4655.87  5.00
519.3  94351.77  4987.91  5.29
520.7  95806.95  5358.41  5.59
522.1  97014.46  5733.75  5.91
523.5  98293.85  6124.61  6.23
524.9  99582.08  6517.97  6.55
526.3  100887.68  6904.40  6.84
527.8  102361.05  7298.42  7.13
529.2  103487.95  7665.70  7.41
530.6  104776.95  8028.01  7.66
532.0  106379.00  8392.00  7.89
533.4  107676.90  8699.64  8.08
534.8  108497.91  8939.47  8.24
536.3  110049.90  9213.67  8.37
537.7  111900.60  9488.40  8.48
539.1  113291.40  9720.32  8.58
540.5  114438.85  9920.02  8.67
541.9  116148.61  10161.27  8.75
543.3  117335.78  10353.56  8.82
544.7  118668.30  10556.94  8.90
546.1  120315.53  10785.88  8.96
547.5  121419.20  10957.33  9.02
549.0  123002.00  11160.29  9.07
550.4  124349.69  11332.83  9.11
551.8  125747.44  11483.78  9.13
553.2  127192.69  11611.29  9.13
554.6  128455.60  11690.60  9.10
556.0  129871.80  11745.28  9.04
557.4  131359.82  11768.53  8.96
558.8  132873.30  11761.06  8.85
560.2  134211.00  11705.47  8.72
561.6  135743.93  11633.31  8.57
563.0  137227.74  11523.50  8.40
564.4  138685.03  11385.46  8.21
565.8  140080.01  11214.94  8.01
567.2  141711.88  11039.23  7.79
568.6  143098.69  10828.39  7.57
570.0  144409.06  10602.89  7.34
571.4  146009.18  10394.37  7.12
572.8  147623.19  10196.33  6.91
574.2  149150.40  10005.34  6.71
575.6  150598.13  9827.15  6.53
577.0  151979.35  9670.11  6.36
578.4  153585.25  9544.71  6.21
579.8  154981.36  9424.80  6.08
581.2  156586.60  9333.31  5.96
582.5  157891.50  9236.32  5.85
583.9  159294.10  9159.05  5.75
585.3  160957.69  9112.41  5.66
586.7  162307.44  9058.26  5.58
588.1  163693.57  9018.70  5.51
589.5  165203.50  8996.17  5.45
590.9  166711.80  8986.46  5.39
592.3  168402.18  8995.96  5.34
593.7  169724.59  8999.25  5.30
595.0  171232.99  9014.76  5.26
596.4  172565.23  9024.30  5.23
597.8  173923.66  9034.20  5.19
599.2  175355.40  9039.49  5.15
600.6  176975.99  9047.68  5.11
602.0  178169.89  9024.16  5.06
603.3  179828.83  9010.11  5.01
604.7  181371.53  8977.96  4.95
606.1  182739.60  8927.94  4.89
607.5  184248.64  8870.89  4.81
608.9  185804.23  8808.68  4.74
610.2  187081.66  8726.40  4.66
611.6  188552.82  8653.66  4.59
613.0  189981.38  8581.93  4.52
614.4  191259.75  8509.68  4.45
615.8  192582.01  8444.20  4.38
617.1  194010.60  8391.60  4.33
618.5  195515.40  8355.66  4.27
619.9  196905.53  8327.44  4.23
621.3  198387.01  8316.37  4.19
622.6  199851.25  8319.24  4.16
624.0  201182.18  8329.02  4.14
625.4  202513.17  8350.30  4.12
626.8  203983.33  8385.65  4.11
628.1  205205.69  8418.46  4.10
629.5  206917.79  8472.60  4.09
630.9  208412.60  8515.31  4.09
632.2  209700.67  8545.70  4.08
633.6  211211.19  8570.66  4.06
635.0  212626.40  8568.88  4.03
636.3  214026.95  8543.73  3.99
637.7  215276.26  8490.58  3.94
639.1  216790.00  8425.00  3.89
640.4  218153.69  8337.55  3.82
641.8  219256.42  8233.45  3.76
643.2  220698.10  8140.44  3.69
644.5  221956.50  8043.91  3.62
645.9  223549.43  7966.01  3.56
647.2  225104.08  7906.13  3.51
648.6  226901.25  7872.43  3.47
650.0  228322.80  7838.75  3.43
651.3  228638.03  7783.33  3.40
652.7  229601.05  7749.19  3.38
654.0  231335.80  7750.02  3.35
655.4  232908.54  7747.84  3.33
656.8  233174.40  7707.19  3.31
658.1  234184.55  7683.41  3.28
659.5  236292.53  7676.58  3.25
660.8  237915.00  7662.86  3.22
662.2  238728.00  7627.74  3.20
663.5  240371.80  7622.76  3.17
664.9  241652.45  7619.24  3.15
666.2  242457.30  7617.77  3.14
667.6  244202.02  7663.86  3.14
668.9  245218.42  7708.92  3.14
670.3  246236.88  7760.93  3.15
671.6  247656.19  7838.57  3.17
673.0  248718.19  7934.45  3.19
674.3  249840.50  8035.98  3.22
675.7  251058.98  8159.35  3.25
677.0  252098.15  8285.60  3.29
678.4  253375.60  8438.73  3.33
679.7  254410.78  8603.39  3.38
681.1  255617.47  8789.01  3.44
682.4  256680.45  8995.76  3.50
683.8  257851.75  9222.02  3.58
685.1  258762.94  9480.04  3.66
686.4  259973.10  9794.43  3.77
687.8  261181.63  10178.85  3.90
689.1  262149.50  10656.70  4.07
690.5  263327.70  11298.46  4.29
691.8  264171.15  12137.57  4.59
693.1  265378.73  13273.98  5.00
694.5  266448.00  14740.92  5.53
695.8  267551.38  16583.67  6.20
697.1  268643.38  18851.09  7.02
698.5  269607.90  21546.62  7.99
699.8  270603.45  24675.80  9.12
701.1  271680.52  28201.23  10.38
702.5  272404.00  32017.78  11.75
703.8  273318.75  36101.79  13.21
705.1  274358.67  40384.22  14.72
706.5  275324.38  44779.83  16.26
707.8  276246.00  49239.18  17.82
709.1  277086.74  53689.50  19.38
710.5  278158.34  58181.08  20.92
711.8  278961.85  62586.54  22.44
713.1  279876.15  66973.28  23.93
714.4  280723.55  71271.86  25.39
715.8  281492.90  75474.88  26.81
717.1  282716.33  79708.62  28.19
718.4  283606.40  83749.34  29.53
719.7  284623.40  87716.72  30.82
721.0  285120.00  91413.22  32.06
722.4  285821.25  95024.63  33.25
723.7  286737.68  98567.41  34.38
725.0  287709.87  102001.71  35.45
726.3  288644.95  105251.51  36.46
727.6  289147.10  108205.72  37.42
729.0  289989.79  111124.03  38.32
730.3  290725.17  113854.24  39.16
731.6  291574.25  116479.78  39.95
732.9  292334.01  118920.84  40.68
734.2  293099.13  121231.66  41.36
735.5  294050.74  123493.93  42.00
736.8  294816.15  125531.01  42.58
738.1  295583.25  127438.22  43.11
739.5  296458.03  129285.60  43.61
740.8  297126.51  130917.94  44.06
742.1  297820.28  132479.01  44.48
743.4  298537.50  133950.00  44.87
744.7  299494.39  135419.92  45.22
746.0  300346.80  136742.73  45.53
747.3  300863.18  137825.28  45.81
748.6  301571.13  138921.26  46.07
749.9  302302.00  139941.91  46.29
751.2  303013.13  140893.71  46.50
752.5  303876.08  141855.04  46.68
753.8  304477.78  142642.67  46.85
755.1  305136.00  143380.10  46.99
756.4  305699.78  144025.19  47.11
757.7  306602.89  144795.72  47.23
759.0  308287.99  145878.44  47.32
760.3  309408.00  146668.34  47.40
761.6  310887.50  147597.07  47.48
762.9  311410.13  148040.87  47.54
764.2  311797.90  148385.53  47.59
765.5  312098.22  148659.38  47.63
766.8  312514.40  148980.88  47.67
768.1  313017.60  149331.31  47.71
769.3  313606.30  149698.42  47.73
770.6  314241.85  150084.85  47.76
771.9  314954.24  150489.39  47.78
773.2  315367.80  150739.09  47.80
774.5  315958.50  151076.10  47.82
775.8  316614.33  151424.04  47.83
777.1  317166.58  151743.80  47.84
778.4  317525.18  151942.29  47.85
779.6  318265.58  152337.80  47.86
780.9  318750.00  152592.86  47.87
782.2  319228.25  152840.29  47.88
783.5  319548.50  153018.51  47.89
784.8  320071.39  153298.60  47.90
786.0  320486.78  153507.20  47.90
787.3  320871.89  153716.41  47.91
788.6  321321.12  153943.59  47.91
789.9  321774.60  154184.34  47.92
791.2  322411.07  154509.43  47.92
792.4  323089.06  154839.61  47.92
793.7  323562.50  155076.20  47.93
795.0  324178.80  155374.33  47.93
796.2  324812.37  155699.30  47.94
797.5  325529.52  156050.84  47.94
798.8  326201.12  156385.58  47.94
800.0  326836.52  156706.69  47.95
801.3  327336.75  156940.46  47.94
802.6  327911.18  157234.46  47.95
803.8  328534.07  157540.57  47.95
805.1  329030.63  157783.13  47.95
806.4  329507.85  158027.92  47.96
807.7  330019.32  158269.66  47.96
808.9  330588.13  158535.78  47.96
810.2  331112.60  158791.37  47.96
811.4  331606.95  159038.51  47.96
812.7  332231.26  159348.66  47.96
814.0  333006.38  159736.47  47.97
815.2  333603.38  160037.69  47.97
816.5  333993.64  160244.40  47.98
817.7  334465.68  160473.25  47.98
819.0  334977.78  160725.69  47.98
820.2  335126.00  160817.91  47.99
821.5  335768.00  161154.61  48.00
822.7  336121.61  161332.08  48.00
824.0  336469.95  161498.06  48.00
825.2  336923.56  161735.02  48.00
826.5  337236.22  161905.62  48.01
827.7  337735.82  162150.70  48.01
829.0  338127.14  162344.74  48.01
830.2  338411.08  162506.83  48.02
831.5  338888.63  162724.82  48.02
832.7  339135.04  162872.70  48.03
834.0  339445.32  163034.74  48.03
835.2  339757.97  163222.69  48.04
836.4  340052.90  163378.03  48.04
837.7  340457.30  163578.18  48.05
838.9  340859.18  163795.68  48.05
840.1  341192.26  163985.18  48.06
841.4  341570.70  164199.86  48.07
842.6  341915.90  164399.72  48.08
843.8  342224.00  164582.29  48.09
845.1  342686.90  164820.61  48.10
846.3  343080.85  165034.60  48.10
847.5  343384.65  165224.60  48.12
848.8  343793.40  165423.89  48.12
850.0  344073.80  165598.87  48.13
851.2  344533.50  165849.24  48.14
852.5  344873.05  166053.22  48.15
853.7  345368.25  166281.86  48.15
854.9  345769.10  166502.76  48.15
856.1  346164.98  166705.50  48.16
857.4  346348.37  166817.21  48.16
858.6  346785.48  167028.72  48.16
859.8  347187.19  167216.88  48.16
861.0  347595.30  167423.66  48.17
862.2  348018.74  167645.62  48.17
863.5  348279.43  167807.14  48.18
864.7  348770.40  168055.17  48.19
865.9  349090.40  168239.80  48.19
867.1  349431.88  168373.47  48.18
868.3  349848.90  168580.03  48.19
869.5  350297.33  168793.16  48.19
870.8  350790.75  169032.21  48.19
872.0  351287.48  169249.70  48.18
873.2  351596.85  169444.09  48.19
874.4  351991.58  169638.30  48.19
875.6  352366.18  169806.79  48.19
876.8  352803.43  170033.24  48.19
878.0  353258.73  170240.25  48.19
879.2  353824.65  170463.66  48.18
880.4  354277.32  170698.54  48.18
881.6  354665.27  170909.96  48.19
882.8  355111.60  171094.02  48.18
884.0  355693.39  171336.05  48.17
885.2  356149.70  171553.73  48.17
886.5  356732.75  171823.21  48.17
887.7  357174.19  172024.92  48.16
888.8  357798.01  172305.47  48.16
890.0  358336.20  172546.92  48.15
891.2  358917.85  172809.57  48.15
892.4  359527.09  173081.25  48.14
893.6  360011.78  173324.48  48.14
894.8  360893.00  173720.37  48.14
896.0  361667.00  174084.50  48.13
897.2  362448.13  174441.43  48.13
898.4  363165.00  174762.50  48.12
899.6  363718.32  174999.70  48.11
900.8  364085.24  175186.23  48.12
902.0  364325.18  175291.05  48.11
903.2  364752.53  175433.25  48.10
904.3  365036.55  175567.56  48.10
905.5  365616.03  175832.72  48.09
906.7  366207.75  176114.17  48.09
907.9  366752.75  176327.55  48.08
909.1  367082.22  176474.83  48.08
910.2  367354.36  176560.40  48.06
911.4  367570.13  176660.95  48.06
912.6  367749.53  176762.64  48.07
913.8  368011.47  176857.22  48.06
915.0  368477.55  177048.20  48.05
916.2  368779.13  177112.00  48.03
917.3  368787.49  177105.85  48.02
918.5  369028.65  177183.81  48.01
919.7  369392.40  177304.35  48.00
920.8  369410.43  177322.33  48.00
922.0  369551.88  177363.09  47.99
923.2  369915.00  177424.00  47.96
924.4  370153.13  177502.18  47.95
925.5  370462.15  177573.04  47.93
926.7  371029.25  177806.04  47.92
927.9  371766.60  178119.66  47.91
929.0  373172.40  178717.18  47.89
930.2  375325.05  179612.52  47.86
931.4  377546.40  180623.09  47.84
932.5  380025.13  181762.00  47.83
933.7  381424.06  182328.49  47.80
934.9  382105.94  182564.17  47.78
936.0  381754.76  182288.17  47.75
937.2  379873.20  181309.57  47.73
938.3  378511.18  180506.08  47.69
939.5  377231.40  179787.09  47.66
940.7  377406.45  179823.77  47.65
941.8  378918.00  180403.73  47.61
943.0  380189.25  180931.54  47.59
944.2  381099.23  181180.10  47.54
945.3  380781.38  180901.04  47.51
946.5  380272.73  180456.75  47.45
947.6  380351.15  180420.37  47.44
948.8  380289.01  180249.23  47.40
949.9  380587.20  180132.20  47.33
951.1  380295.67  179804.08  47.28
952.2  380256.00  179529.72  47.21
953.4  380096.50  179202.17  47.15
954.5  380133.00  179010.00  47.09
955.7  380205.00  178785.60  47.02
956.8  380017.60  178522.36  46.98
958.0  379761.75  178149.29  46.91
959.1  379669.46  177914.30  46.86
960.3  379343.77  177617.36  46.82
961.4  379384.63  177420.33  46.77
962.6  379524.25  177415.00  46.75
963.7  379395.12  177276.52  46.73
964.9  379549.81  177151.93  46.67
966.0  379333.13  177107.85  46.69
967.2  379451.48  177144.03  46.68
968.3  379347.30  176997.73  46.66
969.5  379103.70  176904.41  46.66
970.6  379240.29  176960.93  46.66
971.8  379670.91  177017.21  46.62
972.9  379821.72  177001.84  46.60
974.0  380162.35  177072.33  46.58
975.2  379842.69  176978.90  46.59
976.3  379857.24  177060.14  46.61
977.5  379876.79  177021.92  46.60
978.6  380095.00  177091.88  46.59
979.7  380341.24  177231.68  46.60
980.9  380355.24  177235.00  46.60
982.0  380600.35  177170.11  46.55
983.2  380383.67  177120.67  46.56
984.3  380388.10  177071.64  46.55
985.4  380413.07  177236.81  46.59
986.6  380450.44  177306.67  46.60
987.7  381877.74  177902.14  46.59
988.9  381582.90  177832.37  46.60
990.0  382406.35  178182.55  46.60
993.1  322557.14  149862.66  46.46
996.9  322846.53  150360.98  46.57
1000.7  323678.43  151092.27  46.68
1004.5  324165.38  151625.14  46.77
1008.4  324038.15  151892.77  46.87
1012.2  324164.15  152242.95  46.96
1016.0  324339.00  152596.08  47.05
1019.8  324552.12  152933.56  47.12
1023.7  324477.14  153105.47  47.19
1027.5  324062.38  153098.81  47.24
1031.3  324096.66  153256.22  47.29
1035.1  323793.17  153241.59  47.33
1038.9  323654.38  153286.65  47.36
1042.7  323421.09  153277.58  47.39
1046.5  323291.08  153276.47  47.41
1050.3  323307.01  153333.06  47.43
1054.2  323001.88  153249.50  47.45
1058.0  322501.17  153037.24  47.45
1061.8  322410.42  153021.77  47.46
1065.6  322092.49  152861.09  47.46
1069.4  322016.70  152792.81  47.45
1073.2  321555.65  152539.17  47.44
1077.0  321087.35  152269.64  47.42
1080.8  320797.40  152025.60  47.39
1084.6  320100.26  151599.18  47.36
1088.4  319706.33  151350.05  47.34
1092.2  319044.38  150925.82  47.31
1096.0  318516.18  150558.60  47.27
1099.8  318049.44  150176.22  47.22
1103.6  317358.79  149691.05  47.17
1107.4  316486.64  149076.13  47.10
1111.2  316181.65  148752.96  47.05
1114.9  315524.71  148214.50  46.97
1118.7  314925.19  147637.29  46.88
1122.5  314272.84  146956.83  46.76
1126.3  313275.41  146059.11  46.62
1130.1  312846.82  145248.43  46.43
1133.9  311499.30  143819.00  46.17
1137.7  310288.95  142260.52  45.85
1141.4  308793.93  140386.94  45.46
1145.2  308179.92  138785.58  45.03
1149.0  307205.94  137113.86  44.63
1152.8  305831.63  135433.58  44.28
1156.6  304413.73  134045.64  44.03
1160.3  302913.50  132896.50  43.87
1164.1  300856.84  131742.79  43.79
1167.9  299359.38  130975.08  43.75
1171.7  298265.63  130475.82  43.74
1175.4  297216.68  130024.88  43.75
1179.2  296244.27  129582.08  43.74
1183.0  295916.17  129390.74  43.73
1186.7  295478.87  129162.17  43.71
1190.5  294649.07  128767.71  43.70
1194.3  293698.03  128333.51  43.70
1198.0  292650.74  127909.67  43.71
1201.8  291338.36  127390.14  43.73
1205.6  290255.17  127020.84  43.76
1209.3  289442.11  126827.01  43.82
1213.1  288667.65  126648.58  43.87
1216.8  287890.22  126510.78  43.94
1220.6  286912.27  126272.67  44.01
1224.3  285836.04  125975.58  44.07
1228.1  284695.00  125675.98  44.14
1231.9  283520.07  125312.24  44.20
1235.6  282158.52  124835.30  44.24
1239.4  280939.51  124434.96  44.29
1243.1  279829.21  124033.40  44.32
1246.9  278778.20  123629.27  44.35
1250.6  277966.67  123301.92  44.36
1254.3  277042.66  122920.44  44.37
1258.1  276211.72  122559.15  44.37
1261.8  275100.00  122054.58  44.37
1265.6  273893.74  121477.58  44.35
1269.3  272788.69  120900.12  44.32
1273.1  272800.18  120791.23  44.28
1276.8  272978.00  120723.91  44.22
1280.6  272701.40  120434.12  44.16
1284.3  271387.20  119661.43  44.09
1288.0  270139.53  118875.08  44.01
1291.8  269100.06  118124.48  43.90
1295.5  268006.94  117315.84  43.77
1299.2  266902.07  116454.68  43.63
1302.9  265583.60  115435.89  43.46
1306.7  264163.49  114300.20  43.27
1310.4  262827.65  113092.77  43.03
1314.1  261589.72  111862.07  42.76
1317.9  260503.54  110592.83  42.45
1321.6  259298.97  109182.52  42.11
1325.3  257873.44  107579.86  41.72
1329.0  256675.95  106010.66  41.30
1332.8  254870.00  104095.20  40.84
1336.5  253281.64  102262.68  40.38
1340.2  252889.00  100897.34  39.90
1343.9  252298.65  99454.90  39.42
1347.6  251294.25  97866.93  38.95
1351.4  250937.25  96567.22  38.48
1355.1  250595.40  95303.87  38.03
1358.8  250328.00  94020.57  37.56
1362.5  249774.36  92509.45  37.04
1366.2  248532.35  90534.59  36.43
1369.9  247261.07  88286.55  35.71
1373.6  245582.46  85519.70  34.82
1377.3  243778.80  82181.42  33.71
1381.0  242588.92  78363.30  32.30
1384.8  240987.50  73660.09  30.57
1388.4  239182.59  68482.88  28.63
1392.2  237639.29  63048.97  26.53
1395.9  236256.58  57575.54  24.37
1399.6  234980.17  52415.06  22.31
1403.3  234066.41  47861.44  20.45
1407.0  233231.35  44002.62  18.87
1410.7  232350.53  40890.48  17.60
1414.3  231490.41  38515.26  16.64
1418.1  230605.98  36797.21  15.96
1421.7  229887.21  35614.59  15.49
1425.4  229132.64  34841.19  15.21
1429.1  228387.94  34385.09  15.06
1432.8  227149.65  34093.14  15.01
1436.5  226492.53  34046.24  15.03
1440.2  225794.50  34114.35  15.11
1443.9  224706.63  34191.22  15.22
1447.6  223369.30  34281.50  15.35
1451.2  222498.10  34445.10  15.48
1454.9  221439.98  34604.77  15.63
1458.6  220459.07  34853.13  15.81
1462.3  219411.50  35194.11  16.04
1466.0  218205.82  35645.83  16.34
1469.7  216740.28  36213.67  16.71
1473.3  215795.34  36991.16  17.14
1477.0  214124.05  37736.22  17.62
1480.7  212744.37  38574.73  18.13
1484.4  211093.30  39364.46  18.65
1488.0  209762.67  40235.91  19.18
1491.7  208376.30  41069.29  19.71
1495.4  206910.32  41876.01  20.24
1499.0  205530.25  42656.93  20.75
1502.7  204428.34  43481.70  21.27
1506.4  203191.96  44237.00  21.77
1510.0  201959.42  44963.56  22.26
1513.7  200662.15  45632.27  22.74
1517.4  199491.34  46290.53  23.20
1521.0  198406.54  46941.41  23.66
1524.7  197342.71  47533.26  24.09
1528.3  196245.69  48090.58  24.51
1532.0  195212.33  48618.81  24.91
1535.7  193996.64  49052.66  25.29
1539.3  192907.30  49486.41  25.65
1543.0  192075.27  49959.72  26.01
1546.6  191448.84  50455.56  26.35
1550.3  190609.33  50851.97  26.68
1553.9  189688.57  51195.61  26.99
1557.6  188594.64  51460.78  27.29
1561.2  187488.00  51678.78  27.56
1564.9  186373.80  51871.75  27.83
1568.5  185210.61  52021.84  28.09
1572.2  184209.55  52189.73  28.33
1575.8  183295.00  52372.00  28.57
1579.5  182432.20  52530.08  28.79
1583.1  181573.30  52679.80  29.01
1586.8  180488.00  52747.00  29.22
1590.4  179563.52  52831.49  29.42
1594.0  178446.02  52843.69  29.61
1597.7  177519.26  52911.49  29.81
1601.3  176450.40  52920.34  29.99
1604.9  175370.80  52900.12  30.16
1608.6  174197.38  52823.04  30.32
1612.2  173229.79  52779.08  30.47
1615.8  172192.97  52697.73  30.60
1619.5  171175.00  52596.06  30.73
1623.1  170037.19  52441.84  30.84
1626.7  168985.70  52284.47  30.94
1630.3  167953.30  52109.96  31.03
1634.0  166978.00  51933.00  31.10
1637.6  166127.33  51746.25  31.15
1641.2  165277.18  51510.31  31.17
1644.8  164242.17  51158.84  31.15
1648.5  163301.28  50795.43  31.11
1652.1  162474.30  50416.57  31.03
1655.7  161681.20  50035.73  30.95
1659.3  160937.78  49702.83  30.88
1662.9  159700.84  49261.55  30.85
1666.6  158468.04  48859.56  30.83
1670.2  157242.46  48481.17  30.83
1673.8  156000.09  48094.36  30.83
1677.4  155013.65  47772.01  30.82
1681.0  154304.23  47490.06  30.78
1684.6  153959.00  47264.67  30.70
1688.2  153386.00  46895.13  30.57
1691.8  152814.85  46536.19  30.45
1695.4  152451.20  46212.89  30.31
1699.0  152147.22  45903.52  30.17
1702.6  151861.67  45576.93  30.01
1706.2  151345.14  45143.37  29.83
1709.8  150554.38  44634.04  29.65
1713.4  149918.02  44188.13  29.47
1717.0  149174.13  43731.65  29.32
1720.6  148473.98  43305.53  29.17
1724.2  147869.44  42900.85  29.01
1727.8  147256.73  42507.65  28.87
1731.4  146848.63  42167.42  28.71
1735.0  146650.63  41898.01  28.57
1738.6  146411.93  41586.99  28.40
1742.2  145886.89  41161.33  28.21
1745.8  145290.95  40700.94  28.01
1749.4  144429.45  40145.92  27.80
1753.0  143131.90  39464.66  27.57
1756.6  141691.09  38763.99  27.36
1760.1  140544.27  38158.26  27.15
1763.7  139050.34  37479.05  26.95
1767.3  137811.77  36887.18  26.77
1770.9  136745.53  36352.82  26.58
1774.5  135492.77  35793.16  26.42
1778.0  134484.23  35322.79  26.27
1781.6  133524.53  34903.44  26.14
1785.2  132528.02  34504.91  26.04
1788.8  131521.00  34140.02  25.96
1792.3  130420.19  33771.21  25.89
1795.9  129936.36  33581.51  25.84
1799.5  129438.00  33402.46  25.81
1803.1  128904.71  33233.38  25.78
1806.6  129370.59  33310.42  25.75
1810.2  130263.47  33501.20  25.72
1813.8  130818.48  33600.13  25.68
1817.3  130609.80  33500.00  25.65
1820.9  129704.16  33215.15  25.61
1824.5  128494.57  32837.87  25.56
1828.0  127553.48  32500.98  25.48
1831.6  126630.50  32153.84  25.39
1835.2  125877.92  31795.06  25.26
1838.7  125502.60  31463.63  25.07
1842.3  125257.50  31102.50  24.83
1845.8  124734.13  30575.69  24.51
1849.4  124357.10  29969.55  24.10
1852.9  123913.62  29203.64  23.57
1856.5  123236.09  28201.86  22.88
1860.0  122624.69  27025.18  22.04
1863.6  122233.04  25705.43  21.03
1867.1  121807.88  24168.03  19.84
1870.7  121627.84  22345.50  18.37
1874.2  121244.18  20194.85  16.66
1877.8  120550.40  17908.71  14.86
1881.3  119553.88  15559.86  13.01
1884.9  118748.17  13369.24  11.26
1888.4  117877.81  11341.75  9.62
1891.9  116888.47  9624.73  8.23
1895.5  115809.76  8276.18  7.15
1899.0  115109.07  7316.81  6.36
1901.3  144908.19  6160.38  4.25
1904.1  144713.82  5599.41  3.87
1906.8  144052.65  5181.75  3.60
1909.6  142632.79  4830.22  3.39
1912.4  141245.70  4582.01  3.24
1915.1  140231.86  4413.41  3.15
1917.9  139110.07  4303.42  3.09
1920.6  138254.16  4238.62  3.07
1923.3  137451.57  4201.73  3.06
1926.1  136474.92  4185.49  3.07
1928.8  135619.00  4191.00  3.09
1931.6  134971.57  4220.99  3.13
1934.3  134338.55  4269.90  3.18
1937.0  133716.46  4338.25  3.24
1939.8  132975.22  4406.02  3.31
1942.5  131991.75  4475.63  3.39
1945.2  130655.05  4547.06  3.48
1947.9  129531.59  4640.42  3.58
1950.7  128627.00  4744.16  3.69
1953.4  127170.19  4831.11  3.80
1956.1  126016.19  4940.23  3.92
1958.8  124995.90  5067.11  4.05
1961.5  123765.30  5194.55  4.20
1964.2  122495.10  5323.51  4.35
1966.9  121167.06  5457.15  4.50
1969.6  120106.13  5607.00  4.67
1972.3  118908.45  5752.74  4.84
1975.0  118008.12  5918.44  5.02
1977.7  117057.79  6092.32  5.20
1980.4  116084.92  6265.98  5.40
1983.1  115151.53  6448.16  5.60
1985.8  114360.42  6638.11  5.80
1988.4  113467.25  6826.09  6.02
1991.1  112658.53  7023.22  6.23
1993.8  111898.19  7218.62  6.45
1996.5  111348.88  7430.80  6.67
1999.1  110751.10  7637.60  6.90
2001.8  110146.23  7841.23  7.12
2004.5  109557.66  8039.10  7.34
2007.1  108925.13  8226.15  7.55
2009.8  108278.19  8419.66  7.78
2012.4  107771.89  8611.29  7.99
2015.1  107306.94  8797.37  8.20
2017.8  106614.12  8962.48  8.41
2020.4  106178.88  9141.21  8.61
2023.1  105866.25  9314.29  8.80
2025.7  105638.00  9487.83  8.98
2028.3  105355.25  9651.42  9.16
2031.0  105030.35  9796.97  9.33
2033.6  104778.45  9944.10  9.49
2036.2  104540.29  10078.95  9.64
2038.9  104031.34  10172.48  9.78
2041.5  103746.86  10287.85  9.92
2044.1  103274.44  10375.84  10.05
2046.8  102957.98  10468.28  10.17
2049.4  102396.83  10531.36  10.28
2052.0  102130.88  10621.92  10.40
2054.6  101781.10  10696.88  10.51
2057.2  101312.13  10761.65  10.62
2059.8  101040.30  10856.63  10.74
2062.4  100281.98  10891.48  10.86
2065.0  99831.83  10955.97  10.97
2067.6  99062.74  10986.27  11.09
2070.2  98543.01  11037.48  11.20
2072.8  97987.32  11079.98  11.31
2075.4  97600.79  11132.19  11.41
2078.0  97040.47  11168.01  11.51
2080.6  96554.70  11210.10  11.61
2083.2  95958.84  11230.10  11.70
2085.8  95531.93  11267.92  11.79
2088.4  94956.13  11286.79  11.89
2090.9  94264.50  11285.34  11.97
2093.5  93503.08  11269.55  12.05
2096.1  92834.35  11263.53  12.13
2098.7  92155.84  11249.26  12.21
2101.2  91316.83  11214.69  12.28
2103.8  90727.33  11209.24  12.35
2106.4  90150.93  11203.78  12.43
2108.9  89587.63  11191.77  12.49
2111.5  88857.30  11161.20  12.56
2114.0  88307.10  11141.55  12.62
2116.6  87858.75  11131.10  12.67
2119.1  87385.04  11115.04  12.72
2121.7  86969.53  11104.84  12.77
2124.2  86619.06  11095.32  12.81
2126.8  85940.53  11046.14  12.85
2129.3  85592.10  11034.10  12.89
2131.9  85074.00  11000.00  12.93
2134.4  84697.82  10989.49  12.97
2136.9  84367.24  10983.13  13.02
2139.4  83919.68  10959.20  13.06
2142.0  83537.30  10953.66  13.11
2144.5  83293.99  10968.14  13.17
2147.0  83096.75  10984.65  13.22
2149.5  82684.70  10979.07  13.28
2152.1  82544.49  11005.71  13.33
2154.6  82463.60  11042.07  13.39
2157.1  82002.07  11026.03  13.45
2159.6  81654.63  11030.57  13.51
2162.1  81514.39  11053.09  13.56
2164.6  81295.80  11061.61  13.61
2167.1  81017.67  11067.07  13.66
2169.6  80727.63  11068.07  13.71
2172.1  80323.08  11053.46  13.76
2174.6  80043.15  11056.30  13.81
2177.1  79671.89  11046.01  13.86
2179.5  79308.13  11041.42  13.92
2182.0  78880.11  11022.48  13.97
2184.5  78418.87  10997.27  14.02
2187.0  77888.68  10967.43  14.08
2189.5  77284.43  10933.10  14.15
2191.9  76622.25  10885.82  14.21
2194.4  76087.24  10853.58  14.26
2196.9  75445.20  10801.20  14.32
2199.3  74874.38  10756.59  14.37
2201.8  74102.30  10681.12  14.41
2204.3  73687.58  10653.54  14.46
2206.7  73143.64  10608.46  14.50
2209.2  72742.57  10576.41  14.54
2211.6  72204.42  10527.42  14.58
2214.1  71938.50  10505.96  14.60
2216.5  71445.50  10447.39  14.62
2219.0  71147.50  10412.62  14.64
2221.4  70812.44  10372.84  14.65
2223.9  70403.38  10314.58  14.65
2226.3  69975.72  10241.44  14.64
2228.7  69488.48  10148.95  14.61
2231.1  68959.69  10043.56  14.56
2233.6  68446.88  9932.10  14.51
2236.0  67986.19  9815.02  14.44
2238.4  67554.82  9697.26  14.35
2240.9  67158.03  9579.46  14.26
2243.3  66699.85  9442.88  14.16
2245.7  66203.57  9295.79  14.04
2248.1  65783.74  9154.39  13.92
2250.5  65343.42  9009.96  13.79
2252.9  64793.30  8846.67  13.65
2255.3  64300.64  8692.58  13.52
2257.7  63911.25  8550.00  13.38
2260.1  63492.19  8405.43  13.24
2262.5  62970.00  8245.00  13.09
2264.9  62509.40  8105.22  12.97
2267.3  61987.50  7961.25  12.84
2269.7  61558.27  7831.02  12.72
2272.1  61080.39  7692.80  12.59
2274.5  60592.60  7562.38  12.48
2276.8  60175.13  7447.40  12.38
2279.2  59663.09  7325.20  12.28
2281.6  59297.70  7217.80  12.17
2284.0  58899.42  7105.35  12.06
2286.3  58501.00  6998.34  11.96
2288.7  58144.29  6889.03  11.85
2291.1  57666.12  6771.91  11.74
2293.4  57291.85  6664.35  11.63
2295.8  56751.72  6535.35  11.52
2298.2  56239.32  6410.53  11.40
2300.5  55661.01  6282.45  11.29
2302.9  55009.50  6152.21  11.18
2305.2  54387.87  6031.94  11.09
2307.6  53802.71  5912.74  10.99
2309.9  53110.75  5791.84  10.91
2312.2  52572.13  5694.96  10.83
2314.6  52047.56  5607.12  10.77
2316.9  51430.45  5499.73  10.69
2319.2  50922.37  5407.52  10.62
2321.6  50361.77  5307.19  10.54
2323.9  49859.38  5216.15  10.46
2326.2  49395.32  5127.99  10.38
2328.6  48953.03  5031.68  10.28
2330.9  48510.00  4937.63  10.18
2333.2  48097.28  4860.40  10.11
2335.5  47708.63  4784.24  10.03
2337.8  47307.84  4704.23  9.94
2340.1  46818.54  4608.53  9.84
2342.4  46442.51  4532.40  9.76
2344.8  46062.88  4451.28  9.66
2347.1  45554.17  4368.85  9.59
2349.4  45071.94  4284.11  9.51
2351.6  44580.32  4201.48  9.42
2353.9  44163.68  4129.23  9.35
2356.2  43696.84  4052.03  9.27
2358.5  43171.80  3977.40  9.21
2360.8  42655.20  3897.60  9.14
2363.1  42272.81  3829.10  9.06
2365.4  41866.50  3760.08  8.98
2367.7  41450.40  3685.05  8.89
2369.9  40970.97  3606.76  8.80
2372.2  40428.60  3518.84  8.70
2374.5  39916.80  3437.57  8.61
2376.7  39367.44  3358.67  8.53
2379.0  38826.25  3279.15  8.45
2381.3  38290.00  3193.75  8.34
2383.5  37835.60  3115.20  8.23
2385.8  37307.69  3038.75  8.15
2388.0  36851.40  2960.33  8.03
2390.3  36396.55  2883.60  7.92
2392.5  35973.00  2811.00  7.81
2394.8  35560.39  2740.66  7.71
2397.0  35148.75  2672.37  7.60
2399.3  34740.78  2610.28  7.51
2401.5  34338.29  2543.41  7.41
2403.8  33864.68  2472.57  7.30
2406.0  33408.60  2407.29  7.21
2408.2  33056.93  2340.62  7.08
2410.4  32689.17  2281.34  6.98
2412.7  32318.33  2224.30  6.88
2414.9  32006.08  2167.90  6.77
2417.1  31646.82  2111.38  6.67
2419.3  31286.40  2059.20  6.58
2421.6  30956.41  2002.08  6.47
2423.8  30619.17  1948.25  6.36
2426.0  30298.24  1889.08  6.23
2428.2  29983.10  1834.24  6.12
2430.4  29690.64  1794.78  6.04
2432.6  29435.00  1753.33  5.96
2434.8  29182.78  1700.91  5.83
2437.0  28849.77  1648.95  5.72
2439.2  28542.13  1601.73  5.61
2441.4  28272.13  1564.43  5.53
2443.6  28061.65  1523.29  5.43
2445.7  27811.79  1473.37  5.30
2447.9  27570.66  1440.38  5.22
2450.1  27302.67  1412.02  5.17
2452.3  26987.54  1372.85  5.09
2454.5  26678.85  1326.14  4.97
2456.6  26348.75  1280.44  4.86
2458.8  26029.58  1249.47  4.80
2461.0  25771.60  1216.41  4.72
2463.1  25507.97  1180.37  4.63
2465.3  25253.48  1157.87  4.58
2467.5  25034.44  1130.22  4.51
2469.6  24797.10  1103.84  4.45
2471.8  24512.83  1069.94  4.36
2473.9  24237.04  1046.41  4.32
2476.1  23915.94  1019.96  4.26
2478.2  23609.77  993.98  4.21
2480.4  23353.11  968.97  4.15
2482.5  23045.01  940.62  4.08
2484.6  22738.03  917.48  4.03
2486.8  22496.14  902.75  4.01
2488.9  22207.16  881.90  3.97
2491.1  21896.00  858.79  3.92
2493.2  21572.97  838.25  3.89
2495.3  21224.13  811.69  3.82
2497.4  20913.90  796.95  3.81
2499.5  20621.62  778.83  3.78
2501.7  20514.97  776.48  3.78
2503.8  20417.32  764.79  3.75
2505.9  20333.44  758.07  3.73
2508.0  20317.15  757.60  3.73
2510.1  20326.65  755.57  3.72
2512.2  20402.91  745.48  3.65
2514.3  20516.24  742.72  3.62
2516.4  20648.07  775.69  3.76
