/*** Spectra Vista SIG Data ***/
name= 13_20220720_TITO_31_avg.sig
comm= Averaged Ref/Tar of files: 12_20220720_TITO_31_1_avg.sig,13_20220720_TITO_31_2_avg.sig
data=
337.3  3176.00  278.14  8.76
338.8  3310.89  264.09  7.98
340.3  3451.29  260.36  7.54
341.8  3619.90  255.41  7.06
343.2  3803.60  258.37  6.79
344.7  3980.67  255.09  6.41
346.2  4159.89  252.30  6.06
347.7  4345.42  257.68  5.93
349.2  4510.80  251.46  5.57
350.6  4749.77  245.89  5.18
352.1  5019.37  250.25  4.99
353.6  5291.75  253.31  4.79
355.1  5556.38  255.77  4.60
356.6  5828.49  260.64  4.47
358.0  6082.27  268.26  4.41
359.5  6365.40  271.04  4.26
361.0  6653.33  268.76  4.04
362.5  7001.61  279.23  3.99
364.0  7326.47  293.17  4.00
365.4  7643.20  301.47  3.94
366.9  7988.23  314.54  3.94
368.4  8314.33  321.20  3.86
369.9  8638.99  322.63  3.73
371.3  9029.05  339.35  3.76
372.8  9403.13  350.08  3.72
374.3  9786.98  360.51  3.68
375.8  10160.15  367.68  3.62
377.2  10553.77  376.60  3.57
378.7  10916.92  380.06  3.48
380.2  11271.10  386.21  3.43
381.7  11746.87  396.11  3.37
383.1  12181.40  406.82  3.34
384.6  12624.30  416.44  3.30
386.1  13048.58  428.67  3.29
387.6  13452.54  439.80  3.27
389.0  13869.00  450.12  3.25
390.5  14306.03  462.48  3.23
392.0  14812.00  473.83  3.20
393.4  15327.09  484.84  3.16
394.9  15807.90  495.28  3.13
396.4  16305.57  508.75  3.12
397.9  16814.28  525.56  3.13
399.3  17305.42  539.79  3.12
400.8  17804.76  552.63  3.10
402.2  18392.04  567.93  3.09
403.7  18951.04  582.16  3.07
405.2  19492.42  596.95  3.06
406.6  20017.74  613.15  3.06
408.1  20562.24  631.40  3.07
409.6  21104.93  646.59  3.06
411.0  21727.19  666.63  3.07
412.5  22334.82  681.97  3.05
414.0  22932.07  699.54  3.05
415.4  23578.38  725.72  3.08
416.9  24193.34  747.14  3.09
418.4  24831.53  767.81  3.09
419.8  25483.04  791.53  3.11
421.3  26143.34  815.54  3.12
422.7  26865.60  841.09  3.13
424.2  27582.19  868.50  3.15
425.7  28288.65  894.95  3.16
427.1  28978.22  921.77  3.18
428.6  29700.59  947.42  3.19
430.0  30377.83  972.36  3.20
431.5  31183.30  1001.04  3.21
432.9  31980.95  1030.46  3.22
434.4  32801.87  1060.80  3.23
435.9  33567.34  1087.40  3.24
437.3  34338.34  1114.34  3.25
438.8  35109.48  1141.53  3.25
440.2  35892.91  1170.40  3.26
441.7  36776.30  1205.43  3.28
443.1  37623.38  1237.30  3.29
444.6  38509.64  1270.77  3.30
446.0  39368.32  1302.88  3.31
447.5  40231.22  1334.29  3.32
448.9  41088.65  1365.07  3.32
450.4  41999.01  1403.97  3.34
451.8  42791.67  1434.71  3.35
453.3  43642.18  1470.44  3.37
454.7  44571.03  1502.01  3.37
456.2  45366.16  1529.26  3.37
457.6  46250.10  1559.62  3.37
459.1  47143.85  1592.78  3.38
460.5  47996.19  1622.65  3.38
462.0  48960.50  1659.97  3.39
463.4  49897.69  1694.30  3.40
464.8  50796.38  1724.60  3.40
466.3  51710.18  1755.67  3.40
467.7  52621.74  1786.12  3.39
469.2  53597.60  1821.44  3.40
470.6  54485.90  1856.21  3.41
472.0  55422.66  1890.21  3.41
473.5  56337.57  1921.94  3.41
474.9  57277.88  1956.46  3.42
476.4  58329.60  1993.17  3.42
477.8  59317.09  2029.66  3.42
479.2  60252.34  2065.98  3.43
480.7  61255.79  2103.22  3.43
482.1  62281.91  2143.42  3.44
483.6  63365.66  2184.84  3.45
485.0  64355.85  2223.50  3.46
486.4  65448.33  2267.24  3.46
487.9  66441.38  2306.09  3.47
489.3  67509.22  2352.50  3.48
490.7  68488.43  2397.37  3.50
492.2  69614.30  2449.93  3.52
493.6  70617.89  2497.97  3.54
495.0  71628.38  2549.28  3.56
496.5  72695.06  2606.56  3.59
497.9  73700.30  2663.86  3.61
499.3  74764.24  2728.37  3.65
500.7  75904.09  2802.69  3.69
502.2  76949.30  2876.83  3.74
503.6  78078.37  2960.46  3.79
505.0  79039.19  3045.95  3.85
506.5  80223.33  3148.06  3.92
507.9  81332.43  3260.73  4.01
509.3  82588.94  3397.17  4.11
510.7  83733.00  3542.32  4.23
512.2  85002.03  3709.26  4.36
513.6  86336.78  3897.94  4.51
515.0  87626.00  4104.39  4.68
516.4  88870.17  4333.91  4.88
517.8  90345.86  4602.67  5.09
519.3  91541.46  4876.59  5.33
520.7  92954.80  5186.66  5.58
522.1  94130.94  5499.10  5.84
523.5  95363.27  5820.40  6.10
524.9  96640.95  6148.70  6.36
526.3  97919.62  6472.06  6.61
527.8  99344.03  6800.24  6.85
529.2  100383.79  7103.54  7.08
530.6  101629.26  7404.39  7.29
532.0  103215.00  7709.53  7.47
533.4  104482.25  7970.79  7.63
534.8  105290.84  8172.93  7.76
536.3  106796.95  8402.02  7.87
537.7  108603.60  8641.86  7.96
539.1  109973.93  8838.03  8.04
540.5  111103.01  9009.21  8.11
541.9  112777.03  9219.15  8.17
543.3  113930.80  9384.24  8.24
544.7  115225.50  9557.55  8.29
546.1  116846.59  9758.95  8.35
547.5  117934.14  9908.48  8.40
549.0  119467.34  10086.85  8.44
550.4  120795.63  10238.66  8.48
551.8  122177.71  10374.69  8.49
553.2  123589.29  10490.07  8.49
554.6  124824.27  10559.77  8.46
556.0  126201.00  10615.01  8.41
557.4  127646.26  10642.47  8.34
558.8  129119.70  10644.14  8.24
560.2  130432.78  10606.57  8.13
561.6  131924.90  10552.29  8.00
563.0  133367.70  10468.92  7.85
564.4  134795.59  10360.80  7.69
565.8  136154.07  10228.74  7.51
567.2  137743.34  10096.56  7.33
568.6  139100.32  9934.11  7.14
570.0  140370.25  9757.04  6.95
571.4  141922.52  9600.61  6.76
572.8  143510.65  9454.29  6.59
574.2  144997.07  9314.40  6.42
575.6  146411.25  9187.34  6.28
577.0  147758.80  9072.29  6.14
578.4  149317.73  8987.23  6.02
579.8  150683.97  8906.41  5.91
581.2  152242.12  8847.32  5.81
582.5  153509.85  8786.15  5.72
583.9  154878.94  8742.51  5.64
585.3  156505.69  8722.40  5.57
586.7  157836.14  8693.51  5.51
588.1  159177.00  8677.98  5.45
589.5  160660.79  8674.46  5.40
590.9  162125.87  8686.50  5.36
592.3  163767.04  8711.49  5.32
593.7  165049.63  8730.30  5.29
595.0  166513.39  8762.53  5.26
596.4  167821.21  8784.05  5.23
597.8  169151.28  8803.53  5.20
599.2  170557.20  8825.21  5.17
600.6  172130.13  8849.64  5.14
602.0  173287.67  8843.69  5.10
603.3  174912.44  8852.54  5.06
604.7  176400.67  8840.83  5.01
606.1  177748.60  8815.90  4.96
607.5  179219.39  8786.55  4.90
608.9  180736.86  8754.49  4.84
610.2  181981.02  8705.55  4.78
611.6  183407.75  8665.26  4.72
613.0  184801.05  8622.94  4.67
614.4  186046.00  8577.92  4.61
615.8  187348.69  8546.37  4.56
617.1  188733.30  8521.94  4.52
618.5  190187.40  8511.13  4.48
619.9  191549.94  8504.84  4.44
621.3  193012.77  8511.28  4.41
622.6  194434.96  8528.96  4.39
624.0  195736.05  8550.47  4.37
625.4  197034.75  8583.03  4.36
626.8  198441.43  8631.20  4.35
628.1  199640.52  8670.72  4.34
629.5  201321.33  8734.33  4.34
630.9  202762.23  8783.79  4.33
632.2  204005.55  8820.70  4.32
633.6  205465.75  8853.55  4.31
635.0  206841.47  8873.56  4.29
636.3  208208.39  8878.20  4.26
637.7  209423.78  8852.23  4.23
639.1  210904.17  8824.67  4.18
640.4  212247.29  8779.93  4.14
641.8  213305.84  8717.10  4.09
643.2  214734.83  8663.67  4.03
644.5  215937.04  8613.22  3.99
645.9  217473.23  8575.91  3.94
647.2  218949.21  8552.32  3.91
648.6  220667.63  8555.05  3.88
650.0  222001.20  8546.09  3.85
651.3  222281.27  8509.60  3.83
652.7  223266.14  8501.83  3.81
654.0  224973.42  8525.23  3.79
655.4  226523.95  8547.78  3.77
656.8  226784.35  8522.88  3.76
658.1  227749.10  8515.10  3.74
659.5  229839.84  8534.54  3.71
660.8  231465.00  8545.40  3.69
662.2  232295.47  8536.32  3.67
663.5  233907.69  8559.61  3.66
664.9  235110.85  8576.80  3.65
666.2  235889.80  8590.24  3.64
667.6  237597.54  8651.68  3.64
668.9  238584.80  8702.70  3.65
670.3  239606.42  8763.12  3.66
671.6  240989.19  8849.27  3.67
673.0  242036.44  8948.51  3.70
674.3  243133.15  9053.43  3.72
675.7  244326.10  9173.32  3.75
677.0  245332.81  9295.08  3.79
678.4  246584.56  9443.70  3.83
679.7  247590.37  9597.03  3.88
681.1  248770.54  9774.92  3.93
682.4  249822.09  9961.84  3.99
683.8  250949.19  10171.05  4.05
685.1  251826.75  10392.12  4.13
686.4  253028.20  10662.66  4.21
687.8  254198.84  10988.64  4.32
689.1  255133.34  11376.43  4.46
690.5  256317.25  11895.21  4.64
691.8  257117.75  12560.96  4.89
693.1  258293.05  13470.06  5.22
694.5  259312.09  14626.63  5.64
695.8  260396.50  16087.28  6.18
697.1  261477.13  17883.45  6.84
698.5  262419.57  20041.62  7.64
699.8  263411.70  22562.60  8.57
701.1  264473.64  25445.89  9.62
702.5  265172.97  28615.41  10.79
703.8  266070.00  32066.89  12.05
705.1  267096.70  35768.52  13.39
706.5  268041.32  39645.63  14.79
707.8  268948.73  43674.99  16.24
709.1  269749.26  47806.02  17.72
710.5  270794.81  52069.77  19.23
711.8  271573.12  56369.52  20.76
713.1  272483.70  60754.76  22.30
714.4  273297.65  65163.79  23.84
715.8  274048.42  69584.18  25.39
717.1  275251.43  74128.35  26.93
718.4  276109.87  78575.36  28.46
719.7  277120.50  83044.27  29.97
721.0  277601.25  87317.57  31.45
722.4  278308.34  91597.78  32.91
723.7  279187.68  95855.99  34.33
725.0  280150.02  100057.96  35.72
726.3  281025.21  104120.26  37.05
727.6  281512.14  107918.45  38.34
729.0  282332.84  111697.92  39.56
730.3  283050.17  115296.81  40.73
731.6  283892.31  118790.48  41.84
732.9  284649.38  122087.24  42.89
734.2  285373.69  125243.14  43.89
735.5  286330.62  128331.12  44.82
736.8  287046.50  131174.20  45.70
738.1  287775.92  133857.08  46.51
739.5  288645.48  136449.11  47.27
740.8  289294.50  138781.18  47.97
742.1  289983.12  141007.03  48.63
743.4  290687.50  143109.76  49.23
744.7  291593.64  145182.55  49.79
746.0  292408.03  147073.22  50.30
747.3  292903.63  148675.59  50.76
748.6  293592.92  150254.44  51.18
749.9  294289.67  151725.35  51.56
751.2  294980.72  153091.07  51.90
752.5  295817.52  154447.76  52.21
753.8  296407.57  155578.85  52.49
755.1  297032.67  156645.92  52.74
756.4  297569.60  157582.78  52.96
757.7  298476.18  158630.87  53.15
759.0  300110.16  160007.72  53.32
760.3  301224.00  161042.64  53.46
761.6  302663.67  162215.92  53.60
762.9  303171.13  162841.14  53.71
764.2  303512.70  163344.23  53.82
765.5  303779.02  163761.59  53.91
766.8  304200.27  164224.02  53.99
768.1  304706.27  164704.93  54.05
769.3  305283.65  165193.88  54.11
770.6  305875.49  165682.81  54.17
771.9  306567.48  166200.57  54.21
773.2  306956.67  166538.01  54.25
774.5  307516.74  166964.90  54.29
775.8  308137.24  167407.35  54.33
777.1  308693.64  167803.09  54.36
778.4  309016.45  168064.96  54.39
779.6  309749.37  168546.42  54.41
780.9  310210.00  168866.57  54.44
782.2  310652.38  169177.31  54.46
783.5  310952.59  169409.78  54.48
784.8  311450.67  169747.85  54.50
786.0  311832.27  170007.51  54.52
787.3  312200.53  170267.16  54.54
788.6  312601.07  170546.09  54.56
789.9  313043.04  170834.34  54.57
791.2  313637.53  171221.03  54.59
792.4  314312.21  171608.97  54.60
793.7  314767.17  171896.60  54.61
795.0  315356.12  172256.23  54.62
796.2  315959.50  172631.72  54.64
797.5  316657.28  173038.48  54.65
798.8  317289.19  173428.45  54.66
800.0  317917.77  173802.83  54.67
801.3  318377.94  174086.24  54.68
802.6  318956.37  174427.87  54.69
803.8  319581.09  174781.45  54.69
805.1  320025.71  175073.97  54.71
806.4  320516.25  175367.95  54.71
807.7  320990.52  175658.35  54.72
808.9  321486.81  175977.21  54.74
810.2  322035.88  176273.79  54.74
811.4  322497.57  176577.11  54.75
812.7  323117.71  176931.74  54.76
814.0  323864.22  177376.88  54.77
815.2  324474.04  177729.16  54.77
816.5  324862.24  177979.16  54.79
817.7  325281.49  178242.53  54.80
819.0  325780.86  178543.50  54.80
820.2  325974.00  178669.97  54.81
821.5  326622.19  179059.90  54.82
822.7  326968.51  179274.99  54.83
824.0  327228.75  179463.54  54.84
825.2  327732.75  179750.01  54.85
826.5  328009.71  179934.50  54.86
827.7  328515.02  180228.22  54.86
829.0  328893.75  180463.48  54.87
830.2  329213.38  180655.92  54.88
831.5  329635.95  180921.62  54.89
832.7  329934.59  181104.82  54.89
834.0  330221.03  181292.68  54.90
835.2  330592.35  181503.64  54.90
836.4  330894.49  181691.81  54.91
837.7  331243.30  181924.37  54.92
838.9  331634.12  182186.79  54.94
840.1  331966.80  182407.27  54.95
841.4  332362.39  182677.72  54.96
842.6  332706.44  182925.17  54.98
843.8  333014.04  183129.47  54.99
845.1  333497.54  183406.48  54.99
846.3  333885.55  183651.87  55.00
847.5  334249.65  183897.41  55.02
848.8  334605.80  184137.22  55.03
850.0  334885.14  184344.94  55.05
851.2  335396.70  184663.37  55.06
852.5  335796.04  184891.59  55.06
853.7  336244.13  185164.59  55.07
854.9  336669.34  185432.85  55.08
856.1  337026.30  185672.44  55.09
857.4  337214.60  185825.97  55.11
858.6  337677.91  186095.44  55.11
859.8  338052.82  186306.23  55.11
861.0  338434.20  186569.21  55.13
862.2  338873.76  186812.52  55.13
863.5  339217.51  187021.36  55.13
864.7  339707.50  187302.12  55.14
865.9  340098.90  187527.57  55.14
867.1  340360.86  187701.20  55.15
868.3  340779.58  187957.26  55.16
869.5  341143.68  188199.55  55.17
870.8  341700.00  188502.20  55.17
872.0  342137.35  188753.27  55.17
873.2  342557.50  188972.66  55.17
874.4  342975.27  189212.44  55.17
875.6  343351.60  189425.74  55.17
876.8  343784.07  189690.34  55.18
878.0  344209.19  189942.40  55.18
879.2  344691.83  190205.60  55.18
880.4  345217.94  190485.01  55.18
881.6  345643.93  190722.26  55.18
882.8  346123.60  190946.29  55.17
884.0  346617.44  191236.76  55.17
885.2  347058.14  191496.29  55.18
886.5  347699.67  191814.04  55.17
887.7  348111.68  192066.62  55.17
888.8  348700.93  192397.71  55.18
890.0  349214.47  192679.01  55.17
891.2  349766.49  192974.26  55.17
892.4  350388.85  193276.33  55.16
893.6  350954.88  193564.40  55.15
894.8  351818.54  194017.00  55.15
896.0  352602.17  194438.31  55.14
897.2  353380.63  194860.10  55.14
898.4  354009.15  195236.63  55.15
899.6  354542.69  195513.03  55.15
900.8  354983.55  195706.95  55.13
902.0  355234.43  195823.93  55.13
903.2  355618.34  195975.48  55.11
904.3  355971.65  196181.42  55.11
905.5  356450.48  196508.97  55.13
906.7  357071.00  196804.68  55.12
907.9  357559.94  197072.65  55.12
909.1  357915.38  197204.62  55.10
910.2  358215.89  197315.23  55.08
911.4  358475.82  197440.53  55.08
912.6  358653.54  197534.38  55.08
913.8  358851.74  197677.55  55.09
915.0  359252.08  197882.72  55.08
916.2  359505.25  197979.28  55.07
917.3  359515.88  197993.44  55.07
918.5  359899.97  198092.12  55.04
919.7  360227.75  198213.91  55.02
920.8  360320.39  198233.23  55.02
922.0  360343.96  198257.68  55.02
923.2  360655.75  198329.30  54.99
924.4  360905.07  198450.84  54.99
925.5  361272.50  198553.90  54.96
926.7  361822.34  198800.93  54.94
927.9  362608.60  199161.71  54.92
929.0  363926.48  199789.76  54.90
930.2  365943.80  200818.79  54.88
931.4  368276.29  201951.28  54.84
932.5  370606.04  203242.16  54.84
933.7  371970.77  203855.58  54.80
934.9  372609.28  204110.50  54.78
936.0  372344.92  203814.34  54.74
937.2  370497.70  202700.68  54.71
938.3  369095.06  201800.20  54.67
939.5  367869.00  200972.54  54.63
940.7  368009.25  201002.67  54.62
941.8  369357.34  201637.67  54.59
943.0  370748.75  202229.85  54.55
944.2  371570.99  202530.15  54.51
945.3  371302.75  202207.44  54.46
946.5  370702.58  201719.28  54.42
947.6  370975.07  201594.42  54.34
948.8  370749.44  201386.87  54.32
949.9  370947.50  201244.60  54.25
951.1  370737.31  200859.21  54.18
952.2  370736.00  200544.63  54.09
953.4  370597.54  200122.57  54.00
954.5  370691.10  199903.53  53.93
955.7  370566.00  199614.00  53.87
956.8  370502.64  199278.89  53.79
958.0  370126.50  198844.77  53.72
959.1  370076.14  198572.44  53.66
960.3  369876.46  198268.02  53.60
961.4  369807.17  198096.46  53.57
962.6  369934.25  198148.81  53.56
963.7  369868.33  197920.04  53.51
964.9  369927.18  197792.16  53.47
966.0  369817.65  197661.03  53.45
967.2  370030.13  197715.02  53.43
968.3  369669.15  197576.40  53.45
969.5  369504.96  197439.86  53.43
970.6  369568.00  197541.52  53.45
971.8  370089.30  197627.63  53.40
972.9  369882.55  197556.65  53.41
974.0  370168.09  197731.29  53.42
975.2  369893.21  197646.20  53.43
976.3  369818.54  197670.20  53.45
977.5  369981.21  197708.09  53.44
978.6  370092.50  197710.37  53.42
979.7  370218.63  197798.48  53.43
980.9  370134.28  197786.44  53.44
982.0  370121.44  197906.24  53.47
983.2  369994.86  197820.43  53.47
984.3  369874.64  197764.53  53.47
985.4  370384.43  197960.82  53.45
986.6  370215.03  198075.79  53.50
987.7  371007.33  198739.17  53.57
988.9  370552.50  198603.01  53.60
990.0  371005.72  198984.37  53.63
993.1  316340.50  168269.64  53.19
996.9  316503.29  168883.41  53.36
1000.7  317278.01  169771.05  53.51
1004.5  317716.04  170455.81  53.65
1008.4  317491.40  170791.58  53.79
1012.2  317567.44  171226.66  53.92
1016.0  317637.60  171680.71  54.05
1019.8  317740.50  172131.26  54.17
1023.7  317609.69  172397.60  54.28
1027.5  317154.84  172443.91  54.37
1031.3  317128.68  172672.73  54.45
1035.1  316859.55  172711.07  54.51
1038.9  316730.06  172801.63  54.56
1042.7  316483.92  172830.49  54.61
1046.5  316375.25  172877.96  54.64
1050.3  316375.18  172975.50  54.67
1054.2  316076.54  172914.71  54.71
1058.0  315587.07  172697.76  54.72
1061.8  315497.34  172699.40  54.74
1065.6  315259.90  172579.16  54.74
1069.4  315105.90  172512.17  54.75
1073.2  314660.09  172262.90  54.75
1077.0  314196.62  171967.95  54.73
1080.8  313894.79  171708.72  54.70
1084.6  313210.86  171242.17  54.67
1088.4  312816.29  170946.88  54.65
1092.2  312185.25  170478.98  54.61
1096.0  311697.75  170069.88  54.56
1099.8  311265.83  169651.01  54.50
1103.6  310606.78  169101.26  54.44
1107.4  309755.24  168428.54  54.37
1111.2  309464.40  168061.84  54.31
1114.9  308835.05  167467.31  54.23
1118.7  308255.07  166837.83  54.12
1122.5  307636.77  166082.49  53.99
1126.3  306690.80  165041.11  53.81
1130.1  306288.49  164068.19  53.57
1133.9  304985.45  162346.34  53.23
1137.7  303799.70  160422.26  52.81
1141.4  302294.21  158108.99  52.30
1145.2  301677.28  156118.59  51.75
1149.0  300722.92  154043.42  51.22
1152.8  299374.98  152018.86  50.78
1156.6  297988.72  150345.31  50.45
1160.3  296526.00  148972.34  50.24
1164.1  294544.05  147606.39  50.11
1167.9  293046.36  146693.65  50.06
1171.7  291993.19  146087.82  50.03
1175.4  290948.27  145534.76  50.02
1179.2  290001.50  145008.19  50.00
1183.0  289656.34  144758.67  49.98
1186.7  289233.70  144466.10  49.95
1190.5  288460.13  143999.06  49.92
1194.3  287536.62  143505.71  49.91
1198.0  286533.64  143027.80  49.92
1201.8  285256.60  142461.51  49.94
1205.6  284180.50  142082.37  50.00
1209.3  283420.55  141916.64  50.07
1213.1  282685.36  141785.98  50.16
1216.8  281949.57  141693.09  50.25
1220.6  281039.74  141518.34  50.36
1224.3  280021.92  141274.78  50.45
1228.1  278904.10  141004.90  50.56
1231.9  277755.49  140664.36  50.64
1235.6  276426.30  140199.34  50.72
1239.4  275230.94  139796.59  50.79
1243.1  274155.38  139411.32  50.85
1246.9  273129.69  139011.77  50.90
1250.6  272326.63  138689.14  50.93
1254.3  271425.55  138301.66  50.95
1258.1  270592.00  137920.88  50.97
1261.8  269501.94  137370.21  50.97
1265.6  268309.16  136737.06  50.96
1269.3  267220.37  136098.76  50.93
1273.1  267236.39  135989.56  50.89
1276.8  267402.00  135923.07  50.83
1280.6  267128.55  135601.08  50.76
1284.3  265819.40  134710.77  50.68
1288.0  264584.87  133800.53  50.57
1291.8  263577.89  132917.55  50.43
1295.5  262529.67  131969.52  50.27
1299.2  261485.28  130966.24  50.09
1302.9  260222.14  129756.79  49.86
1306.7  258856.79  128406.82  49.61
1310.4  257565.71  126979.59  49.30
1314.1  256355.18  125499.94  48.96
1317.9  255294.69  123964.94  48.56
1321.6  254088.22  122261.33  48.12
1325.3  252696.94  120334.90  47.62
1329.0  251533.10  118434.55  47.09
1332.8  249772.60  116153.16  46.50
1336.5  248236.00  113962.40  45.91
1340.2  247853.67  112298.82  45.31
1343.9  247317.92  110572.67  44.71
1347.6  246427.50  108710.86  44.11
1351.4  246171.00  107175.12  43.54
1355.1  245944.24  105681.47  42.97
1358.8  245784.00  104141.59  42.37
1362.5  245277.70  102325.23  41.72
1366.2  244026.50  99940.30  40.95
1369.9  242704.94  97212.58  40.05
1373.6  241045.47  93883.44  38.95
1377.3  239287.05  89894.82  37.57
1381.0  238167.34  85318.69  35.82
1384.8  236591.88  79736.43  33.70
1388.4  234795.17  73645.62  31.37
1392.2  233272.67  67356.49  28.87
1395.9  231905.79  61115.79  26.35
1399.6  230628.10  55329.99  23.99
1403.3  229732.87  50304.23  21.90
1407.0  228898.15  46093.70  20.14
1410.7  228008.56  42728.44  18.74
1414.3  227133.38  40164.97  17.68
1418.1  226224.92  38299.20  16.93
1421.7  225507.16  36993.39  16.40
1425.4  224733.44  36112.04  16.07
1429.1  223975.32  35568.72  15.88
1432.8  222735.17  35190.56  15.80
1436.5  222090.98  35081.22  15.80
1440.2  221412.49  35095.42  15.85
1443.9  220353.47  35133.62  15.94
1447.6  219065.00  35189.12  16.06
1451.2  218184.18  35336.97  16.20
1454.9  217129.80  35489.72  16.34
1458.6  216173.04  35744.73  16.54
1462.3  215157.07  36109.11  16.78
1466.0  213971.86  36594.99  17.10
1469.7  212547.51  37205.35  17.50
1473.3  211634.59  38042.32  17.98
1477.0  210004.15  38848.41  18.50
1480.7  208624.07  39755.47  19.06
1484.4  207009.86  40636.81  19.63
1488.0  205700.00  41598.51  20.22
1491.7  204341.70  42536.91  20.82
1495.4  202906.77  43458.59  21.42
1499.0  201550.00  44364.94  22.01
1502.7  200449.33  45322.34  22.61
1506.4  199257.77  46227.00  23.20
1510.0  198051.69  47097.36  23.78
1513.7  196803.40  47922.80  24.35
1517.4  195657.17  48735.73  24.91
1521.0  194618.74  49544.40  25.46
1524.7  193582.46  50297.62  25.98
1528.3  192516.69  51012.33  26.50
1532.0  191499.64  51694.34  26.99
1535.7  190321.42  52278.99  27.47
1539.3  189233.21  52864.07  27.94
1543.0  188419.09  53486.05  28.39
1546.6  187801.25  54135.11  28.83
1550.3  186977.40  54675.80  29.24
1553.9  186067.97  55154.79  29.64
1557.6  185006.80  55545.68  30.02
1561.2  183930.75  55883.26  30.38
1564.9  182832.99  56188.62  30.73
1568.5  181691.19  56443.35  31.07
1572.2  180704.08  56719.18  31.39
1575.8  179816.00  57006.00  31.70
1579.5  178969.70  57272.72  32.00
1583.1  178124.03  57522.99  32.29
1586.8  177065.00  57673.89  32.57
1590.4  176153.42  57853.53  32.84
1594.0  175047.12  57946.61  33.10
1597.7  174152.23  58092.68  33.36
1601.3  173112.19  58171.17  33.60
1604.9  172073.35  58220.51  33.83
1608.6  170932.27  58203.52  34.05
1612.2  169983.00  58220.67  34.25
1615.8  168978.72  58192.34  34.44
1619.5  167981.13  58141.18  34.61
1623.1  166887.70  58027.84  34.77
1626.7  165855.30  57917.39  34.92
1630.3  164835.96  57780.68  35.05
1634.0  163884.00  57653.45  35.18
1637.6  163046.74  57517.82  35.28
1641.2  162200.23  57337.72  35.35
1644.8  161187.71  57042.69  35.39
1648.5  160278.62  56738.31  35.40
1652.1  159463.95  56422.27  35.38
1655.7  158677.90  56084.48  35.34
1659.3  157964.53  55769.11  35.30
1662.9  156775.42  55295.32  35.27
1666.6  155563.27  54825.62  35.24
1670.2  154353.47  54349.30  35.21
1673.8  153131.80  53840.60  35.16
1677.4  152161.50  53390.33  35.09
1681.0  151461.08  52978.30  34.98
1684.6  151142.34  52632.33  34.82
1688.2  150605.53  52141.07  34.62
1691.8  150036.02  51632.12  34.41
1695.4  149668.00  51177.70  34.19
1699.0  149364.60  50747.37  33.98
1702.6  149081.00  50298.40  33.74
1706.2  148571.53  49747.17  33.48
1709.8  147796.02  49108.66  33.23
1713.4  147186.26  48560.42  32.99
1717.0  146438.00  48022.49  32.79
1720.6  145762.77  47538.21  32.61
1724.2  145175.48  47090.63  32.44
1727.8  144570.30  46656.32  32.27
1731.4  144163.94  46291.99  32.11
1735.0  143987.71  46002.04  31.95
1738.6  143762.25  45658.56  31.76
1742.2  143258.23  45177.99  31.54
1745.8  142679.34  44639.56  31.29
1749.4  141835.24  43992.64  31.02
1753.0  140545.60  43207.20  30.74
1756.6  139148.19  42399.02  30.47
1760.1  138016.42  41701.54  30.21
1763.7  136558.67  40933.31  29.97
1767.3  135345.83  40272.40  29.76
1770.9  134290.43  39676.77  29.55
1774.5  133075.01  39052.32  29.35
1778.0  132106.74  38535.23  29.17
1781.6  131145.98  38082.89  29.04
1785.2  130169.09  37661.59  28.93
1788.8  129180.50  37280.34  28.86
1792.3  128112.34  36904.93  28.81
1795.9  127635.85  36718.33  28.77
1799.5  127150.67  36553.45  28.75
1803.1  126678.07  36387.94  28.72
1806.6  127226.78  36499.48  28.69
1810.2  128206.75  36728.22  28.65
1813.8  128819.85  36863.43  28.62
1817.3  128640.00  36771.94  28.59
1820.9  127743.22  36468.19  28.55
1824.5  126559.47  36062.72  28.49
1828.0  125619.55  35692.14  28.41
1831.6  124736.52  35304.19  28.30
1835.2  123986.67  34901.27  28.15
1838.7  123627.80  34513.09  27.92
1842.3  123375.00  34079.29  27.62
1845.8  122845.61  33444.94  27.23
1849.4  122438.21  32714.28  26.72
1852.9  121969.20  31798.97  26.07
1856.5  121277.92  30611.31  25.24
1860.0  120683.64  29213.11  24.21
1863.6  120319.25  27669.68  23.00
1867.1  119938.53  25881.94  21.58
1870.7  119785.41  23805.47  19.87
1874.2  119371.50  21379.74  17.91
1877.8  118602.17  18852.71  15.90
1881.3  117542.38  16318.46  13.88
1884.9  116717.29  14021.18  12.01
1888.4  115828.46  11933.02  10.30
1891.9  114827.97  10207.07  8.89
1895.5  113722.90  8882.69  7.81
1899.0  113007.13  7964.34  7.05
1901.3  144392.50  6885.13  4.77
1904.1  144193.78  6337.13  4.39
1906.8  143502.75  5914.95  4.12
1909.6  142017.75  5581.94  3.93
1912.4  140610.62  5334.07  3.79
1915.1  139545.04  5163.81  3.70
1917.9  138361.44  5044.98  3.65
1920.6  137420.98  4965.99  3.61
1923.3  136525.91  4909.95  3.60
1926.1  135459.19  4880.16  3.60
1928.8  134486.00  4867.50  3.62
1931.6  133717.70  4879.02  3.65
1934.3  132980.17  4907.70  3.69
1937.0  132248.46  4954.51  3.75
1939.8  131407.13  5006.90  3.81
1942.5  130354.13  5051.75  3.88
1945.2  128973.90  5100.91  3.95
1947.9  127834.70  5162.16  4.04
1950.7  126938.59  5241.04  4.13
1953.4  125490.59  5314.58  4.24
1956.1  124349.44  5401.64  4.34
1958.8  123336.37  5501.50  4.46
1961.5  122123.10  5601.65  4.59
1964.2  120867.34  5712.53  4.73
1966.9  119558.42  5825.94  4.87
1969.6  118523.25  5952.38  5.02
1972.3  117346.51  6085.38  5.19
1975.0  116458.26  6234.83  5.35
1977.7  115517.07  6386.57  5.53
1980.4  114549.65  6545.42  5.71
1983.1  113618.48  6708.57  5.90
1985.8  112833.57  6882.79  6.10
1988.4  111959.25  7055.75  6.30
1991.1  111162.80  7234.74  6.51
1993.8  110415.05  7415.73  6.72
1996.5  109872.20  7620.37  6.94
1999.1  109277.65  7815.32  7.15
2001.8  108689.35  8013.90  7.37
2004.5  108110.95  8211.02  7.59
2007.1  107497.88  8400.24  7.81
2009.8  106869.88  8584.77  8.03
2012.4  106382.45  8776.08  8.25
2015.1  105921.29  8960.33  8.46
2017.8  105251.13  9123.28  8.67
2020.4  104818.52  9306.00  8.88
2023.1  104516.22  9485.88  9.08
2025.7  104295.75  9668.75  9.27
2028.3  104013.00  9833.42  9.45
2031.0  103695.29  9985.84  9.63
2033.6  103460.41  10143.12  9.80
2036.2  103232.03  10288.84  9.97
2038.9  102732.87  10397.59  10.12
2041.5  102442.63  10521.02  10.27
2044.1  101972.70  10616.18  10.41
2046.8  101659.50  10727.10  10.55
2049.4  101111.40  10803.23  10.68
2052.0  100843.80  10904.66  10.81
2054.6  100504.69  10999.85  10.94
2057.2  100038.15  11088.06  11.08
2059.8  99769.60  11199.41  11.23
2062.4  99026.79  11251.04  11.36
2065.0  98587.33  11339.14  11.50
2067.6  97827.16  11392.69  11.65
2070.2  97313.96  11472.23  11.79
2072.8  96774.62  11540.87  11.93
2075.4  96393.29  11622.19  12.06
2078.0  95834.96  11682.94  12.19
2080.6  95356.80  11754.60  12.33
2083.2  94781.92  11805.42  12.46
2085.8  94375.82  11870.68  12.58
2088.4  93806.69  11916.17  12.70
2090.9  93113.92  11941.08  12.82
2093.5  92372.18  11956.64  12.94
2096.1  91711.18  11981.57  13.06
2098.7  91042.55  11995.84  13.18
2101.2  90226.25  11988.69  13.29
2103.8  89646.58  12012.70  13.40
2106.4  89076.73  12034.53  13.51
2108.9  88529.80  12058.55  13.62
2111.5  87802.75  12055.28  13.73
2114.0  87255.83  12068.38  13.83
2116.6  86815.32  12093.60  13.93
2119.1  86342.90  12110.06  14.03
2121.7  85939.22  12128.60  14.11
2124.2  85593.35  12151.70  14.20
2126.8  84919.47  12126.49  14.28
2129.3  84575.70  12141.80  14.36
2131.9  84064.20  12131.90  14.43
2134.4  83702.20  12135.57  14.50
2136.9  83377.86  12146.85  14.57
2139.4  82942.13  12135.14  14.63
2142.0  82556.43  12135.15  14.70
2144.5  82332.79  12155.18  14.76
2147.0  82138.65  12180.60  14.83
2149.5  81719.90  12171.67  14.89
2152.1  81581.02  12197.12  14.95
2154.6  81501.40  12228.67  15.00
2157.1  81041.50  12206.87  15.06
2159.6  80707.69  12204.59  15.12
2162.1  80562.31  12221.31  15.17
2164.6  80350.50  12227.25  15.22
2167.1  80080.96  12220.72  15.26
2169.6  79797.90  12216.69  15.31
2172.1  79395.13  12188.01  15.35
2174.6  79129.23  12191.46  15.41
2177.1  78759.81  12184.38  15.47
2179.5  78399.75  12171.06  15.52
2182.0  77993.03  12149.16  15.58
2184.5  77535.66  12127.96  15.64
2187.0  77000.77  12098.26  15.71
2189.5  76409.59  12049.77  15.77
2191.9  75749.44  11993.76  15.83
2194.4  75227.74  11954.21  15.89
2196.9  74592.00  11899.20  15.95
2199.3  74022.50  11845.30  16.00
2201.8  73266.45  11763.95  16.06
2204.3  72855.62  11727.24  16.10
2206.7  72316.24  11668.56  16.14
2209.2  71930.90  11632.69  16.17
2211.6  71398.80  11568.16  16.20
2214.1  71136.28  11537.03  16.22
2216.5  70640.90  11464.31  16.23
2219.0  70350.35  11425.82  16.24
2221.4  70024.07  11376.90  16.25
2223.9  69618.72  11301.28  16.23
2226.3  69194.78  11213.27  16.21
2228.7  68717.59  11106.40  16.16
2231.1  68198.63  10976.63  16.10
2233.6  67690.70  10841.00  16.02
2236.0  67235.01  10706.29  15.92
2238.4  66811.07  10571.17  15.82
2240.9  66424.20  10428.76  15.70
2243.3  65966.03  10268.58  15.57
2245.7  65483.44  10099.25  15.42
2248.1  65069.88  9930.54  15.26
2250.5  64632.10  9754.97  15.09
2252.9  64083.18  9559.28  14.92
2255.3  63599.16  9376.63  14.74
2257.7  63213.75  9208.75  14.57
2260.1  62799.89  9037.53  14.39
2262.5  62280.00  8846.25  14.20
2264.9  61835.52  8676.77  14.03
2267.3  61305.00  8507.50  13.88
2269.7  60877.26  8352.75  13.72
2272.1  60408.01  8199.90  13.57
2274.5  59929.95  8052.81  13.44
2276.8  59521.54  7919.43  13.31
2279.2  59033.70  7776.19  13.17
2281.6  58667.28  7650.67  13.04
2284.0  58259.33  7524.50  12.92
2286.3  57874.00  7402.40  12.79
2288.7  57521.84  7281.09  12.66
2291.1  57048.28  7150.54  12.53
2293.4  56679.70  7028.82  12.40
2295.8  56149.17  6890.71  12.27
2298.2  55629.96  6748.20  12.13
2300.5  55063.30  6602.01  11.99
2302.9  54432.13  6458.33  11.86
2305.2  53804.63  6322.92  11.75
2307.6  53230.14  6204.19  11.66
2309.9  52556.63  6077.30  11.56
2312.2  52025.75  5975.25  11.49
2314.6  51508.07  5882.69  11.42
2316.9  50898.71  5777.89  11.35
2319.2  50382.00  5679.64  11.27
2321.6  49832.22  5571.96  11.18
2323.9  49359.38  5471.36  11.08
2326.2  48886.69  5375.78  11.00
2328.6  48435.76  5275.95  10.89
2330.9  48006.01  5183.07  10.80
2333.2  47593.25  5098.53  10.71
2335.5  47215.09  5018.31  10.63
2337.8  46830.67  4927.99  10.52
2340.1  46337.33  4828.24  10.42
2342.4  45955.00  4739.59  10.31
2344.8  45596.19  4654.60  10.21
2347.1  45105.91  4563.51  10.12
2349.4  44613.37  4478.28  10.04
2351.6  44121.76  4391.52  9.95
2353.9  43704.42  4314.04  9.87
2356.2  43242.45  4236.84  9.80
2358.5  42722.40  4153.80  9.72
2360.8  42218.40  4069.80  9.64
2363.1  41856.40  4000.15  9.56
2365.4  41438.52  3930.99  9.49
2367.7  41031.45  3856.05  9.40
2369.9  40563.06  3777.07  9.31
2372.2  40028.70  3689.40  9.22
2374.5  39518.33  3607.93  9.13
2376.7  38975.37  3515.50  9.02
2379.0  38442.35  3430.38  8.92
2381.3  37926.88  3346.88  8.82
2383.5  37479.20  3266.27  8.71
2385.8  36954.69  3184.36  8.62
2388.0  36497.40  3113.73  8.53
2390.3  36049.45  3036.39  8.42
2392.5  35631.00  2962.50  8.31
2394.8  35224.62  2888.88  8.20
2397.0  34812.05  2816.45  8.09
2399.3  34398.12  2751.91  8.00
2401.5  34012.13  2685.82  7.90
2403.8  33555.22  2615.76  7.80
2406.0  33110.60  2542.32  7.68
2408.2  32753.05  2477.75  7.56
2410.4  32384.89  2421.77  7.48
2412.7  32026.16  2362.54  7.38
2414.9  31707.23  2307.05  7.28
2417.1  31351.54  2243.14  7.15
2419.3  30988.80  2184.00  7.05
2421.6  30660.94  2134.48  6.96
2423.8  30342.00  2086.02  6.88
2426.0  30025.58  2035.14  6.78
2428.2  29694.00  1977.97  6.66
2430.4  29417.71  1927.11  6.55
2432.6  29180.00  1890.00  6.48
2434.8  28912.10  1837.92  6.36
2437.0  28597.89  1774.89  6.21
2439.2  28314.04  1733.52  6.12
2441.4  28021.62  1699.06  6.06
2443.6  27802.59  1656.28  5.96
2445.7  27561.89  1612.21  5.85
2447.9  27320.16  1570.85  5.75
2450.1  27070.84  1531.46  5.66
2452.3  26754.62  1491.08  5.57
2454.5  26455.46  1455.57  5.50
2456.6  26118.70  1410.62  5.40
2458.8  25804.35  1379.96  5.35
2461.0  25544.54  1346.16  5.27
2463.1  25278.81  1311.32  5.19
2465.3  25028.49  1282.25  5.12
2467.5  24802.13  1259.29  5.08
2469.6  24578.94  1228.77  5.00
2471.8  24315.74  1201.33  4.94
2473.9  24044.72  1176.50  4.89
2476.1  23745.32  1145.09  4.82
2478.2  23432.68  1113.94  4.75
2480.4  23140.13  1086.02  4.69
2482.5  22830.18  1072.23  4.70
2484.6  22556.88  1042.14  4.62
2486.8  22331.29  1024.43  4.59
2488.9  22047.35  994.35  4.51
2491.1  21729.40  979.77  4.51
2493.2  21387.36  965.99  4.52
2495.3  21049.77  939.96  4.47
2497.4  20769.01  919.72  4.43
2499.5  20475.97  910.31  4.45
2501.7  20360.90  895.62  4.40
2503.8  20260.60  890.17  4.39
2505.9  20192.50  881.93  4.37
2508.0  20166.06  869.27  4.31
2510.1  20152.29  862.87  4.28
2512.2  20251.52  869.33  4.29
2514.3  20380.98  873.24  4.28
2516.4  20559.42  881.58  4.29
