/*** Spectra Vista SIG Data ***/
name= 14_20220824_TITO_8_avg.sig
comm= Averaged Ref/Tar of files: HR.082422.0038_moc.sig,HR.082422.0039_moc.sig,HR.082422.0040_moc.sig
data=
337.3  3523.38  276.95  7.86
338.8  3607.50  266.61  7.39
340.3  3794.85  259.68  6.84
341.8  3978.08  257.80  6.48
343.2  4173.60  262.17  6.28
344.7  4350.30  251.84  5.79
346.2  4534.35  259.88  5.73
347.7  4719.00  251.68  5.33
349.2  4951.80  236.88  4.78
350.6  5214.95  243.43  4.67
352.1  5501.65  244.97  4.45
353.6  5760.20  261.74  4.54
355.1  6061.50  271.97  4.49
356.6  6391.13  259.08  4.05
358.0  6667.10  260.67  3.91
359.5  6983.40  262.50  3.76
361.0  7301.70  270.75  3.71
362.5  7670.05  288.85  3.77
364.0  8029.00  293.30  3.65
365.4  8430.00  301.34  3.57
366.9  8840.00  309.93  3.51
368.4  9218.95  313.27  3.40
369.9  9593.88  322.76  3.36
371.3  10012.50  337.18  3.37
372.8  10487.25  352.48  3.36
374.3  10911.25  363.96  3.34
375.8  11345.95  366.01  3.23
377.2  11809.10  372.50  3.15
378.7  12239.50  382.24  3.12
380.2  12669.90  389.92  3.08
381.7  13215.23  395.34  2.99
383.1  13717.55  410.15  2.99
384.6  14269.78  415.67  2.91
386.1  14782.68  427.25  2.89
387.6  15280.65  445.57  2.92
389.0  15812.00  445.65  2.82
390.5  16354.80  455.65  2.79
392.0  16928.00  465.02  2.75
393.4  17525.43  473.95  2.70
394.9  18113.40  483.72  2.67
396.4  18681.75  504.19  2.70
397.9  19270.00  516.89  2.68
399.3  19854.80  528.21  2.66
400.8  20463.43  534.58  2.61
402.2  21137.55  553.19  2.62
403.7  21763.80  559.92  2.57
405.2  22396.55  578.57  2.58
406.6  23014.40  595.25  2.59
408.1  23639.60  605.68  2.56
409.6  24276.70  622.13  2.56
411.0  25000.85  634.40  2.54
412.5  25677.23  652.91  2.54
414.0  26385.63  668.30  2.53
415.4  27129.38  687.86  2.54
416.9  27813.83  710.79  2.56
418.4  28572.75  725.30  2.54
419.8  29320.20  749.15  2.56
421.3  30070.78  765.29  2.54
422.7  30885.00  792.11  2.56
424.2  31725.00  818.68  2.58
425.7  32534.80  836.73  2.57
427.1  33343.28  861.18  2.58
428.6  34177.50  886.30  2.59
430.0  34948.03  910.50  2.61
431.5  35849.85  934.16  2.61
432.9  36786.15  960.20  2.61
434.4  37717.73  991.56  2.63
435.9  38612.00  1012.27  2.62
437.3  39503.75  1038.45  2.63
438.8  40385.63  1058.59  2.62
440.2  41300.88  1087.50  2.63
441.7  42317.20  1116.16  2.64
443.1  43274.50  1148.84  2.65
444.6  44291.10  1178.00  2.66
446.0  45282.75  1206.30  2.66
447.5  46297.35  1237.35  2.67
448.9  47291.40  1266.66  2.68
450.4  48342.35  1300.43  2.69
451.8  49270.00  1329.71  2.70
453.3  50221.08  1359.80  2.71
454.7  51303.45  1393.54  2.72
456.2  52225.53  1422.76  2.72
457.6  53246.03  1452.92  2.73
459.1  54286.05  1483.77  2.73
460.5  55278.88  1509.97  2.73
462.0  56385.73  1539.27  2.73
463.4  57471.50  1569.11  2.73
464.8  58524.75  1601.84  2.74
466.3  59564.18  1631.17  2.74
467.7  60621.03  1661.92  2.74
469.2  61747.03  1693.83  2.74
470.6  62775.40  1727.75  2.75
472.0  63858.28  1757.63  2.75
473.5  64918.50  1785.13  2.75
474.9  65991.75  1819.66  2.76
476.4  67219.20  1851.98  2.76
477.8  68367.50  1889.14  2.76
479.2  69440.50  1920.08  2.77
480.7  70609.05  1952.88  2.77
482.1  71802.05  1988.87  2.77
483.6  73059.20  2026.30  2.77
485.0  74213.33  2064.55  2.78
486.4  75485.40  2104.35  2.79
487.9  76635.00  2147.79  2.80
489.3  77865.80  2190.52  2.81
490.7  79014.35  2229.22  2.82
492.2  80306.10  2276.12  2.83
493.6  81468.65  2316.93  2.84
495.0  82631.25  2365.35  2.86
496.5  83882.30  2424.03  2.89
497.9  85056.30  2480.49  2.92
499.3  86289.00  2541.15  2.94
500.7  87621.65  2606.58  2.97
502.2  88841.00  2679.73  3.02
503.6  90155.00  2757.87  3.06
505.0  91284.15  2842.94  3.11
506.5  92668.80  2948.81  3.18
507.9  93931.20  3060.16  3.26
509.3  95371.20  3191.73  3.35
510.7  96715.13  3331.99  3.45
512.2  98183.93  3497.16  3.56
513.6  99732.50  3683.99  3.69
515.0  101239.33  3897.92  3.85
516.4  102669.53  4135.05  4.03
517.8  104369.63  4412.11  4.23
519.3  105759.55  4697.03  4.44
520.7  107412.25  5026.42  4.68
522.1  108781.40  5362.67  4.93
523.5  110213.10  5716.47  5.19
524.9  111711.60  6080.61  5.44
526.3  113192.80  6442.74  5.69
527.8  114745.95  6812.90  5.94
529.2  115951.80  7165.91  6.18
530.6  117594.10  7536.02  6.41
532.0  119378.00  7896.27  6.61
533.4  120790.35  8199.04  6.79
534.8  121775.80  8455.69  6.94
536.3  123556.20  8741.29  7.07
537.7  125622.00  9030.72  7.19
539.1  127132.38  9268.63  7.29
540.5  128392.75  9474.05  7.38
541.9  130231.50  9714.04  7.46
543.3  131584.60  9918.34  7.54
544.7  132946.80  10122.33  7.61
546.1  134803.90  10361.83  7.69
547.5  136091.20  10549.76  7.75
549.0  137962.00  10770.57  7.81
550.4  139559.38  10962.37  7.85
551.8  141161.30  11132.04  7.89
553.2  142774.25  11271.50  7.89
554.6  144196.00  11360.56  7.88
556.0  145800.45  11426.01  7.84
557.4  147482.30  11462.52  7.77
558.8  149195.25  11471.94  7.69
560.2  150738.38  11438.59  7.59
561.6  152476.05  11390.26  7.47
563.0  154139.63  11305.02  7.33
564.4  155802.40  11192.44  7.18
565.8  157398.75  11052.02  7.02
567.2  159218.25  10902.55  6.85
568.6  160797.75  10716.95  6.66
570.0  162309.28  10511.75  6.48
571.4  164125.65  10317.96  6.29
572.8  165973.88  10134.13  6.11
574.2  167664.00  9949.44  5.93
575.6  169278.75  9778.93  5.78
577.0  170878.60  9631.69  5.64
578.4  172706.63  9512.32  5.51
579.8  174293.78  9396.60  5.39
581.2  176102.05  9311.37  5.29
582.5  177570.90  9219.15  5.19
583.9  179171.20  9151.63  5.11
585.3  181057.28  9110.93  5.03
586.7  182611.65  9064.33  4.96
588.1  184178.75  9031.16  4.90
589.5  185906.00  9015.53  4.85
590.9  187612.00  9013.74  4.80
592.3  189517.55  9033.61  4.77
593.7  191012.25  9046.09  4.74
595.0  192721.28  9073.50  4.71
596.4  194237.05  9089.91  4.68
597.8  195798.13  9109.66  4.65
599.2  197432.40  9128.62  4.62
600.6  199275.38  9150.59  4.59
602.0  200623.20  9134.11  4.55
603.3  202504.75  9126.76  4.51
604.7  204249.80  9095.83  4.45
606.1  205813.20  9044.13  4.39
607.5  207524.28  8988.65  4.33
608.9  209288.80  8930.18  4.27
610.2  210739.73  8846.01  4.20
611.6  212411.10  8771.81  4.13
613.0  214047.85  8698.62  4.06
614.4  215500.05  8618.03  4.00
615.8  217020.38  8545.46  3.94
617.1  218633.10  8491.00  3.88
618.5  220342.40  8452.35  3.84
619.9  221919.83  8425.09  3.80
621.3  223652.70  8415.01  3.76
622.6  225303.50  8415.39  3.74
624.0  226836.90  8422.16  3.71
625.4  228384.75  8441.81  3.70
626.8  230052.55  8475.44  3.68
628.1  231433.40  8509.94  3.68
629.5  233366.05  8568.45  3.67
630.9  235034.53  8619.79  3.67
632.2  236478.73  8651.75  3.66
633.6  238157.38  8684.82  3.65
635.0  239750.80  8698.94  3.63
636.3  241352.30  8693.83  3.60
637.7  242798.25  8664.00  3.57
639.1  244545.00  8626.67  3.53
640.4  246089.03  8573.89  3.48
641.8  247375.35  8497.60  3.44
643.2  249051.43  8430.55  3.39
644.5  250463.00  8356.41  3.34
645.9  252248.40  8293.36  3.29
647.2  254193.45  8246.58  3.24
648.6  256122.00  8211.86  3.21
650.0  257666.40  8173.44  3.17
651.3  258082.28  8126.57  3.15
652.7  259220.30  8093.84  3.12
654.0  261380.60  8099.62  3.10
655.4  263028.48  8078.40  3.07
656.8  263388.10  8012.88  3.04
658.1  264750.10  7976.13  3.01
659.5  267197.70  7962.31  2.98
660.8  269032.50  7934.14  2.95
662.2  269964.80  7880.96  2.92
663.5  271669.75  7863.46  2.89
664.9  273045.50  7852.87  2.88
666.2  273859.20  7826.24  2.86
667.6  275646.78  7848.19  2.85
668.9  276764.68  7868.73  2.84
670.3  278009.38  7903.70  2.84
671.6  279660.00  7970.48  2.85
673.0  280899.00  8042.96  2.86
674.3  282239.10  8130.27  2.88
675.7  283641.68  8224.51  2.90
677.0  284805.28  8340.13  2.93
678.4  286236.90  8467.25  2.96
679.7  287404.23  8604.43  2.99
681.1  288763.08  8762.30  3.03
682.4  289996.20  8944.82  3.08
683.8  291300.10  9143.51  3.14
685.1  292381.88  9361.61  3.20
686.4  293772.60  9628.88  3.28
687.8  295124.00  9956.98  3.37
689.1  296258.75  10360.87  3.50
690.5  297702.00  10897.01  3.66
691.8  298557.90  11594.53  3.88
693.1  299976.60  12551.55  4.18
694.5  301210.00  13778.27  4.57
695.8  302506.75  15339.13  5.07
697.1  303735.25  17239.30  5.68
698.5  304883.70  19522.00  6.40
699.8  306044.48  22174.85  7.25
701.1  307268.93  25208.55  8.20
702.5  308123.20  28529.83  9.26
703.8  309127.50  32134.29  10.40
705.1  310362.00  35999.17  11.60
706.5  311504.75  40033.78  12.85
707.8  312564.75  44204.04  14.14
709.1  313509.98  48471.19  15.46
710.5  314715.53  52866.88  16.80
711.8  315656.50  57286.36  18.15
713.1  316726.90  61770.58  19.50
714.4  317708.10  66271.35  20.86
715.8  318600.10  70759.81  22.21
717.1  320007.30  75360.79  23.55
718.4  321014.40  79831.04  24.87
719.7  322224.08  84311.64  26.17
721.0  322785.00  88554.86  27.43
722.4  323637.60  92792.61  28.67
723.7  324665.10  96963.14  29.87
725.0  325808.33  101060.89  31.02
726.3  326831.18  104967.18  32.12
727.6  327424.63  108607.00  33.17
729.0  328423.55  112212.85  34.17
730.3  329257.50  115593.83  35.11
731.6  330211.60  118863.12  36.00
732.9  331110.15  121916.67  36.82
734.2  331995.13  124823.84  37.60
735.5  333114.00  127643.96  38.32
736.8  333933.00  130206.45  38.99
738.1  334862.90  132641.36  39.61
739.5  335887.45  134968.79  40.18
740.8  336629.15  137039.49  40.71
742.1  337435.50  139010.40  41.20
743.4  338225.00  140844.29  41.64
744.7  339308.65  142677.99  42.05
746.0  340273.05  144346.76  42.42
747.3  340937.43  145746.29  42.75
748.6  341728.25  147116.86  43.05
749.9  342524.00  148393.14  43.32
751.2  343297.20  149572.52  43.57
752.5  344264.75  150751.01  43.79
753.8  344894.03  151718.75  43.99
755.1  345670.00  152671.01  44.17
756.4  346350.65  153500.87  44.32
757.7  347397.23  154453.40  44.46
759.0  349343.23  155729.05  44.58
760.3  350618.40  156667.66  44.68
761.6  352317.00  157752.69  44.78
762.9  352939.50  158307.52  44.85
764.2  353358.40  158748.43  44.93
765.5  353703.20  159123.20  44.99
766.8  354198.40  159538.62  45.04
768.1  354802.60  159973.73  45.09
769.3  355496.05  160425.83  45.13
770.6  356222.75  160880.20  45.16
771.9  357005.43  161361.18  45.20
773.2  357470.80  161658.75  45.22
774.5  358157.80  162061.76  45.25
775.8  358922.85  162498.04  45.27
777.1  359565.25  162869.66  45.30
778.4  359985.45  163112.02  45.31
779.6  360831.78  163564.50  45.33
780.9  361380.00  163858.86  45.34
782.2  361911.00  164160.12  45.36
783.5  362309.50  164390.93  45.37
784.8  362933.55  164710.01  45.38
786.0  363395.90  164958.53  45.39
787.3  363851.00  165213.17  45.41
788.6  364332.60  165483.94  45.42
789.9  364890.40  165763.76  45.43
791.2  365621.80  166123.19  45.44
792.4  366385.23  166518.73  45.45
793.7  366932.40  166796.42  45.46
795.0  367643.93  167146.40  45.46
796.2  368363.68  167525.18  45.48
797.5  369161.48  167912.90  45.48
798.8  369968.18  168282.91  45.49
800.0  370734.60  168657.13  45.49
801.3  371288.50  168938.37  45.50
802.6  371957.85  169265.25  45.51
803.8  372679.38  169622.80  45.51
805.1  373240.00  169905.90  45.52
806.4  373761.00  170169.84  45.53
807.7  374361.75  170458.17  45.53
808.9  375010.60  170767.19  45.54
810.2  375606.35  171069.95  45.55
811.4  376138.00  171349.21  45.55
812.7  376878.13  171690.54  45.56
814.0  377798.15  172132.41  45.56
815.2  378505.50  172476.80  45.57
816.5  378953.10  172706.66  45.57
817.7  379479.60  172985.04  45.58
819.0  380057.15  173262.88  45.59
820.2  380248.00  173381.79  45.60
821.5  380998.45  173761.64  45.61
822.7  381441.88  173965.52  45.61
824.0  381796.20  174155.09  45.61
825.2  382334.18  174448.66  45.63
826.5  382643.85  174623.04  45.64
827.7  383239.50  174929.00  45.64
829.0  383709.38  175142.71  45.64
830.2  384078.15  175310.14  45.64
831.5  384600.35  175576.58  45.65
832.7  384942.08  175750.42  45.66
834.0  385299.53  175943.82  45.66
835.2  385638.55  176148.84  45.68
836.4  385933.90  176328.36  45.69
837.7  386391.80  176573.28  45.70
838.9  386846.80  176825.37  45.71
840.1  387300.83  177033.66  45.71
841.4  387773.50  177264.63  45.71
842.6  388127.00  177454.81  45.72
843.8  388459.40  177668.50  45.74
845.1  388979.90  177953.91  45.75
846.3  389327.80  178165.02  45.76
847.5  389760.00  178413.80  45.78
848.8  390205.20  178634.96  45.78
850.0  390560.10  178822.19  45.79
851.2  391169.25  179118.75  45.79
852.5  391587.00  179308.82  45.79
853.7  392022.00  179579.19  45.81
854.9  392435.70  179833.55  45.82
856.1  392929.55  180071.27  45.83
857.4  393113.70  180189.71  45.84
858.6  393639.10  180425.28  45.84
859.8  394119.38  180631.36  45.83
861.0  394524.00  180855.26  45.84
862.2  395034.85  181105.87  45.85
863.5  395324.80  181290.40  45.86
864.7  395815.20  181563.61  45.87
865.9  396286.60  181766.36  45.87
867.1  396628.35  181931.62  45.87
868.3  397079.25  182152.11  45.87
869.5  397540.75  182404.40  45.88
870.8  398106.00  182663.06  45.88
872.0  398610.38  182914.13  45.89
873.2  399112.05  183125.55  45.88
874.4  399534.53  183357.39  45.89
875.6  399912.08  183535.68  45.89
876.8  400427.25  183795.97  45.90
878.0  400901.50  184037.54  45.91
879.2  401513.70  184266.99  45.89
880.4  401985.38  184513.39  45.90
881.6  402492.43  184748.85  45.90
882.8  403004.80  184944.91  45.89
884.0  403699.23  185268.85  45.89
885.2  404121.60  185508.05  45.90
886.5  404800.60  185816.66  45.90
887.7  405292.55  186027.66  45.90
888.8  405991.20  186324.44  45.89
890.0  406595.10  186592.28  45.89
891.2  407313.90  186875.28  45.88
892.4  408037.35  187197.44  45.88
893.6  408620.35  187460.40  45.88
894.8  409572.50  187882.95  45.87
896.0  410398.75  188289.54  45.88
897.2  411362.25  188657.73  45.86
898.4  412166.70  189021.17  45.86
899.6  412799.25  189329.50  45.86
900.8  413160.58  189524.03  45.87
902.0  413575.65  189664.11  45.86
903.2  413805.83  189817.46  45.87
904.3  414196.20  189980.17  45.87
905.5  414797.03  190234.66  45.86
906.7  415410.00  190554.61  45.87
907.9  416152.10  190833.16  45.86
909.1  416536.43  190988.29  45.85
910.2  416737.58  191077.05  45.85
911.4  417099.15  191169.59  45.83
912.6  417281.15  191278.03  45.84
913.8  417609.53  191376.64  45.83
915.0  418082.70  191613.80  45.83
916.2  418275.00  191735.33  45.84
917.3  418314.60  191745.88  45.84
918.5  418661.80  191841.74  45.82
919.7  418986.75  191922.68  45.81
920.8  419161.78  191981.68  45.80
922.0  419476.75  192020.03  45.78
923.2  419601.00  192132.20  45.79
924.4  419829.75  192230.55  45.79
925.5  420198.50  192347.29  45.78
926.7  420860.50  192610.32  45.77
927.9  421942.80  192970.77  45.73
929.0  423497.70  193638.19  45.72
930.2  425833.70  194626.81  45.70
931.4  428263.88  195821.55  45.72
932.5  431138.70  197062.16  45.71
933.7  432726.70  197708.67  45.69
934.9  433501.25  197959.25  45.67
936.0  432961.75  197719.04  45.67
937.2  431162.70  196683.81  45.62
938.3  429408.35  195794.73  45.60
939.5  427737.60  195034.42  45.60
940.7  428031.00  195068.85  45.57
941.8  429615.83  195774.30  45.57
943.0  431275.50  196423.86  45.54
944.2  432332.55  196736.66  45.51
945.3  431817.75  196414.40  45.49
946.5  431032.05  195949.49  45.46
947.6  431363.40  195934.26  45.42
948.8  431317.58  195743.51  45.38
949.9  431516.40  195647.84  45.34
951.1  431329.28  195399.20  45.30
952.2  431256.00  195113.37  45.24
953.4  430872.75  194803.16  45.21
954.5  431098.20  194630.50  45.15
955.7  430970.40  194432.40  45.12
956.8  431006.20  194134.37  45.04
958.0  430596.00  193877.90  45.03
959.1  430457.58  193727.94  45.01
960.3  430053.25  193433.07  44.98
961.4  429930.15  193220.06  44.94
962.6  430351.25  193179.13  44.89
963.7  430054.73  193054.42  44.89
964.9  430005.83  193064.52  44.90
966.0  429996.60  193082.09  44.90
967.2  430036.20  193060.95  44.89
968.3  430089.75  192870.41  44.84
969.5  429986.35  192794.92  44.84
970.6  430200.25  192807.81  44.82
971.8  430573.15  192915.25  44.80
972.9  430246.05  192818.27  44.82
974.0  430839.80  193069.37  44.81
975.2  430840.88  193063.75  44.81
976.3  430947.05  193036.69  44.79
977.5  430741.33  193078.15  44.82
978.6  430907.70  193069.21  44.81
979.7  431095.88  193253.92  44.83
980.9  431084.30  193064.61  44.79
982.0  430995.10  193122.74  44.81
983.2  431220.70  192954.48  44.75
984.3  431233.40  192929.88  44.74
985.4  431616.95  193034.66  44.72
986.6  431729.88  192975.62  44.70
987.7  432425.18  193394.03  44.72
988.9  432253.80  193294.63  44.72
990.0  432253.80  193679.09  44.81
993.1  377405.23  168175.34  44.56
996.9  378098.55  168865.80  44.66
1000.7  379295.88  169735.02  44.75
1004.5  379934.83  170306.82  44.83
1008.4  379711.50  170549.52  44.92
1012.2  379856.50  170883.90  44.99
1016.0  380052.60  171226.72  45.05
1019.8  380358.83  171598.35  45.11
1023.7  380441.09  171816.13  45.16
1027.5  380219.80  171927.30  45.22
1031.3  380492.63  172193.81  45.26
1035.1  380372.83  172282.58  45.29
1038.9  380345.17  172385.95  45.32
1042.7  380182.67  172424.25  45.35
1046.5  380049.17  172436.31  45.37
1050.3  380116.53  172517.13  45.39
1054.2  379780.33  172466.42  45.41
1058.0  379318.39  172272.99  45.42
1061.8  379184.64  172263.56  45.43
1065.6  378960.60  172159.65  45.43
1069.4  379001.27  172170.89  45.43
1073.2  378647.94  171971.73  45.42
1077.0  378164.88  171721.56  45.41
1080.8  377694.79  171402.08  45.38
1084.6  376620.53  170819.13  45.36
1088.4  375947.49  170455.09  45.34
1092.2  375102.00  169971.75  45.31
1096.0  374522.68  169606.47  45.29
1099.8  374035.57  169245.76  45.25
1103.6  373378.12  168804.42  45.21
1107.4  372461.32  168219.46  45.16
1111.2  372177.20  167949.06  45.13
1114.9  371441.00  167453.17  45.08
1118.7  370804.50  166932.03  45.02
1122.5  370088.33  166296.99  44.93
1126.3  368951.33  165414.96  44.83
1130.1  368454.06  164650.07  44.69
1133.9  366847.60  163144.10  44.47
1137.7  365454.00  161550.20  44.21
1141.4  363631.45  159610.27  43.89
1145.2  362894.78  158003.53  43.54
1149.0  361760.00  156325.63  43.21
1152.8  360123.95  154573.81  42.92
1156.6  358459.38  153075.08  42.70
1160.3  356702.33  151791.33  42.55
1164.1  354242.87  150402.45  42.46
1167.9  352403.13  149411.01  42.40
1171.7  351091.13  148719.38  42.36
1175.4  349929.97  148135.49  42.33
1179.2  348938.80  147600.92  42.30
1183.0  348681.00  147348.67  42.26
1186.7  348150.37  146995.40  42.22
1190.5  347022.33  146430.43  42.20
1194.3  345776.40  145853.65  42.18
1198.0  344589.03  145346.34  42.18
1201.8  343100.80  144752.09  42.19
1205.6  341834.00  144324.38  42.22
1209.3  340862.03  144099.08  42.27
1213.1  339820.65  143863.17  42.34
1216.8  338784.51  143690.96  42.41
1220.6  337650.13  143451.73  42.49
1224.3  336375.75  143145.39  42.56
1228.1  335115.60  142856.06  42.63
1231.9  333850.70  142521.71  42.69
1235.6  332374.20  142064.21  42.74
1239.4  331040.75  141667.07  42.79
1243.1  329780.98  141250.63  42.83
1246.9  328577.88  140821.69  42.86
1250.6  327570.27  140453.87  42.88
1254.3  326499.71  140039.65  42.89
1258.1  325485.53  139629.70  42.90
1261.8  324216.27  139084.57  42.90
1265.6  322788.92  138441.21  42.89
1269.3  321304.20  137740.49  42.87
1273.1  321254.99  137623.77  42.84
1276.8  321505.60  137600.69  42.80
1280.6  321359.50  137391.15  42.75
1284.3  319996.80  136644.80  42.70
1288.0  318531.57  135794.25  42.63
1291.8  317232.23  134952.01  42.54
1295.5  315810.00  134031.12  42.44
1299.2  314523.66  133114.12  42.32
1302.9  313009.52  132042.04  42.18
1306.7  311419.50  130865.35  42.02
1310.4  309892.40  129612.70  41.83
1314.1  308502.70  128356.93  41.61
1317.9  307269.17  127050.42  41.35
1321.6  305853.83  125589.51  41.06
1325.3  304165.05  123914.10  40.74
1329.0  302823.97  122323.43  40.39
1332.8  300731.20  120315.80  40.01
1336.5  298845.00  118403.90  39.62
1340.2  298434.50  117067.17  39.23
1343.9  297931.25  115681.10  38.83
1347.6  297196.20  114210.82  38.43
1351.4  297274.50  113101.29  38.05
1355.1  297501.23  112060.46  37.67
1358.8  297536.00  110880.00  37.27
1362.5  297021.53  109366.11  36.82
1366.2  295351.20  107215.24  36.30
1369.9  293481.13  104711.50  35.68
1373.6  291458.24  101753.73  34.91
1377.3  289539.00  98264.27  33.94
1381.0  288284.00  94223.95  32.68
1384.8  286227.50  89087.14  31.12
1388.4  283879.98  83348.52  29.36
1392.2  282053.42  77374.62  27.43
1395.9  280469.55  71327.28  25.43
1399.6  278819.75  65558.97  23.51
1403.3  277661.83  60446.72  21.77
1407.0  276571.20  56066.94  20.27
1410.7  275409.75  52468.70  19.05
1414.3  274216.95  49643.44  18.10
1418.1  273078.58  47535.24  17.41
1421.7  272191.85  46020.62  16.91
1425.4  271299.28  44945.60  16.57
1429.1  270415.50  44231.68  16.36
1432.8  268952.46  43698.04  16.25
1436.5  268151.17  43464.75  16.21
1440.2  267310.80  43382.08  16.23
1443.9  266007.41  43332.40  16.29
1447.6  264387.20  43307.00  16.38
1451.2  263324.42  43397.93  16.48
1454.9  262049.55  43502.14  16.60
1458.6  260950.01  43744.28  16.76
1462.3  259791.03  44097.06  16.97
1466.0  258421.05  44571.66  17.25
1469.7  256716.31  45161.07  17.59
1473.3  255667.33  46002.40  17.99
1477.0  253735.63  46791.35  18.44
1480.7  252156.21  47695.61  18.92
1484.4  250210.31  48537.99  19.40
1488.0  248658.67  49485.33  19.90
1491.7  247036.92  50397.53  20.40
1495.4  245307.92  51293.17  20.91
1499.0  243687.00  52171.00  21.41
1502.7  242358.58  53108.94  21.91
1506.4  240932.83  53979.13  22.40
1510.0  239506.70  54823.20  22.89
1513.7  238042.00  55608.88  23.36
1517.4  236700.67  56393.48  23.82
1521.0  235471.33  57168.57  24.28
1524.7  234205.83  57878.48  24.71
1528.3  232907.13  58542.07  25.14
1532.0  231668.62  59179.08  25.54
1535.7  230262.11  59708.48  25.93
1539.3  228996.88  60243.71  26.31
1543.0  228013.64  60818.18  26.67
1546.6  227290.92  61429.49  27.03
1550.3  226303.35  61918.35  27.36
1553.9  225206.93  62340.08  27.68
1557.6  223908.67  62676.12  27.99
1561.2  222655.95  62944.39  28.27
1564.9  221331.44  63180.15  28.55
1568.5  219995.30  63377.42  28.81
1572.2  218842.80  63598.33  29.06
1575.8  217756.00  63822.00  29.31
1579.5  216724.80  64032.51  29.55
1583.1  215718.25  64232.66  29.78
1586.8  214480.00  64334.00  30.00
1590.4  213418.93  64463.12  30.20
1594.0  212080.27  64486.93  30.41
1597.7  210938.28  64559.17  30.61
1601.3  209619.90  64563.08  30.80
1604.9  208317.11  64543.86  30.98
1608.6  206967.32  64475.15  31.15
1612.2  205887.00  64464.91  31.31
1615.8  204719.78  64400.79  31.46
1619.5  203573.00  64314.88  31.59
1623.1  202237.33  64148.90  31.72
1626.7  200974.48  63983.54  31.84
1630.3  199732.00  63813.88  31.95
1634.0  198492.00  63630.00  32.06
1637.6  197341.27  63438.66  32.15
1641.2  196152.05  63204.93  32.22
1644.8  194793.76  62874.80  32.28
1648.5  193647.68  62599.21  32.33
1652.1  192591.90  62311.93  32.35
1655.7  191643.20  61999.23  32.35
1659.3  190769.38  61689.88  32.34
1662.9  189351.67  61167.62  32.30
1666.6  187916.60  60627.33  32.26
1670.2  186540.03  60061.22  32.20
1673.8  185123.74  59452.59  32.12
1677.4  184012.85  58903.62  32.01
1681.0  183214.28  58407.23  31.88
1684.6  182787.58  57967.00  31.71
1688.2  182082.20  57360.06  31.50
1691.8  181395.16  56792.94  31.31
1695.4  180964.80  56303.00  31.11
1699.0  180649.47  55853.63  30.92
1702.6  180356.33  55396.28  30.71
1706.2  179787.18  54817.54  30.49
1709.8  178888.93  54152.13  30.27
1713.4  178207.06  53587.54  30.07
1717.0  177354.00  53043.11  29.91
1720.6  176531.70  52561.01  29.77
1724.2  175816.50  52122.37  29.65
1727.8  175076.65  51692.45  29.53
1731.4  174587.88  51347.21  29.41
1735.0  174367.78  51097.57  29.30
1738.6  174090.60  50792.98  29.18
1742.2  173522.74  50348.91  29.02
1745.8  172864.81  49839.88  28.83
1749.4  171892.05  49212.78  28.63
1753.0  170369.60  48419.62  28.42
1756.6  168665.88  47607.25  28.23
1760.1  167319.41  46912.71  28.04
1763.7  165569.33  46135.81  27.86
1767.3  164102.45  45472.97  27.71
1770.9  162852.73  44869.60  27.55
1774.5  161390.78  44242.84  27.41
1778.0  160226.51  43732.47  27.29
1781.6  159105.30  43296.54  27.21
1785.2  157927.78  42889.93  27.16
1788.8  156738.00  42528.07  27.13
1792.3  155471.40  42163.69  27.12
1795.9  154994.13  42020.04  27.11
1799.5  154473.33  41881.48  27.11
1803.1  153723.62  41695.50  27.12
1806.6  154039.38  41788.20  27.13
1810.2  155072.17  42075.77  27.13
1813.8  155974.05  42318.59  27.13
1817.3  156016.20  42303.80  27.12
1820.9  155261.98  42061.40  27.09
1824.5  154049.65  41675.63  27.05
1828.0  153173.17  41344.68  26.99
1831.6  152353.18  40999.61  26.91
1835.2  151625.83  40609.76  26.78
1838.7  151248.40  40232.42  26.60
1842.3  150915.00  39786.43  26.36
1845.8  150164.17  39116.08  26.05
1849.4  149674.20  38371.37  25.64
1852.9  149025.16  37413.81  25.11
1856.5  148144.40  36186.52  24.43
1860.0  147375.14  34738.77  23.57
1863.6  147112.33  33159.71  22.54
1867.1  146906.90  31325.70  21.32
1870.7  146819.80  29111.80  19.83
1874.2  146142.45  26409.85  18.07
1877.8  144981.80  23502.79  16.21
1881.3  143580.13  20524.75  14.29
1884.9  142625.45  17758.41  12.45
1888.4  141606.07  15169.21  10.71
1891.9  140578.93  12960.77  9.22
1895.5  139457.13  11189.37  8.02
1899.0  138877.13  9907.36  7.13
1901.3  168365.00  8337.72  4.95
1904.1  168280.50  7568.00  4.50
1906.8  167536.20  6974.80  4.16
1909.6  165848.90  6494.13  3.92
1912.4  164295.02  6135.34  3.73
1915.1  163125.60  5887.93  3.61
1917.9  161816.00  5712.78  3.53
1920.6  160763.10  5583.89  3.47
1923.3  159802.07  5494.61  3.44
1926.1  158562.07  5443.14  3.43
1928.8  157402.67  5421.78  3.44
1931.6  156529.02  5411.53  3.46
1934.3  155683.15  5440.01  3.49
1937.0  154861.77  5500.92  3.55
1939.8  153942.50  5563.86  3.61
1942.5  152735.00  5643.00  3.69
1945.2  151107.00  5709.18  3.78
1947.9  149767.57  5805.95  3.88
1950.7  148707.27  5928.37  3.99
1953.4  147003.15  6029.23  4.10
1956.1  145666.42  6158.50  4.23
1958.8  144473.55  6313.59  4.37
1961.5  143014.00  6458.40  4.52
1964.2  141523.20  6609.63  4.67
1966.9  139976.35  6769.40  4.84
1969.6  138753.00  6948.00  5.01
1972.3  137371.50  7137.80  5.20
1975.0  136325.40  7333.70  5.38
1977.7  135194.77  7532.37  5.57
1980.4  134059.87  7738.04  5.77
1983.1  132955.32  7952.51  5.98
1985.8  132039.90  8172.20  6.19
1988.4  131022.67  8395.11  6.41
1991.1  130087.07  8618.94  6.63
1993.8  129224.15  8846.44  6.85
1996.5  128569.28  9093.46  7.07
1999.1  127879.95  9334.72  7.30
2001.8  127194.90  9571.49  7.53
2004.5  126514.90  9809.10  7.75
2007.1  125779.65  10031.12  7.98
2009.8  125019.30  10256.40  8.20
2012.4  124424.67  10489.36  8.43
2015.1  123862.43  10713.97  8.65
2017.8  123068.17  10909.66  8.86
2020.4  122554.85  11124.12  9.08
2023.1  122178.93  11344.20  9.28
2025.7  121940.00  11561.33  9.48
2028.3  121602.00  11760.67  9.67
2031.0  121201.97  11951.16  9.86
2033.6  120921.30  12139.40  10.04
2036.2  120660.30  12316.30  10.21
2038.9  120060.00  12443.90  10.36
2041.5  119705.98  12586.86  10.51
2044.1  119137.80  12710.70  10.67
2046.8  118781.10  12841.20  10.81
2049.4  118154.70  12934.00  10.95
2052.0  117865.07  13076.71  11.09
2054.6  117468.75  13203.75  11.24
2057.2  116895.67  13303.78  11.38
2059.8  116555.07  13437.69  11.53
2062.4  115661.45  13516.64  11.69
2065.0  115149.00  13644.38  11.85
2067.6  114249.35  13717.13  12.01
2070.2  113639.18  13821.73  12.16
2072.8  112985.43  13929.23  12.33
2075.4  112542.50  14052.50  12.49
2078.0  111908.45  14144.10  12.64
2080.6  111346.40  14241.33  12.79
2083.2  110644.10  14318.89  12.94
2085.8  110134.22  14422.24  13.10
2088.4  109453.83  14489.61  13.24
2090.9  108647.78  14541.62  13.38
2093.5  107759.87  14576.05  13.53
2096.1  106998.57  14624.25  13.67
2098.7  106225.63  14659.38  13.80
2101.2  105254.13  14672.00  13.94
2103.8  104581.67  14718.58  14.07
2106.4  103900.47  14759.33  14.21
2108.9  103245.47  14811.73  14.35
2111.5  102380.87  14814.65  14.47
2114.0  101743.33  14855.40  14.60
2116.6  101211.25  14912.92  14.73
2119.1  100658.87  14944.24  14.85
2121.7  100170.00  14985.83  14.96
2124.2  99773.43  15031.91  15.07
2126.8  98961.82  15016.57  15.17
2129.3  98568.80  15045.07  15.26
2131.9  97979.20  15042.13  15.35
2134.4  97535.85  15056.80  15.44
2136.9  97139.25  15066.13  15.51
2139.4  96611.20  15052.64  15.58
2142.0  96150.13  15046.73  15.65
2144.5  95879.70  15052.87  15.70
2147.0  95622.40  15064.58  15.75
2149.5  95113.20  15031.82  15.80
2152.1  94944.85  15047.08  15.85
2154.6  94873.60  15071.82  15.89
2157.1  94339.50  15014.75  15.92
2159.6  93912.58  14987.50  15.96
2162.1  93748.20  14987.70  15.99
2164.6  93507.07  14972.58  16.01
2167.1  93183.28  14947.41  16.04
2169.6  92839.48  14927.93  16.08
2172.1  92361.03  14893.37  16.13
2174.6  92036.53  14879.18  16.17
2177.1  91589.37  14850.24  16.21
2179.5  91182.22  14822.81  16.26
2182.0  90695.00  14788.58  16.31
2184.5  90155.07  14744.34  16.35
2187.0  89541.20  14690.84  16.41
2189.5  88849.35  14635.94  16.47
2191.9  88074.50  14554.00  16.52
2194.4  87439.80  14490.53  16.57
2196.9  86697.60  14406.40  16.62
2199.3  86033.33  14335.67  16.66
2201.8  85147.20  14223.65  16.70
2204.3  84688.38  14175.26  16.74
2206.7  84040.20  14088.78  16.76
2209.2  83553.70  14031.04  16.79
2211.6  82942.20  13939.20  16.81
2214.1  82654.65  13910.10  16.83
2216.5  82079.13  13813.95  16.83
2219.0  81721.53  13760.98  16.84
2221.4  81346.42  13685.00  16.82
2223.9  80880.33  13582.53  16.79
2226.3  80384.50  13470.14  16.76
2228.7  79807.92  13339.20  16.71
2231.1  79229.70  13173.60  16.63
2233.6  78642.20  13002.73  16.53
2236.0  78083.83  12828.86  16.43
2238.4  77588.00  12653.67  16.31
2240.9  77132.33  12482.89  16.18
2243.3  76586.00  12280.91  16.04
2245.7  76037.90  12085.93  15.89
2248.1  75547.33  11886.91  15.73
2250.5  75034.73  11680.50  15.57
2252.9  74411.13  11448.38  15.39
2255.3  73858.85  11226.92  15.20
2257.7  73400.00  11010.00  15.00
2260.1  72912.23  10795.87  14.81
2262.5  72300.00  10573.33  14.62
2264.9  71770.18  10362.70  14.44
2267.3  71150.00  10150.00  14.27
2269.7  70674.80  9959.75  14.09
2272.1  70116.67  9772.93  13.94
2274.5  69553.88  9597.31  13.80
2276.8  69054.90  9435.70  13.66
2279.2  68460.60  9256.05  13.52
2281.6  68040.60  9106.98  13.38
2284.0  67599.30  8951.97  13.24
2286.3  67133.33  8799.11  13.11
2288.7  66700.83  8652.44  12.97
2291.1  66148.27  8493.67  12.84
2293.4  65696.40  8353.64  12.72
2295.8  65085.70  8191.93  12.59
2298.2  64490.85  8021.25  12.44
2300.5  63828.45  7852.20  12.30
2302.9  63085.00  7684.55  12.18
2305.2  62376.80  7529.30  12.07
2307.6  61703.98  7393.61  11.98
2309.9  60935.67  7247.11  11.89
2312.2  60326.00  7140.33  11.84
2314.6  59698.80  7031.10  11.78
2316.9  58995.00  6917.25  11.73
2319.2  58405.80  6810.90  11.66
2321.6  57762.48  6686.87  11.58
2323.9  57218.75  6576.39  11.49
2326.2  56684.30  6468.67  11.41
2328.6  56158.30  6364.05  11.33
2330.9  55650.00  6268.50  11.26
2333.2  55160.33  6170.08  11.19
2335.5  54698.40  6063.33  11.09
2337.8  54240.17  5955.99  10.98
2340.1  53668.65  5840.97  10.88
2342.4  53224.17  5745.28  10.79
2344.8  52782.08  5636.64  10.68
2347.1  52234.23  5527.20  10.58
2349.4  51690.20  5420.20  10.49
2351.6  51106.32  5313.70  10.40
2353.9  50609.90  5226.12  10.33
2356.2  50080.58  5135.90  10.26
2358.5  49492.80  5032.53  10.17
2360.8  48910.40  4935.47  10.09
2363.1  48467.22  4856.82  10.02
2365.4  48002.40  4776.13  9.95
2367.7  47526.60  4689.20  9.87
2369.9  46967.90  4595.27  9.78
2372.2  46336.80  4491.11  9.69
2374.5  45761.10  4396.70  9.61
2376.7  45130.75  4298.16  9.52
2379.0  44497.50  4191.88  9.42
2381.3  43878.33  4087.22  9.31
2383.5  43366.40  3993.24  9.21
2385.8  42748.30  3898.69  9.12
2388.0  42208.60  3807.47  9.02
2390.3  41687.60  3710.31  8.90
2392.5  41208.00  3616.00  8.77
2394.8  40752.80  3533.20  8.67
2397.0  40270.53  3437.78  8.54
2399.3  39802.95  3362.60  8.45
2401.5  39334.75  3291.17  8.37
2403.8  38809.82  3214.65  8.28
2406.0  38305.42  3112.44  8.13
2408.2  37898.67  3037.71  8.02
2410.4  37462.48  2962.71  7.91
2412.7  37033.97  2894.52  7.82
2414.9  36647.05  2820.95  7.70
2417.1  36233.10  2747.43  7.58
2419.3  35840.00  2688.00  7.50
2421.6  35456.25  2617.78  7.38
2423.8  35074.83  2545.79  7.26
2426.0  34704.45  2488.47  7.17
2428.2  34326.13  2421.69  7.05
2430.4  34009.67  2364.36  6.95
2432.6  33720.00  2302.22  6.83
2434.8  33443.40  2245.60  6.71
2437.0  33059.43  2189.63  6.62
2439.2  32696.82  2122.12  6.49
2441.4  32379.17  2067.72  6.39
2443.6  32123.75  2021.84  6.29
2445.7  31848.37  1966.81  6.18
2447.9  31563.00  1925.14  6.10
2450.1  31275.30  1878.02  6.00
2452.3  30901.38  1811.64  5.86
2454.5  30536.72  1763.46  5.77
2456.6  30145.47  1721.51  5.71
2458.8  29786.90  1673.10  5.62
2461.0  29482.08  1638.69  5.56
2463.1  29187.30  1595.65  5.47
2465.3  28886.20  1556.01  5.39
2467.5  28644.50  1529.08  5.34
2469.6  28371.50  1481.72  5.22
2471.8  28051.13  1451.61  5.17
2473.9  27768.42  1427.89  5.14
2476.1  27406.17  1380.17  5.04
2478.2  27023.93  1345.61  4.98
2480.4  26739.70  1314.98  4.92
2482.5  26399.08  1279.96  4.85
2484.6  26039.75  1246.67  4.79
2486.8  25732.30  1224.60  4.76
2488.9  25426.95  1204.79  4.74
2491.1  25069.33  1174.13  4.68
2493.2  24684.47  1138.95  4.61
2495.3  24274.47  1100.96  4.54
2497.4  23940.70  1078.70  4.51
2499.5  23611.48  1051.92  4.46
2501.7  23450.37  1040.78  4.44
2503.8  23353.18  1036.43  4.44
2505.9  23284.58  1025.00  4.40
2508.0  23279.65  1039.32  4.46
2510.1  23284.10  1031.27  4.43
2512.2  23359.55  1021.48  4.37
2514.3  23482.38  1025.10  4.37
2516.4  23718.80  1050.67  4.43
