/*** Spectra Vista SIG Data ***/
name= 58_20220722_ACRU_28_avg.sig
comm= Averaged Ref/Tar of files: HR.072222.0048_moc.sig,HR.072222.0049_moc.sig,HR.072222.0050_moc.sig
data=
337.3  3126.38  302.48  9.67
338.8  3270.80  297.76  9.10
340.3  3420.05  290.02  8.48
341.8  3612.28  296.13  8.20
343.2  3774.00  291.77  7.73
344.7  3923.80  280.27  7.14
346.2  4085.00  272.33  6.67
347.7  4247.10  273.40  6.44
349.2  4460.40  277.20  6.21
350.6  4664.08  276.31  5.92
352.1  4930.05  275.59  5.59
353.6  5205.00  280.90  5.40
355.1  5455.35  282.23  5.17
356.6  5768.40  293.41  5.09
358.0  5997.20  294.69  4.91
359.5  6241.80  297.23  4.76
361.0  6523.65  299.25  4.59
362.5  6879.63  312.27  4.54
364.0  7226.10  316.79  4.38
365.4  7558.90  331.85  4.39
366.9  7900.75  347.28  4.40
368.4  8237.05  350.68  4.26
369.9  8566.93  365.48  4.27
371.3  8944.50  371.26  4.15
372.8  9345.60  389.40  4.17
374.3  9755.63  396.72  4.07
375.8  10160.15  397.83  3.92
377.2  10517.90  409.90  3.90
378.7  10921.40  417.59  3.82
380.2  11271.10  422.72  3.75
381.7  11782.90  429.82  3.65
383.1  12235.30  444.03  3.63
384.6  12759.18  452.15  3.54
386.1  13242.25  471.01  3.56
387.6  13690.60  477.40  3.49
389.0  14177.20  487.50  3.44
390.5  14655.60  498.13  3.40
392.0  15208.75  511.36  3.36
393.4  15765.00  525.50  3.33
394.9  16286.40  536.92  3.30
396.4  16792.88  552.00  3.29
397.9  17348.13  561.31  3.24
399.3  17854.13  569.21  3.19
400.8  18394.65  579.21  3.15
402.2  19001.70  596.21  3.14
403.7  19597.05  616.78  3.15
405.2  20171.10  631.33  3.13
406.6  20717.60  642.97  3.10
408.1  21289.20  656.48  3.08
409.6  21840.25  675.22  3.09
411.0  22481.55  691.33  3.08
412.5  23094.93  704.08  3.05
414.0  23736.88  721.86  3.04
415.4  24386.63  742.00  3.04
416.9  25038.23  758.15  3.03
418.4  25659.45  782.57  3.05
419.8  26335.40  800.80  3.04
421.3  27022.70  823.35  3.05
422.7  27770.40  843.48  3.04
424.2  28518.75  867.86  3.04
425.7  29225.90  891.07  3.05
427.1  29940.90  916.34  3.06
428.6  30690.00  943.28  3.07
430.0  31397.08  963.97  3.07
431.5  32208.15  986.47  3.06
432.9  33035.75  1014.34  3.07
434.4  33878.63  1040.95  3.07
435.9  34664.00  1065.33  3.07
437.3  35461.25  1092.14  3.08
438.8  36245.25  1122.20  3.10
440.2  37069.73  1148.58  3.10
441.7  37975.60  1177.93  3.10
443.1  38835.75  1203.86  3.10
444.6  39732.30  1236.39  3.11
446.0  40624.73  1265.37  3.11
447.5  41515.10  1301.12  3.13
448.9  42389.40  1333.00  3.14
450.4  43330.70  1367.77  3.16
451.8  44148.00  1399.05  3.17
453.3  45030.30  1430.78  3.18
454.7  45980.75  1464.31  3.18
456.2  46803.28  1493.80  3.19
457.6  47723.63  1524.73  3.19
459.1  48636.25  1554.58  3.20
460.5  49500.88  1585.89  3.20
462.0  50488.83  1619.14  3.21
463.4  51470.90  1653.13  3.21
464.8  52392.00  1682.18  3.21
466.3  53337.08  1715.06  3.22
467.7  54273.20  1747.98  3.22
469.2  55286.60  1781.49  3.22
470.6  56185.95  1811.78  3.22
472.0  57158.58  1843.15  3.22
473.5  58096.13  1876.61  3.23
474.9  59066.25  1912.21  3.24
476.4  60163.20  1952.91  3.25
477.8  61161.00  1988.57  3.25
479.2  62118.00  2027.24  3.26
480.7  63168.90  2060.96  3.26
482.1  64230.25  2100.07  3.27
483.6  65357.35  2141.35  3.28
485.0  66367.88  2182.28  3.29
486.4  67497.45  2228.23  3.30
487.9  68518.13  2275.93  3.32
489.3  69619.80  2326.55  3.34
490.7  70621.10  2381.24  3.37
492.2  71780.10  2438.80  3.40
493.6  72810.50  2496.08  3.43
495.0  73856.25  2562.86  3.47
496.5  74959.90  2635.91  3.52
497.9  76001.83  2714.18  3.57
499.3  77087.78  2800.83  3.63
500.7  78260.30  2903.49  3.71
502.2  79336.40  3011.77  3.80
503.6  80504.40  3145.26  3.91
505.0  81497.95  3289.97  4.04
506.5  82725.23  3467.20  4.19
507.9  83865.03  3666.72  4.37
509.3  85174.00  3900.15  4.58
510.7  86360.63  4166.04  4.82
512.2  87660.60  4476.22  5.11
513.6  89041.75  4831.17  5.43
515.0  90371.43  5233.45  5.79
516.4  91641.38  5679.45  6.20
517.8  93154.38  6186.75  6.64
519.3  94372.88  6721.15  7.12
520.7  95835.05  7304.66  7.62
522.1  97056.38  7896.54  8.14
523.5  98328.60  8506.80  8.65
524.9  99686.70  9124.63  9.15
526.3  100980.95  9725.20  9.63
527.8  102361.05  10320.04  10.08
529.2  103420.90  10868.49  10.51
530.6  104892.55  11429.26  10.90
532.0  106512.00  11952.00  11.22
533.4  107744.78  12385.57  11.50
534.8  108550.80  12728.75  11.73
536.3  110140.20  13130.97  11.92
537.7  112026.60  13546.80  12.09
539.1  113390.00  13873.25  12.23
540.5  114487.05  14145.55  12.36
541.9  116125.05  14482.13  12.47
543.3  117312.63  14757.57  12.58
544.7  118525.80  15031.71  12.68
546.1  120168.95  15362.99  12.78
547.5  121340.80  15624.53  12.88
549.0  122969.00  15930.10  12.95
550.4  124355.00  16182.38  13.01
551.8  125794.80  16406.97  13.04
553.2  127229.35  16584.42  13.04
554.6  128492.00  16685.56  12.99
556.0  129913.20  16754.19  12.90
557.4  131406.28  16776.65  12.77
558.8  132914.70  16753.20  12.60
560.2  134262.88  16661.26  12.41
561.6  135816.90  16549.93  12.19
563.0  137285.35  16383.90  11.93
564.4  138774.70  16175.66  11.66
565.8  140186.25  15922.32  11.36
567.2  141814.00  15647.91  11.03
568.6  143212.88  15319.25  10.70
570.0  144540.75  14962.58  10.35
571.4  146147.30  14622.84  10.01
572.8  147773.38  14296.15  9.67
574.2  149284.80  13975.47  9.36
575.6  150716.25  13669.29  9.07
577.0  152131.90  13397.50  8.81
578.4  153733.13  13177.67  8.57
579.8  155142.00  12962.38  8.36
581.2  156748.65  12793.13  8.16
582.5  158067.00  12621.51  7.98
583.9  159488.80  12476.53  7.82
585.3  161154.45  12370.20  7.68
586.7  162529.90  12263.21  7.55
588.1  163917.88  12180.43  7.43
589.5  165436.25  12128.67  7.33
590.9  166953.60  12097.67  7.25
592.3  168634.35  12097.00  7.17
593.7  169971.75  12088.33  7.11
595.0  171483.08  12099.47  7.06
596.4  172817.75  12103.93  7.00
597.8  174198.23  12107.45  6.95
599.2  175639.20  12107.54  6.89
600.6  177262.48  12102.91  6.83
602.0  178471.95  12047.98  6.75
603.3  180133.70  11997.56  6.66
604.7  181672.38  11916.79  6.56
606.1  183057.00  11797.03  6.44
607.5  184603.73  11666.50  6.32
608.9  186162.50  11523.68  6.19
610.2  187450.20  11352.15  6.06
611.6  188918.10  11191.23  5.92
613.0  190349.85  11026.04  5.79
614.4  191623.50  10866.77  5.67
615.8  192976.88  10720.82  5.56
617.1  194407.50  10599.40  5.45
618.5  195937.20  10503.77  5.36
619.9  197323.43  10429.02  5.29
621.3  198839.25  10375.91  5.22
622.6  200293.50  10349.67  5.17
624.0  201637.95  10333.84  5.12
625.4  202991.25  10338.04  5.09
626.8  204445.15  10366.42  5.07
628.1  205684.33  10393.27  5.05
629.5  207405.28  10454.82  5.04
630.9  208915.85  10504.34  5.03
632.2  210201.43  10532.58  5.01
633.6  211682.13  10552.26  4.98
635.0  213125.20  10536.23  4.94
636.3  214537.30  10488.74  4.89
637.7  215797.50  10391.90  4.82
639.1  217332.50  10281.67  4.73
640.4  218692.78  10130.30  4.63
641.8  219800.08  9954.84  4.53
643.2  221274.90  9785.00  4.42
644.5  222540.50  9608.19  4.32
645.9  224130.60  9453.43  4.22
647.2  225886.15  9335.85  4.13
648.6  227650.50  9237.86  4.06
650.0  229003.20  9150.17  4.00
651.3  229345.60  9056.09  3.95
652.7  230338.65  8985.11  3.90
654.0  232297.60  8946.27  3.85
655.4  233717.05  8877.91  3.80
656.8  233900.80  8762.20  3.75
658.1  234990.40  8671.40  3.69
659.5  237240.68  8632.25  3.64
660.8  238950.00  8580.00  3.59
662.2  239814.40  8494.93  3.54
663.5  241324.25  8452.86  3.50
664.9  242569.60  8419.05  3.47
666.2  243245.40  8385.26  3.45
667.6  244860.60  8411.21  3.44
668.9  245950.48  8443.66  3.43
670.3  246997.63  8491.85  3.44
671.6  248441.63  8580.28  3.45
673.0  249503.63  8679.32  3.48
674.3  250658.20  8795.80  3.51
675.7  251919.90  8943.53  3.55
677.0  252935.10  9093.18  3.60
678.4  254190.53  9273.57  3.65
679.7  255203.68  9466.55  3.71
681.1  256423.20  9687.77  3.78
682.4  257487.10  9932.37  3.86
683.8  258680.50  10220.72  3.95
685.1  259614.75  10548.36  4.06
686.4  260805.60  10956.23  4.20
687.8  261993.75  11470.41  4.38
689.1  262995.00  12140.02  4.62
690.5  264288.75  13060.91  4.94
691.8  265047.68  14296.24  5.39
693.1  266296.05  15995.22  6.01
694.5  267380.75  18165.33  6.79
695.8  268518.25  20849.83  7.76
697.1  269633.00  24067.33  8.93
698.5  270629.40  27799.93  10.27
699.8  271646.50  32004.14  11.78
701.1  272734.90  36616.89  13.43
702.5  273441.30  41470.53  15.17
703.8  274365.00  46542.86  16.96
705.1  275446.28  51746.22  18.79
706.5  276420.75  56975.27  20.61
707.8  277363.50  62179.83  22.42
709.1  278191.83  67300.31  24.19
710.5  279241.10  72409.55  25.93
711.8  280043.40  77366.13  27.63
713.1  280980.00  82265.76  29.28
714.4  281849.70  87031.59  30.88
715.8  282630.20  91657.25  32.43
717.1  283889.70  96311.47  33.93
718.4  284771.20  100704.00  35.36
719.7  285837.05  105003.20  36.74
721.0  286312.50  108951.43  38.05
722.4  287038.95  112818.72  39.30
723.7  287972.10  116595.73  40.49
725.0  288971.10  120243.38  41.61
726.3  289854.68  123678.89  42.67
727.6  290379.65  126789.61  43.66
729.0  291239.20  129875.58  44.59
730.3  291957.00  132729.26  45.46
731.6  292824.35  135482.62  46.27
732.9  293590.85  138034.05  47.02
734.2  294361.38  140434.77  47.71
735.5  295356.38  142787.79  48.34
736.8  296107.80  144886.00  48.93
738.1  296885.80  146866.64  49.47
739.5  297763.48  148779.86  49.97
740.8  298448.15  150451.32  50.41
742.1  299158.13  152059.51  50.83
743.4  299850.00  153559.53  51.21
744.7  300841.25  155073.20  51.55
746.0  301665.00  156433.64  51.86
747.3  302216.00  157523.28  52.12
748.6  302897.25  158624.90  52.37
749.9  303654.00  159662.29  52.58
751.2  304359.85  160623.26  52.77
752.5  305222.80  161604.51  52.95
753.8  305833.68  162375.23  53.09
755.1  306488.00  163126.48  53.22
756.4  307024.50  163761.24  53.34
757.7  307971.83  164550.63  53.43
759.0  309691.03  165712.03  53.51
760.3  310807.20  166533.71  53.58
761.6  312284.00  167526.80  53.65
762.9  312841.25  167972.17  53.69
764.2  313196.70  168306.90  53.74
765.5  313490.00  168579.38  53.78
766.8  313915.20  168893.87  53.80
768.1  314442.40  169248.49  53.82
769.3  315044.10  169618.27  53.84
770.6  315667.30  170018.52  53.86
771.9  316405.25  170445.33  53.87
773.2  316802.00  170692.12  53.88
774.5  317402.80  171044.34  53.89
775.8  318071.25  171418.46  53.89
777.1  318638.65  171749.03  53.90
778.4  318967.00  171942.89  53.91
779.6  319692.38  172359.70  53.91
780.9  320190.00  172625.71  53.91
782.2  320680.25  172897.48  53.92
783.5  321012.50  173083.14  53.92
784.8  321566.40  173368.61  53.91
786.0  321966.40  173582.63  53.91
787.3  322366.95  173804.95  53.92
788.6  322800.98  174040.32  53.92
789.9  323255.80  174297.07  53.92
791.2  323860.65  174639.23  53.92
792.4  324572.93  175003.03  53.92
793.7  325048.80  175260.93  53.92
795.0  325667.10  175587.19  53.92
796.2  326335.38  175923.02  53.91
797.5  327040.05  176297.17  53.91
798.8  327698.18  176651.70  53.91
800.0  328388.38  177012.55  53.90
801.3  328834.90  177264.75  53.91
802.6  329414.85  177569.87  53.90
803.8  330076.83  177898.31  53.90
805.1  330573.25  178141.83  53.89
806.4  331012.80  178376.94  53.89
807.7  331539.08  178666.91  53.89
808.9  332126.65  178951.14  53.88
810.2  332655.05  179233.07  53.88
811.4  333150.80  179495.24  53.88
812.7  333734.38  179802.38  53.88
814.0  334549.50  180221.32  53.87
815.2  335169.00  180538.93  53.87
816.5  335578.95  180763.87  53.87
817.7  336029.70  181014.72  53.87
819.0  336563.70  181269.26  53.86
820.2  336688.00  181355.43  53.86
821.5  337420.05  181708.49  53.85
822.7  337751.50  181889.08  53.85
824.0  338053.50  182061.26  53.86
825.2  338553.68  182330.04  53.86
826.5  338867.20  182477.00  53.85
827.7  339392.68  182755.71  53.85
829.0  339759.43  182964.69  53.85
830.2  340067.65  183115.70  53.85
831.5  340518.50  183362.73  53.85
832.7  340841.03  183524.00  53.84
834.0  341126.38  183697.64  53.85
835.2  341465.03  183892.53  53.85
836.4  341760.10  184047.34  53.85
837.7  342164.60  184269.68  53.85
838.9  342566.50  184516.99  53.86
840.1  342985.05  184722.43  53.86
841.4  343391.50  184952.10  53.86
842.6  343678.80  185147.16  53.87
843.8  343982.00  185354.59  53.88
845.1  344467.40  185635.50  53.89
846.3  344913.90  185840.65  53.88
847.5  345242.10  186064.00  53.89
848.8  345647.40  186288.74  53.90
850.0  345953.30  186464.30  53.90
851.2  346500.45  186742.41  53.89
852.5  346834.20  186972.15  53.91
853.7  347260.50  187211.57  53.91
854.9  347686.00  187440.71  53.91
856.1  348073.05  187695.92  53.92
857.4  348349.20  187791.28  53.91
858.6  348810.65  188035.62  53.91
859.8  349164.38  188230.89  53.91
861.0  349596.00  188483.66  53.91
862.2  350044.38  188721.05  53.91
863.5  350362.35  188906.59  53.92
864.7  350875.80  189167.94  53.91
865.9  351292.40  189358.02  53.90
867.1  351545.15  189513.27  53.91
868.3  351944.70  189741.18  53.91
869.5  352453.35  189982.37  53.90
870.8  352894.50  190251.86  53.91
872.0  353375.25  190484.62  53.90
873.2  353706.90  190708.33  53.92
874.4  354123.90  190923.94  53.91
875.6  354520.10  191110.51  53.91
876.8  355101.95  191324.84  53.88
878.0  355585.75  191574.23  53.88
879.2  356056.20  191803.10  53.87
880.4  356493.38  192074.68  53.88
881.6  356991.08  192315.50  53.87
882.8  357294.40  192510.32  53.88
884.0  357987.63  192806.64  53.86
885.2  358517.60  193040.23  53.84
886.5  359131.70  193320.67  53.83
887.7  359559.85  193570.90  53.84
888.8  360171.15  193876.79  53.83
890.0  360647.45  194145.00  53.83
891.2  361213.50  194414.11  53.82
892.4  361855.20  194710.75  53.81
893.6  362468.70  194966.52  53.79
894.8  363239.00  195406.90  53.80
896.0  364148.25  195834.43  53.78
897.2  365017.25  196251.40  53.76
898.4  365722.50  196601.12  53.76
899.6  366159.38  196887.64  53.77
900.8  366562.73  197094.55  53.77
902.0  366838.50  197185.24  53.75
903.2  367248.60  197319.12  53.73
904.3  367734.00  197477.46  53.70
905.5  368186.85  197788.52  53.72
906.7  368761.50  198073.72  53.71
907.9  369286.05  198310.23  53.70
909.1  369709.65  198473.01  53.68
910.2  369959.70  198559.25  53.67
911.4  370208.48  198675.75  53.67
912.6  370484.40  198763.19  53.65
913.8  370660.80  198896.88  53.66
915.0  371226.45  199063.20  53.62
916.2  371250.75  199142.36  53.64
917.3  371421.23  199136.25  53.61
918.5  371695.70  199226.47  53.60
919.7  371891.85  199317.04  53.60
920.8  372070.93  199334.80  53.57
922.0  372179.50  199353.00  53.56
923.2  372508.50  199446.00  53.54
924.4  372643.88  199523.57  53.54
925.5  373057.70  199626.86  53.51
926.7  373592.00  199880.94  53.50
927.9  374514.00  200277.88  53.48
929.0  375821.10  200936.83  53.47
930.2  377951.80  201948.83  53.43
931.4  380457.68  203117.98  53.39
932.5  382921.30  204394.66  53.38
933.7  384291.90  205028.51  53.35
934.9  384938.75  205303.75  53.33
936.0  384709.00  205031.20  53.30
937.2  382851.30  203960.46  53.27
938.3  381436.30  203063.37  53.24
939.5  380023.20  202218.17  53.21
940.7  380242.80  202236.26  53.19
941.8  381549.38  202874.84  53.17
943.0  383057.25  203525.57  53.13
944.2  383930.30  203837.40  53.09
945.3  383652.75  203598.57  53.07
946.5  382993.65  203037.30  53.01
947.6  383116.30  202977.45  52.98
948.8  383199.38  202765.36  52.91
949.9  383350.80  202645.20  52.86
951.1  383203.28  202396.57  52.82
952.2  382908.00  202134.86  52.79
953.4  382790.75  201723.33  52.70
954.5  382870.80  201554.23  52.64
955.7  382775.40  201246.00  52.58
956.8  382632.40  200924.55  52.51
958.0  382309.00  200594.62  52.47
959.1  382378.15  200379.31  52.40
960.3  381988.48  200143.96  52.40
961.4  382081.95  199970.63  52.34
962.6  382401.25  199974.33  52.29
963.7  381971.03  199834.73  52.32
964.9  382060.05  199600.74  52.24
966.0  381904.88  199543.31  52.25
967.2  382225.05  199521.30  52.20
968.3  382060.80  199429.33  52.20
969.5  381619.88  199323.66  52.23
970.6  381694.45  199357.74  52.23
971.8  382066.30  199388.53  52.19
972.9  382163.40  199318.49  52.16
974.0  382606.60  199512.88  52.15
975.2  382401.13  199476.91  52.16
976.3  382546.18  199476.48  52.14
977.5  382334.93  199496.32  52.18
978.6  382495.60  199478.43  52.15
979.7  382677.23  199539.85  52.14
980.9  382835.33  199566.52  52.13
982.0  383000.10  199613.49  52.12
983.2  382682.83  199650.03  52.17
984.3  382291.40  199496.91  52.18
985.4  382438.08  199635.92  52.20
986.6  382599.88  199678.36  52.19
987.7  384160.53  200264.13  52.13
988.9  383995.80  200254.28  52.15
990.0  384953.30  200567.98  52.10
993.1  331842.76  172323.51  51.93
996.9  332413.38  173015.39  52.05
1000.7  333389.41  173869.85  52.15
1004.5  333925.75  174436.37  52.24
1008.4  333728.38  174676.50  52.34
1012.2  333869.38  175019.55  52.42
1016.0  334062.60  175387.71  52.50
1019.8  334314.75  175756.35  52.57
1023.7  334379.91  175973.45  52.63
1027.5  334109.72  176028.26  52.69
1031.3  334325.50  176258.88  52.72
1035.1  334227.25  176316.78  52.75
1038.9  334204.93  176361.45  52.77
1042.7  334053.75  176360.56  52.79
1046.5  333922.17  176333.07  52.81
1050.3  333956.83  176370.15  52.81
1054.2  333714.50  176260.33  52.82
1058.0  333305.41  176011.17  52.81
1061.8  333177.43  175956.83  52.81
1065.6  332949.53  175780.81  52.80
1069.4  332899.73  175727.55  52.79
1073.2  332558.89  175479.88  52.77
1077.0  332196.60  175200.17  52.74
1080.8  331778.13  174858.78  52.70
1084.6  330842.28  174242.25  52.67
1088.4  330273.03  173841.39  52.64
1092.2  329501.25  173306.25  52.60
1096.0  328989.41  172862.97  52.54
1099.8  328565.47  172461.19  52.49
1103.6  327935.08  171946.29  52.43
1107.4  327131.96  171296.68  52.36
1111.2  326887.70  170972.31  52.30
1114.9  326313.17  170422.00  52.23
1118.7  325774.35  169829.55  52.13
1122.5  325167.27  169144.86  52.02
1126.3  324191.99  168202.66  51.88
1130.1  323746.58  167394.80  51.71
1133.9  322299.60  165859.90  51.46
1137.7  320993.00  164226.67  51.16
1141.4  319382.81  162235.40  50.80
1145.2  318742.00  160602.44  50.39
1149.0  317754.79  158879.17  50.00
1152.8  316277.65  157063.88  49.66
1156.6  314788.83  155527.35  49.41
1160.3  313194.33  154214.24  49.24
1164.1  311034.83  152822.32  49.13
1167.9  309445.83  151858.19  49.07
1171.7  308282.63  151196.63  49.04
1175.4  307211.00  150632.82  49.03
1179.2  306258.45  150117.44  49.02
1183.0  306010.00  149904.67  48.99
1186.7  305565.40  149581.00  48.95
1190.5  304653.73  149036.30  48.92
1194.3  303579.33  148446.54  48.90
1198.0  302476.90  147892.96  48.89
1201.8  301159.25  147245.92  48.89
1205.6  300070.67  146755.53  48.91
1209.3  299206.50  146445.43  48.94
1213.1  298313.03  146129.75  48.99
1216.8  297388.94  145847.10  49.04
1220.6  296357.60  145508.00  49.10
1224.3  295184.83  145104.95  49.16
1228.1  294084.60  144740.63  49.22
1231.9  292946.95  144320.93  49.27
1235.6  291636.90  143785.35  49.30
1239.4  290438.25  143327.36  49.35
1243.1  289300.92  142845.45  49.38
1246.9  288228.77  142357.59  49.39
1250.6  287363.73  141942.33  49.39
1254.3  286410.39  141480.26  49.40
1258.1  285513.32  141023.93  49.39
1261.8  284374.80  140434.49  49.38
1265.6  283095.42  139737.32  49.36
1269.3  281852.03  139007.44  49.32
1273.1  281810.20  138845.66  49.27
1276.8  282030.80  138793.20  49.21
1280.6  281866.73  138555.53  49.16
1284.3  280636.80  137760.00  49.09
1288.0  279372.91  136889.41  49.00
1291.8  278235.99  136017.00  48.89
1295.5  277009.33  135072.88  48.76
1299.2  275882.32  134134.52  48.62
1302.9  274550.58  133029.82  48.45
1306.7  273139.88  131827.38  48.26
1310.4  271787.59  130541.60  48.03
1314.1  270552.33  129263.41  47.78
1317.9  269446.04  127936.85  47.48
1321.6  268193.68  126451.09  47.15
1325.3  266711.55  124766.70  46.78
1329.0  265517.35  123159.65  46.38
1332.8  263648.00  121127.60  45.94
1336.5  262021.80  119195.59  45.49
1340.2  261685.67  117847.17  45.03
1343.9  261324.79  116482.80  44.57
1347.6  260811.45  115051.74  44.11
1351.4  261113.00  114024.64  43.67
1355.1  261569.00  113085.29  43.23
1358.8  261856.00  112002.29  42.77
1362.5  261501.23  110521.47  42.26
1366.2  259918.10  108313.44  41.67
1369.9  258127.50  105750.18  40.97
1373.6  256284.70  102769.98  40.10
1377.3  254654.40  99322.76  39.00
1381.0  253638.83  95367.17  37.60
1384.8  251842.50  90285.00  35.85
1388.4  249643.68  84542.70  33.87
1392.2  247972.83  78564.79  31.68
1395.9  246544.63  72510.84  29.41
1399.6  245039.36  66674.88  27.21
1403.3  243954.76  61486.77  25.20
1407.0  242894.70  57011.18  23.47
1410.7  241786.88  53346.51  22.06
1414.3  240618.70  50493.81  20.98
1418.1  239528.67  48411.23  20.21
1421.7  238700.99  46943.31  19.67
1425.4  237831.75  45949.38  19.32
1429.1  237036.38  45329.89  19.12
1432.8  235716.68  44888.88  19.04
1436.5  234999.07  44737.94  19.04
1440.2  234231.63  44720.81  19.09
1443.9  233056.63  44715.59  19.19
1447.6  231631.40  44717.20  19.31
1451.2  230654.23  44826.13  19.43
1454.9  229492.20  44941.39  19.58
1458.6  228518.02  45186.61  19.77
1462.3  227469.37  45542.41  20.02
1466.0  226263.78  46030.54  20.34
1469.7  224777.04  46643.12  20.75
1473.3  223864.67  47515.40  21.23
1477.0  222179.27  48324.97  21.75
1480.7  220771.20  49239.27  22.30
1484.4  219075.91  50087.97  22.86
1488.0  217682.67  51033.71  23.44
1491.7  216248.50  51933.83  24.02
1495.4  214720.86  52796.84  24.59
1499.0  213295.00  53631.36  25.14
1502.7  212112.42  54521.77  25.70
1506.4  210837.77  55330.86  26.24
1510.0  209580.93  56107.99  26.77
1513.7  208272.46  56825.71  27.28
1517.4  207088.00  57531.95  27.78
1521.0  205996.40  58236.53  28.27
1524.7  204898.42  58862.30  28.73
1528.3  203753.13  59440.02  29.17
1532.0  202658.87  59989.78  29.60
1535.7  201410.57  60436.07  30.01
1539.3  200312.10  60886.90  30.40
1543.0  199422.63  61380.52  30.78
1546.6  198814.42  61910.33  31.14
1550.3  197936.40  62313.76  31.48
1553.9  196971.87  62662.84  31.81
1557.6  195874.80  62918.95  32.12
1561.2  194728.05  63115.78  32.41
1564.9  193573.20  63285.07  32.69
1568.5  192395.23  63409.15  32.96
1572.2  191389.10  63558.19  33.21
1575.8  190414.00  63706.00  33.46
1579.5  189537.25  63846.52  33.69
1583.1  188638.73  63976.35  33.91
1586.8  187544.00  64004.00  34.13
1590.4  186615.27  64062.17  34.33
1594.0  185442.51  64030.77  34.53
1597.7  184447.15  64040.22  34.72
1601.3  183311.10  63985.95  34.91
1604.9  182162.98  63901.68  35.08
1608.6  180972.30  63773.99  35.24
1612.2  180038.93  63705.56  35.38
1615.8  178991.80  63574.27  35.52
1619.5  177966.33  63430.18  35.64
1623.1  176790.07  63209.14  35.75
1626.7  175679.73  62979.34  35.85
1630.3  174612.42  62740.31  35.93
1634.0  173544.00  62468.00  36.00
1637.6  172527.67  62164.62  36.03
1641.2  171494.30  61791.90  36.03
1644.8  170301.69  61298.69  35.99
1648.5  169283.19  60849.83  35.95
1652.1  168382.20  60412.46  35.88
1655.7  167545.80  60025.43  35.83
1659.3  166756.85  59729.96  35.82
1662.9  165523.33  59315.83  35.84
1666.6  164270.53  58939.33  35.88
1670.2  163076.67  58538.90  35.90
1673.8  161841.61  58085.40  35.89
1677.4  160858.45  57675.25  35.85
1681.0  160173.50  57303.35  35.78
1684.6  159803.58  56987.20  35.66
1688.2  159173.35  56484.78  35.49
1691.8  158584.65  56045.44  35.34
1695.4  158216.40  55647.77  35.17
1699.0  157933.07  55286.33  35.01
1702.6  157681.00  54911.00  34.82
1706.2  157180.51  54418.22  34.62
1709.8  156388.81  53813.78  34.41
1713.4  155768.66  53280.77  34.21
1717.0  155007.75  52746.00  34.03
1720.6  154295.33  52248.62  33.86
1724.2  153667.80  51791.88  33.70
1727.8  153043.45  51352.75  33.55
1731.4  152581.00  50995.02  33.42
1735.0  152379.70  50749.76  33.30
1738.6  152151.60  50461.91  33.17
1742.2  151640.48  50036.53  33.00
1745.8  151083.25  49554.77  32.80
1749.4  150244.88  48948.55  32.58
1753.0  148902.53  48164.43  32.35
1756.6  147410.67  47348.88  32.12
1760.1  146212.57  46651.28  31.91
1763.7  144685.33  45862.00  31.70
1767.3  143418.93  45188.98  31.51
1770.9  142305.39  44571.74  31.32
1774.5  141033.13  43928.85  31.15
1778.0  140006.40  43396.08  31.00
1781.6  139031.55  42922.11  30.87
1785.2  138004.63  42462.80  30.77
1788.8  136957.00  42047.03  30.70
1792.3  135881.33  41637.05  30.64
1795.9  135459.13  41440.21  30.59
1799.5  135031.00  41263.76  30.56
1803.1  134467.43  41052.67  30.53
1806.6  134850.04  41124.28  30.50
1810.2  135786.00  41368.17  30.47
1813.8  136611.10  41573.34  30.43
1817.3  136653.20  41545.74  30.40
1820.9  135980.48  41296.89  30.37
1824.5  134960.15  40924.75  30.32
1828.0  134219.25  40604.14  30.25
1831.6  133591.08  40298.27  30.17
1835.2  133053.33  39956.07  30.03
1838.7  132762.00  39605.41  29.83
1842.3  132465.00  39190.72  29.59
1845.8  131737.71  38539.37  29.25
1849.4  131289.90  37831.95  28.82
1852.9  130703.30  36930.53  28.26
1856.5  129916.45  35772.09  27.53
1860.0  129204.94  34412.00  26.63
1863.6  129006.20  32948.12  25.54
1867.1  128950.85  31254.65  24.24
1870.7  129006.58  29193.97  22.63
1874.2  128338.20  26604.90  20.73
1877.8  127124.53  23756.05  18.69
1881.3  125718.75  20798.80  16.54
1884.9  124811.78  18029.20  14.45
1888.4  123885.22  15401.70  12.43
1891.9  122974.87  13129.84  10.68
1895.5  122036.33  11286.58  9.25
1899.0  121589.00  9946.45  8.18
1901.3  149019.75  8325.34  5.59
1904.1  148922.44  7522.31  5.05
1906.8  148240.35  6901.95  4.66
1909.6  146695.76  6398.88  4.36
1912.4  145248.34  6061.07  4.17
1915.1  144200.10  5840.45  4.05
1917.9  143029.75  5673.55  3.97
1920.6  142115.85  5572.13  3.92
1923.3  141197.70  5504.28  3.90
1926.1  140041.63  5467.80  3.90
1928.8  138996.00  5467.00  3.93
1931.6  138183.94  5509.40  3.99
1934.3  137444.81  5569.85  4.05
1937.0  136707.50  5660.98  4.14
1939.8  135855.13  5759.82  4.24
1942.5  134763.75  5857.50  4.35
1945.2  133315.88  5961.73  4.47
1947.9  132093.85  6090.24  4.61
1950.7  131132.15  6238.46  4.76
1953.4  129605.44  6367.46  4.91
1956.1  128403.31  6525.75  5.08
1958.8  127319.24  6703.34  5.26
1961.5  126042.30  6879.30  5.46
1964.2  124713.23  7061.60  5.66
1966.9  123322.09  7246.79  5.88
1969.6  122229.00  7449.75  6.09
1972.3  121004.40  7656.23  6.33
1975.0  120072.38  7885.35  6.57
1977.7  119097.74  8117.95  6.82
1980.4  118106.73  8352.45  7.07
1983.1  117145.46  8585.92  7.33
1985.8  116334.23  8832.68  7.59
1988.4  115420.50  9084.83  7.87
1991.1  114594.55  9328.32  8.14
1993.8  113824.01  9583.89  8.42
1996.5  113255.31  9853.16  8.70
1999.1  112641.38  10118.12  8.98
2001.8  112023.98  10375.11  9.26
2004.5  111422.81  10626.52  9.54
2007.1  110774.06  10868.73  9.81
2009.8  110126.80  11108.94  10.09
2012.4  109610.46  11352.46  10.36
2015.1  109116.70  11583.78  10.62
2017.8  108404.45  11782.34  10.87
2020.4  107962.53  12005.17  11.12
2023.1  107646.88  12224.80  11.36
2025.7  107419.00  12445.33  11.59
2028.3  107126.50  12644.67  11.80
2031.0  106778.95  12823.11  12.01
2033.6  106527.15  12999.98  12.20
2036.2  106285.73  13163.10  12.38
2038.9  105770.25  13284.90  12.56
2041.5  105476.03  13430.21  12.73
2044.1  104993.78  13535.03  12.89
2046.8  104667.53  13652.48  13.04
2049.4  104093.33  13730.78  13.19
2052.0  103830.60  13837.97  13.33
2054.6  103470.94  13930.00  13.46
2057.2  102992.20  14014.82  13.61
2059.8  102710.55  14134.90  13.76
2062.4  101932.70  14177.66  13.91
2065.0  101472.60  14265.90  14.06
2067.6  100684.04  14310.59  14.21
2070.2  100167.58  14382.50  14.36
2072.8  99598.81  14443.52  14.50
2075.4  99205.31  14529.38  14.65
2078.0  98628.05  14578.14  14.78
2080.6  98122.20  14632.20  14.91
2083.2  97520.40  14664.45  15.04
2085.8  97079.99  14725.26  15.17
2088.4  96493.13  14758.29  15.29
2090.9  95795.29  14763.51  15.41
2093.5  95008.75  14747.73  15.52
2096.1  94319.83  14749.41  15.64
2098.7  93647.90  14747.22  15.75
2101.2  92800.40  14706.93  15.85
2103.8  92197.80  14704.75  15.95
2106.4  91608.30  14693.83  16.04
2108.9  91038.45  14676.37  16.12
2111.5  90285.20  14632.70  16.21
2114.0  89728.45  14613.05  16.29
2116.6  89269.69  14599.38  16.35
2119.1  88788.80  14578.97  16.42
2121.7  88364.06  14560.00  16.48
2124.2  87999.80  14548.29  16.53
2126.8  87290.96  14481.52  16.59
2129.3  86935.20  14476.00  16.65
2131.9  86413.80  14445.20  16.72
2134.4  86035.28  14434.35  16.78
2136.9  85693.08  14424.31  16.83
2139.4  85233.05  14410.55  16.91
2142.0  84840.70  14401.68  16.97
2144.5  84578.93  14418.00  17.05
2147.0  84379.80  14434.03  17.11
2149.5  83957.70  14413.93  17.17
2152.1  83801.03  14429.48  17.22
2154.6  83721.60  14452.27  17.26
2157.1  83241.94  14410.71  17.31
2159.6  82880.88  14385.73  17.36
2162.1  82732.65  14382.55  17.38
2164.6  82508.25  14375.87  17.42
2167.1  82222.98  14360.44  17.47
2169.6  81920.04  14338.83  17.50
2172.1  81521.10  14295.51  17.54
2174.6  81238.55  14286.88  17.59
2177.1  80848.55  14254.56  17.63
2179.5  80468.05  14228.88  17.68
2182.0  80026.65  14193.30  17.74
2184.5  79544.86  14147.72  17.79
2187.0  79006.53  14093.40  17.84
2189.5  78408.20  14028.22  17.89
2191.9  77733.75  13946.00  17.94
2194.4  77183.10  13900.03  18.01
2196.9  76521.60  13826.40  18.07
2199.3  75943.75  13750.83  18.11
2201.8  75153.50  13651.00  18.16
2204.3  74736.74  13608.36  18.21
2206.7  74170.50  13543.75  18.26
2209.2  73769.20  13500.63  18.30
2211.6  73225.35  13424.40  18.33
2214.1  72960.86  13397.68  18.36
2216.5  72451.25  13323.08  18.39
2219.0  72153.25  13278.38  18.40
2221.4  71823.94  13223.87  18.41
2223.9  71392.56  13139.59  18.40
2226.3  70938.88  13042.90  18.39
2228.7  70448.40  12924.93  18.35
2231.1  69921.23  12788.33  18.29
2233.6  69404.20  12642.65  18.22
2236.0  68930.75  12487.56  18.12
2238.4  68484.50  12326.42  18.00
2240.9  68085.55  12165.85  17.87
2243.3  67608.75  11987.05  17.73
2245.7  67117.73  11795.73  17.57
2248.1  66699.43  11626.12  17.43
2250.5  66249.40  11443.40  17.27
2252.9  65682.83  11249.88  17.13
2255.3  65184.94  11071.86  16.99
2257.7  64785.00  10912.50  16.84
2260.1  64346.28  10735.67  16.68
2262.5  63825.00  10547.50  16.53
2264.9  63366.71  10377.67  16.38
2267.3  62805.00  10202.50  16.24
2269.7  62374.73  10050.89  16.11
2272.1  61895.49  9893.97  15.98
2274.5  61404.99  9741.24  15.86
2276.8  60978.96  9608.49  15.76
2279.2  60465.83  9454.54  15.64
2281.6  60082.90  9316.70  15.51
2284.0  59660.70  9173.33  15.38
2286.3  59249.60  9036.40  15.25
2288.7  58900.40  8895.14  15.10
2291.1  58414.43  8746.94  14.97
2293.4  58019.50  8618.87  14.86
2295.8  57458.55  8448.58  14.70
2298.2  56930.18  8272.24  14.53
2300.5  56347.99  8114.40  14.40
2302.9  55691.50  7946.33  14.27
2305.2  55063.80  7773.93  14.12
2307.6  54487.48  7616.28  13.98
2309.9  53800.50  7455.50  13.86
2312.2  53242.50  7334.08  13.77
2314.6  52707.38  7219.13  13.70
2316.9  52086.38  7100.10  13.63
2319.2  51579.35  6984.54  13.54
2321.6  51023.70  6858.19  13.44
2323.9  50523.44  6744.79  13.35
2326.2  50048.70  6622.56  13.23
2328.6  49595.70  6512.96  13.13
2330.9  49124.25  6405.00  13.04
2333.2  48704.50  6291.79  12.92
2335.5  48318.53  6195.30  12.82
2337.8  47918.44  6097.98  12.73
2340.1  47408.93  5979.36  12.61
2342.4  47019.38  5877.09  12.50
2344.8  46644.19  5783.10  12.40
2347.1  46117.58  5667.03  12.29
2349.4  45633.79  5571.68  12.21
2351.6  45138.04  5478.04  12.14
2353.9  44709.83  5387.03  12.05
2356.2  44255.45  5288.76  11.95
2358.5  43730.40  5196.80  11.88
2360.8  43209.60  5101.60  11.81
2363.1  42811.21  5013.85  11.71
2365.4  42400.43  4921.15  11.61
2367.7  41971.95  4822.20  11.49
2369.9  41494.80  4728.85  11.40
2372.2  40953.20  4632.53  11.31
2374.5  40436.55  4521.82  11.18
2376.7  39868.40  4405.62  11.05
2379.0  39306.13  4301.43  10.94
2381.3  38771.25  4197.08  10.83
2383.5  38324.00  4097.87  10.69
2385.8  37779.83  3994.78  10.57
2388.0  37320.45  3899.90  10.45
2390.3  36872.70  3803.27  10.31
2392.5  36441.00  3705.00  10.17
2394.8  36018.68  3617.90  10.04
2397.0  35599.20  3536.87  9.94
2399.3  35170.24  3447.88  9.80
2401.5  34774.69  3365.69  9.68
2403.8  34289.60  3273.16  9.55
2406.0  33832.31  3184.88  9.41
2408.2  33482.35  3104.20  9.27
2410.4  33115.16  3024.09  9.13
2412.7  32742.45  2950.03  9.01
2414.9  32409.30  2887.36  8.91
2417.1  32061.15  2813.05  8.77
2419.3  31699.20  2739.20  8.64
2421.6  31358.44  2664.06  8.50
2423.8  31003.30  2590.10  8.35
2426.0  30653.65  2515.52  8.21
2428.2  30331.00  2446.73  8.07
2430.4  30052.90  2385.31  7.94
2432.6  29810.00  2326.67  7.80
2434.8  29553.70  2265.65  7.67
2437.0  29237.65  2206.43  7.55
2439.2  28922.29  2139.01  7.40
2441.4  28619.78  2082.50  7.28
2443.6  28403.61  2027.60  7.14
2445.7  28165.81  1971.43  7.00
2447.9  27920.31  1927.46  6.90
2450.1  27639.86  1875.68  6.79
2452.3  27305.16  1817.52  6.66
2454.5  26976.70  1772.92  6.57
2456.6  26664.40  1715.57  6.43
2458.8  26329.88  1662.38  6.31
2461.0  26058.13  1621.88  6.22
2463.1  25797.15  1575.04  6.11
2465.3  25538.83  1529.19  5.99
2467.5  25322.06  1497.13  5.91
2469.6  25093.56  1461.83  5.83
2471.8  24788.76  1426.58  5.75
2473.9  24525.50  1387.67  5.66
2476.1  24217.38  1346.04  5.56
2478.2  23901.10  1317.69  5.51
2480.4  23646.68  1293.24  5.47
2482.5  23341.13  1258.02  5.39
2484.6  23024.38  1215.50  5.28
2486.8  22784.63  1189.28  5.22
2488.9  22503.09  1167.97  5.19
2491.1  22181.60  1126.53  5.08
2493.2  21854.38  1105.69  5.06
2495.3  21488.68  1078.24  5.02
2497.4  21179.55  1054.55  4.98
2499.5  20888.64  1039.78  4.98
2501.7  20767.63  1018.87  4.91
2503.8  20674.34  994.64  4.81
2505.9  20615.31  986.56  4.79
2508.0  20599.60  980.94  4.76
2510.1  20601.60  974.64  4.73
2512.2  20685.04  972.55  4.70
2514.3  20815.23  991.88  4.77
2516.4  21010.05  1024.40  4.88
