/*** Spectra Vista SIG Data ***/
name= 45_20220825_LIST_62_avg.sig
comm= Averaged Ref/Tar of files: HR.082522.0053_moc.sig,HR.082522.0054_moc.sig,HR.082522.0055_moc.sig
data=
337.3  3324.88  239.15  7.19
338.8  3415.10  240.04  7.03
340.3  3607.45  225.77  6.26
341.8  3795.18  230.80  6.08
343.2  3996.00  225.81  5.65
344.7  4179.70  220.97  5.29
346.2  4289.25  217.09  5.06
347.7  4522.38  217.97  4.82
349.2  4725.00  218.16  4.62
350.6  4994.60  225.25  4.51
352.1  5251.58  217.75  4.15
353.6  5517.30  211.50  3.83
355.1  5792.10  221.93  3.83
356.6  6128.93  227.86  3.72
358.0  6380.00  227.86  3.57
359.5  6674.40  237.19  3.55
361.0  6972.53  235.41  3.38
362.5  7348.03  238.10  3.24
364.0  7713.58  239.78  3.11
365.4  8092.80  245.14  3.03
366.9  8453.25  259.94  3.07
368.4  8837.10  269.11  3.05
369.9  9215.53  282.60  3.07
371.3  9612.00  286.33  2.98
372.8  10035.90  294.33  2.93
374.3  10481.25  303.05  2.89
375.8  10914.75  311.08  2.85
377.2  11351.80  316.65  2.79
378.7  11782.20  320.24  2.72
380.2  12185.70  328.95  2.70
381.7  12701.75  325.33  2.56
383.1  13178.55  333.15  2.53
384.6  13703.30  343.22  2.50
386.1  14215.15  359.82  2.53
387.6  14687.75  368.57  2.51
389.0  15195.60  365.50  2.41
390.5  15717.60  372.71  2.37
392.0  16319.65  376.35  2.31
393.4  16894.83  392.87  2.33
394.9  17434.80  409.15  2.35
396.4  17983.13  420.90  2.34
397.9  18578.13  431.96  2.33
399.3  19145.70  431.73  2.25
400.8  19740.60  439.63  2.23
402.2  20376.50  449.85  2.21
403.7  20993.40  461.78  2.20
405.2  21615.28  473.50  2.19
406.6  22225.60  490.07  2.20
408.1  22871.20  501.07  2.19
409.6  23486.50  514.68  2.19
411.0  24168.20  530.70  2.20
412.5  24844.23  541.45  2.18
414.0  25509.50  556.53  2.18
415.4  26235.00  573.54  2.19
416.9  26927.18  583.39  2.17
418.4  27657.68  600.80  2.17
419.8  28428.40  619.49  2.18
421.3  29143.88  642.38  2.20
422.7  29928.00  663.52  2.22
424.2  30729.38  685.61  2.23
425.7  31507.90  702.92  2.23
427.1  32314.65  726.14  2.25
428.6  33139.00  747.25  2.25
430.0  33916.13  768.87  2.27
431.5  34805.10  796.85  2.29
432.9  35687.40  824.86  2.31
434.4  36600.38  851.31  2.33
435.9  37464.00  872.80  2.33
437.3  38348.75  895.19  2.33
438.8  39231.75  919.48  2.34
440.2  40128.55  947.61  2.36
441.7  41111.20  977.56  2.38
443.1  42029.00  1005.74  2.39
444.6  43020.40  1034.28  2.40
446.0  43998.23  1061.48  2.41
447.5  44991.93  1092.59  2.43
448.9  45962.70  1124.39  2.45
450.4  47008.50  1154.65  2.46
451.8  47905.00  1183.87  2.47
453.3  48848.20  1216.85  2.49
454.7  49880.55  1245.23  2.50
456.2  50770.78  1268.09  2.50
457.6  51772.50  1296.90  2.51
459.1  52793.65  1327.17  2.51
460.5  53767.50  1351.51  2.51
462.0  54857.40  1383.41  2.52
463.4  55923.40  1412.54  2.53
464.8  56929.13  1440.09  2.53
466.3  57937.28  1466.35  2.53
467.7  58932.03  1493.83  2.53
469.2  60029.88  1525.73  2.54
470.6  61047.25  1552.99  2.54
472.0  62112.98  1582.03  2.55
473.5  63152.88  1609.44  2.55
474.9  64210.50  1641.87  2.56
476.4  65404.80  1676.16  2.56
477.8  66482.50  1706.86  2.57
479.2  67526.50  1737.79  2.57
480.7  68654.93  1769.53  2.58
482.1  69822.40  1801.98  2.58
483.6  71050.65  1836.11  2.58
485.0  72186.83  1870.72  2.59
486.4  73419.30  1912.84  2.61
487.9  74514.38  1953.90  2.62
489.3  75701.23  1993.34  2.63
490.7  76790.88  2036.82  2.65
492.2  78057.00  2083.48  2.67
493.6  79183.25  2130.25  2.69
495.0  80335.13  2181.77  2.72
496.5  81534.30  2244.58  2.75
497.9  82678.95  2305.79  2.79
499.3  83867.63  2375.11  2.83
500.7  85160.45  2452.27  2.88
502.2  86344.40  2534.84  2.94
503.6  87629.20  2631.06  3.00
505.0  88749.70  2731.32  3.08
506.5  90083.18  2853.40  3.17
507.9  91277.53  2992.39  3.28
509.3  92662.80  3154.80  3.40
510.7  93936.38  3331.71  3.55
512.2  95375.78  3533.00  3.70
513.6  96891.20  3765.99  3.89
515.0  98351.65  4031.23  4.10
516.4  99763.65  4328.91  4.34
517.8  101417.50  4667.44  4.60
519.3  102789.73  5023.03  4.89
520.7  104377.45  5415.81  5.19
522.1  105706.90  5825.05  5.51
523.5  107085.60  6252.88  5.84
524.9  108531.00  6693.61  6.17
526.3  109949.70  7127.99  6.48
527.8  111523.50  7570.39  6.79
529.2  112718.50  7982.43  7.08
530.6  114285.05  8404.95  7.35
532.0  116032.00  8817.60  7.60
533.4  117410.18  9177.99  7.82
534.8  118324.08  9476.91  8.01
536.3  120034.50  9792.94  8.16
537.7  122056.20  10129.20  8.30
539.1  123570.45  10402.77  8.42
540.5  124801.85  10642.56  8.53
541.9  126640.13  10930.79  8.63
543.3  127961.63  11163.81  8.72
544.7  129355.80  11406.30  8.82
546.1  131184.63  11691.64  8.91
547.5  132440.00  11912.11  8.99
549.0  134211.00  12174.17  9.07
550.4  135723.75  12395.83  9.13
551.8  137319.68  12600.53  9.18
553.2  138877.55  12763.94  9.19
554.6  140264.80  12873.42  9.18
556.0  141836.40  12944.79  9.13
557.4  143486.53  12982.16  9.05
558.8  145169.10  12983.24  8.94
560.2  146681.75  12936.14  8.82
561.6  148389.45  12877.95  8.68
563.0  150033.43  12778.70  8.52
564.4  151666.80  12652.56  8.34
565.8  153233.75  12490.55  8.15
567.2  155036.50  12319.09  7.95
568.6  156567.38  12105.64  7.73
570.0  158050.98  11861.57  7.50
571.4  159816.15  11628.39  7.28
572.8  161635.13  11398.57  7.05
574.2  163307.20  11171.20  6.84
575.6  164902.50  10955.36  6.64
577.0  166460.30  10762.34  6.47
578.4  168236.25  10600.20  6.30
579.8  169795.58  10448.37  6.15
581.2  171564.65  10331.29  6.02
582.5  173019.60  10213.32  5.90
583.9  174581.00  10112.04  5.79
585.3  176430.38  10043.12  5.69
586.7  177945.95  9969.53  5.60
588.1  179474.25  9915.25  5.52
589.5  181177.50  9882.37  5.45
590.9  182838.00  9861.42  5.39
592.3  184685.80  9869.08  5.34
593.7  186183.08  9869.12  5.30
595.0  187834.95  9893.33  5.27
596.4  189316.05  9908.11  5.23
597.8  190842.70  9930.03  5.20
599.2  192416.40  9945.26  5.17
600.6  194211.88  9963.80  5.13
602.0  195535.13  9945.24  5.09
603.3  197369.30  9929.70  5.03
604.7  199080.65  9891.58  4.97
606.1  200610.60  9825.86  4.90
607.5  202288.48  9747.77  4.82
608.9  204020.05  9660.51  4.74
610.2  205409.93  9550.71  4.65
611.6  207039.23  9439.77  4.56
613.0  208629.10  9328.64  4.47
614.4  210043.80  9217.49  4.39
615.8  211536.00  9118.20  4.31
617.1  213120.60  9032.80  4.24
618.5  214792.40  8961.19  4.17
619.9  216322.95  8908.09  4.12
621.3  217999.58  8879.32  4.07
622.6  219630.50  8865.33  4.04
624.0  221151.30  8865.06  4.01
625.4  222679.05  8882.50  3.99
626.8  224319.55  8914.97  3.97
628.1  225657.30  8936.42  3.96
629.5  227532.73  8991.49  3.95
630.9  229112.95  9033.90  3.94
632.2  230469.58  9061.42  3.93
633.6  232078.00  9080.16  3.91
635.0  233593.20  9070.79  3.88
636.3  235141.60  9033.24  3.84
637.7  236560.63  8960.20  3.79
639.1  238262.50  8882.67  3.73
640.4  239796.73  8780.60  3.66
641.8  241047.48  8658.54  3.59
643.2  242670.58  8540.76  3.52
644.5  244057.25  8420.38  3.45
645.9  245754.00  8313.39  3.38
647.2  247421.83  8221.14  3.32
648.6  249257.25  8160.56  3.27
650.0  250776.00  8105.55  3.23
651.3  251348.90  8042.23  3.20
652.7  252697.15  7981.45  3.16
654.0  254785.40  7952.62  3.12
655.4  256332.63  7924.83  3.09
656.8  256578.10  7860.69  3.06
658.1  257781.20  7784.59  3.02
659.5  260176.88  7726.67  2.97
660.8  261922.50  7651.29  2.92
662.2  262841.60  7550.72  2.87
663.5  264537.45  7490.08  2.83
664.9  265818.80  7428.55  2.79
666.2  266644.20  7376.74  2.77
667.6  268458.13  7376.18  2.75
668.9  269579.20  7372.33  2.73
670.3  270827.00  7386.73  2.73
671.6  272380.88  7431.47  2.73
673.0  273597.75  7494.26  2.74
674.3  274879.80  7566.62  2.75
675.7  276224.48  7664.02  2.77
677.0  277360.83  7767.48  2.80
678.4  278770.43  7905.09  2.84
679.7  279915.73  8045.63  2.87
681.1  281257.58  8225.78  2.92
682.4  282415.90  8431.26  2.99
683.8  283697.70  8670.36  3.06
685.1  284726.63  8952.83  3.14
686.4  286047.00  9308.78  3.25
687.8  287314.25  9749.74  3.39
689.1  288426.75  10310.86  3.57
690.5  289857.15  11065.17  3.82
691.8  290714.13  12057.30  4.15
693.1  292094.40  13383.35  4.58
694.5  293247.50  15071.77  5.14
695.8  294476.00  17168.23  5.83
697.1  295704.50  19683.73  6.66
698.5  296779.80  22616.98  7.62
699.8  297926.83  25960.07  8.71
701.1  299105.93  29681.36  9.92
702.5  299915.00  33645.03  11.22
703.8  300915.00  37847.14  12.58
705.1  302109.60  42224.78  13.98
706.5  303181.25  46689.59  15.40
707.8  304228.20  51220.67  16.84
709.1  305160.43  55763.60  18.27
710.5  306365.98  60379.98  19.71
711.8  307249.40  64941.85  21.14
713.1  308275.20  69542.87  22.56
714.4  309211.80  74106.09  23.97
715.8  310081.50  78631.07  25.36
717.1  311424.90  83249.71  26.73
718.4  312435.20  87719.25  28.08
719.7  313593.68  92164.62  29.39
721.0  314145.00  96357.00  30.67
722.4  314955.85  100515.01  31.91
723.7  315944.85  104614.53  33.11
725.0  317036.48  108620.31  34.26
726.3  318020.73  112427.25  35.35
727.6  318614.18  115939.70  36.39
729.0  319551.58  119413.05  37.37
730.3  320369.85  122671.50  38.29
731.6  321322.00  125796.66  39.15
732.9  322149.28  128718.73  39.96
734.2  322995.75  131485.04  40.71
735.5  324080.40  134173.61  41.40
736.8  324927.00  136607.25  42.04
738.1  325828.70  138898.15  42.63
739.5  326846.00  141091.75  43.17
740.8  327573.40  143019.78  43.66
742.1  328293.53  144839.84  44.12
743.4  329025.00  146522.38  44.53
744.7  329993.90  148210.74  44.91
746.0  330918.90  149756.21  45.25
747.3  331544.23  151051.12  45.56
748.6  332329.50  152320.81  45.83
749.9  333060.00  153481.22  46.08
751.2  333752.45  154533.55  46.30
752.5  334589.25  155601.96  46.51
753.8  335194.13  156479.30  46.68
755.1  335894.00  157357.45  46.85
756.4  336532.10  158125.90  46.99
757.7  337619.10  159036.14  47.11
759.0  339482.63  160285.20  47.21
760.3  340744.80  161200.91  47.31
761.6  342368.60  162267.09  47.40
762.9  342935.00  162798.97  47.47
764.2  343351.60  163221.51  47.54
765.5  343649.90  163562.51  47.60
766.8  344107.20  163956.42  47.65
768.1  344664.60  164367.64  47.69
769.3  345293.20  164809.80  47.73
770.6  345993.05  165267.02  47.77
771.9  346749.73  165746.28  47.80
773.2  347161.60  166048.04  47.83
774.5  347804.60  166448.19  47.86
775.8  348508.00  166871.70  47.88
777.1  349129.55  167240.49  47.90
778.4  349480.73  167481.50  47.92
779.6  350279.40  167945.68  47.95
780.9  350760.00  168249.71  47.97
782.2  351263.00  168552.42  47.98
783.5  351604.00  168785.84  48.00
784.8  352175.63  169118.28  48.02
786.0  352618.00  169373.53  48.03
787.3  353023.60  169612.48  48.05
788.6  353512.10  169895.19  48.06
789.9  353942.40  170171.17  48.08
791.2  354644.03  170552.15  48.09
792.4  355371.58  170949.31  48.10
793.7  355877.00  171227.49  48.11
795.0  356515.50  171585.53  48.13
796.2  357206.33  171963.35  48.14
797.5  357980.03  172360.35  48.15
798.8  358696.18  172755.48  48.16
800.0  359389.95  173125.00  48.17
801.3  359880.90  173388.64  48.18
802.6  360515.25  173743.10  48.19
803.8  361192.30  174093.71  48.20
805.1  361726.75  174372.17  48.21
806.4  362216.70  174657.66  48.22
807.7  362780.78  174955.72  48.23
808.9  363364.55  175286.13  48.24
810.2  363939.10  175595.22  48.25
811.4  364428.80  175889.29  48.26
812.7  365056.25  176225.06  48.27
814.0  365946.95  176668.32  48.28
815.2  366690.25  177023.98  48.28
816.5  367116.10  177269.95  48.29
817.7  367610.15  177551.63  48.30
819.0  368151.85  177852.85  48.31
820.2  368324.00  177967.85  48.32
821.5  369076.90  178357.61  48.33
822.7  369489.28  178577.54  48.33
824.0  369816.30  178793.18  48.35
825.2  370364.40  179076.00  48.35
826.5  370683.28  179274.00  48.36
827.7  371281.28  179594.29  48.37
829.0  371723.03  179801.75  48.37
830.2  372061.80  179995.17  48.38
831.5  372614.50  180258.20  48.38
832.7  372974.70  180452.98  48.38
834.0  373351.05  180663.11  48.39
835.2  373767.90  180890.10  48.40
836.4  374090.20  181072.95  48.40
837.7  374467.80  181326.36  48.42
838.9  374950.60  181594.34  48.43
840.1  375311.48  181835.81  48.45
841.4  375881.40  182103.84  48.45
842.6  376278.00  182350.74  48.46
843.8  376680.80  182571.93  48.47
845.1  377228.60  182883.92  48.48
846.3  377608.30  183136.72  48.50
847.5  378067.20  183386.72  48.51
848.8  378525.00  183637.82  48.51
850.0  378907.20  183872.38  48.53
851.2  379557.90  184205.62  48.53
852.5  379948.70  184473.64  48.55
853.7  380472.75  184769.36  48.56
854.9  381000.40  185047.26  48.57
856.1  381481.10  185298.47  48.57
857.4  381719.10  185455.51  48.58
858.6  382243.20  185725.06  48.59
859.8  382741.88  185984.46  48.59
861.0  383221.80  186257.31  48.60
862.2  383733.93  186531.94  48.61
863.5  384120.10  186745.00  48.62
864.7  384707.40  187025.90  48.62
865.9  385203.20  187269.26  48.62
867.1  385580.00  187465.32  48.62
868.3  386001.45  187742.33  48.64
869.5  386571.50  188041.40  48.64
870.8  387090.00  188343.00  48.66
872.0  387707.55  188611.14  48.65
873.2  388249.20  188862.50  48.64
874.4  388714.95  189120.30  48.65
875.6  389222.23  189340.26  48.65
876.8  389700.80  189625.82  48.66
878.0  390287.00  189917.90  48.66
879.2  390851.85  190194.18  48.66
880.4  391448.63  190446.78  48.65
881.6  392005.13  190731.93  48.66
882.8  392476.00  190951.59  48.65
884.0  393050.50  191274.68  48.66
885.2  393597.60  191556.85  48.67
886.5  394316.30  191865.23  48.66
887.7  394939.68  192132.21  48.65
888.8  395677.13  192470.29  48.64
890.0  396333.15  192776.74  48.64
891.2  397006.90  193093.39  48.64
892.4  397679.63  193389.45  48.63
893.6  398214.55  193661.66  48.63
894.8  399211.00  194135.22  48.63
896.0  400176.00  194584.82  48.62
897.2  401085.75  195004.02  48.62
898.4  401936.70  195410.54  48.62
899.6  402515.63  195682.69  48.61
900.8  402934.35  195873.63  48.61
902.0  403201.50  195981.29  48.61
903.2  403495.95  196130.51  48.61
904.3  404067.00  196351.29  48.59
905.5  404849.05  196672.90  48.58
906.7  405422.00  196960.33  48.58
907.9  405903.75  197213.57  48.59
909.1  406260.23  197354.20  48.58
910.2  406553.03  197442.67  48.57
911.4  406905.53  197556.45  48.55
912.6  407314.05  197605.57  48.51
913.8  407505.08  197765.56  48.53
915.0  407961.75  197951.74  48.52
916.2  408135.00  198068.00  48.53
917.3  408036.60  198066.85  48.54
918.5  408383.90  198148.50  48.52
919.7  408857.40  198229.56  48.48
920.8  408918.85  198204.72  48.47
922.0  409101.00  198228.80  48.45
923.2  409363.50  198286.40  48.44
924.4  409590.00  198369.13  48.43
925.5  409956.60  198464.37  48.41
926.7  410609.50  198690.41  48.39
927.9  411676.20  199049.47  48.35
929.0  413197.20  199639.11  48.32
930.2  415476.80  200607.94  48.28
931.4  417997.80  201769.60  48.27
932.5  420806.40  202984.22  48.24
933.7  422370.58  203629.49  48.21
934.9  423141.25  203829.92  48.17
936.0  422786.00  203515.00  48.14
937.2  420573.90  202340.62  48.11
938.3  418877.90  201305.91  48.06
939.5  417416.40  200377.92  48.00
940.7  417717.00  200360.09  47.97
941.8  419090.33  201010.32  47.96
943.0  420699.75  201548.70  47.91
944.2  421738.85  201729.10  47.83
945.3  421443.75  201266.19  47.76
946.5  420523.65  200653.25  47.72
947.6  420684.20  200536.49  47.67
948.8  420646.20  200252.28  47.61
949.9  420856.80  200032.00  47.53
951.1  420500.93  199482.27  47.44
952.2  420444.00  199037.94  47.34
953.4  420303.00  198498.13  47.23
954.5  420357.60  198140.50  47.14
955.7  420260.40  197712.72  47.05
956.8  420111.20  197305.34  46.97
958.0  419742.50  196852.32  46.90
959.1  419622.78  196475.34  46.82
960.3  419244.43  196048.21  46.76
961.4  419375.40  195824.68  46.69
962.6  419562.50  195667.97  46.64
963.7  419260.43  195470.29  46.62
964.9  419211.75  195359.61  46.60
966.0  419195.25  195227.67  46.57
967.2  419206.05  195169.11  46.56
968.3  418964.40  194953.35  46.53
969.5  418803.35  194791.88  46.51
970.6  418939.98  194831.63  46.51
971.8  419494.43  194911.42  46.46
972.9  419630.40  194875.98  46.44
974.0  420085.10  195161.34  46.46
975.2  419924.88  195058.52  46.45
976.3  419832.78  194989.80  46.44
977.5  419774.25  195073.47  46.47
978.6  420105.00  195058.28  46.43
979.7  420477.75  195179.34  46.42
980.9  420713.03  195237.64  46.41
982.0  419956.25  195289.37  46.50
983.2  419980.35  195192.81  46.48
984.3  419269.80  195074.01  46.53
985.4  419466.88  195007.33  46.49
986.6  419447.38  195081.19  46.51
987.7  420685.13  195630.23  46.50
988.9  420534.00  195540.10  46.50
990.0  421338.30  195952.28  46.51
993.1  371424.67  171491.63  46.17
996.9  372275.25  172490.51  46.33
1000.7  373368.39  173626.62  46.50
1004.5  374118.92  174493.95  46.64
1008.4  373944.13  175017.94  46.80
1012.2  374114.04  175636.51  46.95
1016.0  374271.00  176213.66  47.08
1019.8  374578.05  176836.28  47.21
1023.7  374749.84  177328.51  47.32
1027.5  374622.00  177637.88  47.42
1031.3  375000.63  178141.85  47.50
1035.1  374953.83  178393.98  47.58
1038.9  374963.23  178668.00  47.65
1042.7  374866.33  178852.01  47.71
1046.5  374709.50  178984.52  47.77
1050.3  374823.13  179160.88  47.80
1054.2  374555.42  179188.58  47.84
1058.0  374030.24  179037.31  47.87
1061.8  373906.11  179067.39  47.89
1065.6  373644.70  178964.34  47.90
1069.4  373773.87  179026.85  47.90
1073.2  373517.05  178843.99  47.88
1077.0  373060.63  178575.83  47.87
1080.8  372498.96  178211.90  47.84
1084.6  371362.83  177544.50  47.81
1088.4  370656.67  177099.59  47.78
1092.2  369807.75  176527.93  47.74
1096.0  369235.50  176057.56  47.68
1099.8  368727.88  175607.68  47.63
1103.6  368082.97  175044.13  47.56
1107.4  367242.75  174342.16  47.47
1111.2  367052.70  173956.00  47.39
1114.9  366423.75  173308.58  47.30
1118.7  365822.33  172571.50  47.17
1122.5  365144.87  171674.16  47.02
1126.3  364019.54  170461.00  46.83
1130.1  363518.82  169230.91  46.55
1133.9  361900.70  167132.70  46.18
1137.7  360442.50  164777.39  45.72
1141.4  358658.84  161961.35  45.16
1145.2  357983.35  159424.70  44.53
1149.0  356876.04  156821.46  43.94
1152.8  355238.50  154265.19  43.43
1156.6  353558.33  152176.38  43.04
1160.3  351762.67  150519.05  42.79
1164.1  349299.27  148920.76  42.63
1167.9  347491.67  147857.14  42.55
1171.7  346200.75  147163.50  42.51
1175.4  345032.40  146575.50  42.48
1179.2  343996.13  146024.76  42.45
1183.0  343711.00  145759.62  42.41
1186.7  343154.23  145379.40  42.37
1190.5  342066.53  144788.47  42.33
1194.3  340870.30  144201.83  42.30
1198.0  339636.00  143689.90  42.31
1201.8  338145.30  143130.29  42.33
1205.6  336898.33  142751.48  42.37
1209.3  335952.32  142583.08  42.44
1213.1  334965.45  142426.43  42.52
1216.8  333977.42  142329.50  42.62
1220.6  332845.33  142164.00  42.71
1224.3  331575.83  141926.05  42.80
1228.1  330304.40  141705.91  42.90
1231.9  329075.43  141440.01  42.98
1235.6  327592.65  141044.97  43.05
1239.4  326216.88  140701.23  43.13
1243.1  324962.36  140344.18  43.19
1246.9  323738.90  139964.09  43.23
1250.6  322764.13  139654.55  43.27
1254.3  321669.88  139271.33  43.30
1258.1  320658.57  138879.73  43.31
1261.8  319360.53  138336.00  43.32
1265.6  317891.67  137670.41  43.31
1269.3  316412.88  136942.59  43.28
1273.1  316355.53  136764.88  43.23
1276.8  316684.00  136689.31  43.16
1280.6  316629.53  136411.49  43.08
1284.3  315306.40  135527.26  42.98
1288.0  313837.73  134515.80  42.86
1291.8  312489.67  133436.89  42.70
1295.5  311050.67  132267.98  42.52
1299.2  309767.07  131068.76  42.31
1302.9  308311.41  129696.33  42.07
1306.7  306780.02  128161.02  41.78
1310.4  305300.72  126493.61  41.43
1314.1  303907.27  124757.10  41.05
1317.9  302691.46  122913.75  40.61
1321.6  301296.33  120856.22  40.11
1325.3  299673.68  118550.55  39.56
1329.0  298284.82  116269.05  38.98
1332.8  296188.20  113588.20  38.35
1336.5  294387.13  111003.94  37.71
1340.2  294066.50  109005.00  37.07
1343.9  293733.75  107012.35  36.43
1347.6  293318.25  105046.76  35.81
1351.4  293849.00  103504.57  35.22
1355.1  294584.40  102086.91  34.65
1358.8  294960.00  100484.57  34.07
1362.5  294530.58  98459.54  33.43
1366.2  292621.85  95631.07  32.68
1369.9  290512.50  92353.95  31.79
1373.6  288438.85  88551.51  30.70
1377.3  286692.90  84126.90  29.34
1381.0  285584.17  78960.31  27.65
1384.8  283448.75  72556.25  25.60
1388.4  280907.08  65591.03  23.35
1392.2  278981.50  58547.93  20.99
1395.9  277360.70  51708.09  18.64
1399.6  275631.42  45426.92  16.48
1403.3  274368.34  40064.43  14.60
1407.0  273132.90  35634.51  13.05
1410.7  271835.85  32127.03  11.82
1414.3  270488.93  29447.24  10.89
1418.1  269209.79  27485.68  10.21
1421.7  268218.36  26065.49  9.72
1425.4  267251.40  25066.28  9.38
1429.1  266341.13  24386.95  9.16
1432.8  264823.03  23889.52  9.02
1436.5  263983.74  23622.10  8.95
1440.2  263092.23  23481.21  8.93
1443.9  261731.71  23387.99  8.94
1447.6  260075.20  23335.40  8.97
1451.2  258972.45  23368.45  9.02
1454.9  257671.20  23439.21  9.10
1458.6  256573.43  23607.68  9.20
1462.3  255431.37  23883.67  9.35
1466.0  254067.82  24281.42  9.56
1469.7  252397.38  24794.06  9.82
1473.3  251365.67  25504.86  10.15
1477.0  249453.30  26240.37  10.52
1480.7  247866.38  27086.76  10.93
1484.4  245949.97  27927.03  11.35
1488.0  244390.67  28851.43  11.81
1491.7  242746.97  29773.25  12.27
1495.4  241013.21  30707.69  12.74
1499.0  239409.50  31639.00  13.22
1502.7  238062.42  32618.74  13.70
1506.4  236639.69  33563.63  14.18
1510.0  235225.43  34496.42  14.67
1513.7  233768.79  35392.29  15.14
1517.4  232443.67  36292.00  15.61
1521.0  231219.87  37189.13  16.08
1524.7  229980.83  38037.07  16.54
1528.3  228697.88  38849.80  16.99
1532.0  227490.08  39637.58  17.42
1535.7  226114.26  40349.83  17.84
1539.3  224848.49  41057.14  18.26
1543.0  223881.18  41784.86  18.66
1546.6  223178.58  42529.66  19.06
1550.3  222200.75  43181.67  19.43
1553.9  221123.23  43777.99  19.80
1557.6  219868.00  44304.02  20.15
1561.2  218610.45  44777.51  20.48
1564.9  217312.53  45217.76  20.81
1568.5  215996.90  45618.65  21.12
1572.2  214824.50  46021.78  21.42
1575.8  213738.00  46424.00  21.72
1579.5  212749.85  46807.06  22.00
1583.1  211782.19  47179.06  22.28
1586.8  210560.00  47464.00  22.54
1590.4  209517.67  47763.45  22.80
1594.0  208191.75  47975.94  23.04
1597.7  207047.17  48211.18  23.29
1601.3  205721.78  48391.43  23.52
1604.9  204413.72  48539.75  23.75
1608.6  203079.95  48644.02  23.95
1612.2  202044.15  48784.96  24.15
1615.8  200904.60  48880.56  24.33
1619.5  199801.58  48954.86  24.50
1623.1  198522.20  48955.16  24.66
1626.7  197271.10  48926.47  24.80
1630.3  196058.00  48877.32  24.93
1634.0  194936.00  48820.00  25.04
1637.6  193937.13  48747.03  25.14
1641.2  192920.55  48604.97  25.19
1644.8  191704.03  48343.21  25.22
1648.5  190617.98  48062.65  25.21
1652.1  189645.00  47758.71  25.18
1655.7  188703.80  47452.35  25.15
1659.3  187824.45  47211.97  25.14
1662.9  186390.83  46877.50  25.15
1666.6  184934.47  46582.77  25.19
1670.2  183531.54  46300.12  25.23
1673.8  182073.56  45980.61  25.25
1677.4  180893.75  45696.62  25.26
1681.0  180089.63  45454.21  25.24
1684.6  179689.25  45261.82  25.19
1688.2  179039.95  44918.16  25.09
1691.8  178382.98  44584.63  24.99
1695.4  177954.40  44253.28  24.87
1699.0  177589.30  43897.63  24.72
1702.6  177260.33  43530.33  24.56
1706.2  176660.58  43095.33  24.39
1709.8  175740.64  42596.73  24.24
1713.4  175022.44  42157.57  24.09
1717.0  174153.25  41679.28  23.93
1720.6  173369.85  41196.92  23.76
1724.2  172682.25  40713.27  23.58
1727.8  171976.35  40226.50  23.39
1731.4  171472.13  39776.59  23.20
1735.0  171248.37  39382.91  23.00
1738.6  170969.70  38940.62  22.78
1742.2  170343.53  38394.20  22.54
1745.8  169668.52  37823.16  22.29
1749.4  168663.00  37169.90  22.04
1753.0  167138.67  36399.04  21.78
1756.6  165466.00  35618.21  21.53
1760.1  164124.69  34931.41  21.28
1763.7  162426.00  34193.33  21.05
1767.3  161006.75  33549.76  20.84
1770.9  159770.63  32975.02  20.64
1774.5  158328.79  32395.52  20.46
1778.0  157188.18  31917.69  20.31
1781.6  156090.45  31490.36  20.17
1785.2  154967.85  31095.31  20.07
1788.8  153808.60  30747.91  19.99
1792.3  152592.30  30414.44  19.93
1795.9  152143.66  30266.29  19.89
1799.5  151684.67  30135.95  19.87
1803.1  151070.27  30002.58  19.86
1806.6  151565.75  30081.85  19.85
1810.2  152737.90  30280.40  19.83
1813.8  153792.50  30460.40  19.81
1817.3  153885.60  30444.80  19.78
1820.9  153202.67  30267.64  19.76
1824.5  152036.10  29982.84  19.72
1828.0  151232.58  29733.46  19.66
1831.6  150561.75  29479.39  19.58
1835.2  149954.17  29169.17  19.45
1838.7  149577.07  28811.29  19.26
1842.3  149205.00  28371.43  19.02
1845.8  148329.17  27717.24  18.69
1849.4  147817.20  26983.98  18.25
1852.9  147112.35  26047.62  17.71
1856.5  146210.40  24874.92  17.01
1860.0  145442.14  23497.46  16.16
1863.6  145298.39  22012.17  15.15
1867.1  145329.10  20335.00  13.99
1870.7  145399.78  18378.15  12.64
1874.2  144537.30  16069.95  11.12
1877.8  143024.33  13728.65  9.60
1881.3  141363.75  11483.64  8.12
1884.9  140323.79  9563.07  6.82
1888.4  139275.43  7936.21  5.70
1891.9  138275.40  6678.13  4.83
1895.5  137234.17  5790.73  4.22
1899.0  136787.63  5245.07  3.83
1901.3  168811.00  3716.67  2.20
1904.1  168732.00  3440.00  2.04
1906.8  167931.00  3243.00  1.93
1909.6  166196.80  3064.83  1.84
1912.4  164562.42  2948.83  1.79
1915.1  163390.15  2862.57  1.75
1917.9  162042.00  2799.89  1.73
1920.6  160939.43  2756.68  1.71
1923.3  159868.33  2722.45  1.70
1926.1  158468.67  2682.66  1.69
1928.8  157153.33  2659.56  1.69
1931.6  156128.33  2652.80  1.70
1934.3  155150.83  2639.95  1.70
1937.0  154250.10  2634.24  1.71
1939.8  153247.50  2641.00  1.72
1942.5  151954.00  2643.67  1.74
1945.2  150260.55  2650.82  1.76
1947.9  148894.67  2658.83  1.79
1950.7  147808.73  2676.06  1.81
1953.4  146095.90  2686.73  1.84
1956.1  144762.42  2715.14  1.88
1958.8  143569.83  2751.52  1.92
1961.5  142121.60  2781.47  1.96
1964.2  140631.40  2821.00  2.01
1966.9  139071.35  2850.75  2.05
1969.6  137844.00  2895.00  2.10
1972.3  136463.70  2954.80  2.17
1975.0  135413.85  3020.80  2.23
1977.7  134321.92  3079.96  2.29
1980.4  133174.43  3147.23  2.36
1983.1  132083.65  3225.17  2.44
1985.8  131169.90  3306.00  2.52
1988.4  130156.00  3391.56  2.61
1991.1  129223.73  3482.11  2.69
1993.8  128371.10  3575.92  2.79
1996.5  127733.47  3685.06  2.88
1999.1  127052.75  3797.08  2.99
2001.8  126366.10  3913.78  3.10
2004.5  125684.50  4025.13  3.20
2007.1  124957.90  4134.70  3.31
2009.8  124207.77  4247.60  3.42
2012.4  123631.93  4365.78  3.53
2015.1  123068.17  4486.46  3.65
2017.8  122291.17  4598.69  3.76
2020.4  121779.35  4719.06  3.88
2023.1  121419.20  4840.42  3.99
2025.7  121194.67  4963.11  4.10
2028.3  120856.67  5081.56  4.20
2031.0  120455.20  5198.42  4.32
2033.6  120181.80  5309.90  4.42
2036.2  119920.80  5425.90  4.52
2038.9  119329.20  5512.90  4.62
2041.5  118982.50  5616.44  4.72
2044.1  118433.10  5707.20  4.82
2046.8  118059.00  5794.20  4.91
2049.4  117432.60  5872.50  5.00
2052.0  117131.47  5959.04  5.09
2054.6  116742.50  6049.17  5.18
2057.2  116179.53  6127.89  5.27
2059.8  115847.67  6206.49  5.36
2062.4  114981.55  6267.28  5.45
2065.0  114459.07  6343.31  5.54
2067.6  113560.73  6403.84  5.64
2070.2  112959.28  6470.67  5.73
2072.8  112331.68  6540.41  5.82
2075.4  111886.25  6612.08  5.91
2078.0  111249.70  6675.33  6.00
2080.6  110686.40  6734.93  6.08
2083.2  110004.13  6791.24  6.17
2085.8  109519.38  6851.00  6.26
2088.4  108853.17  6898.83  6.34
2090.9  108048.25  6944.59  6.43
2093.5  107172.50  6969.50  6.50
2096.1  106410.08  7003.24  6.58
2098.7  105637.15  7035.45  6.66
2101.2  104669.00  7047.80  6.73
2103.8  103996.53  7079.82  6.81
2106.4  103332.80  7108.93  6.88
2108.9  102669.07  7143.87  6.96
2111.5  101821.93  7161.33  7.03
2114.0  101201.87  7175.89  7.09
2116.6  100677.50  7204.17  7.16
2119.1  100124.10  7223.73  7.21
2121.7  99636.25  7247.92  7.27
2124.2  99229.90  7273.41  7.33
2126.8  98434.82  7269.67  7.39
2129.3  98049.60  7295.20  7.44
2131.9  97468.80  7309.87  7.50
2134.4  97031.40  7345.50  7.57
2136.9  96624.02  7367.25  7.62
2139.4  96105.80  7385.93  7.69
2142.0  95662.47  7415.49  7.75
2144.5  95381.30  7461.17  7.82
2147.0  95148.93  7506.98  7.89
2149.5  94648.67  7527.82  7.95
2152.1  94486.70  7578.94  8.02
2154.6  94420.27  7631.11  8.08
2157.1  93894.42  7642.11  8.14
2159.6  93476.58  7660.28  8.19
2162.1  93311.40  7695.57  8.25
2164.6  93068.67  7726.80  8.30
2167.1  92742.48  7750.73  8.36
2169.6  92433.95  7763.51  8.40
2172.1  91973.23  7768.31  8.45
2174.6  91656.60  7793.27  8.50
2177.1  91218.03  7804.19  8.56
2179.5  90800.23  7819.79  8.61
2182.0  90321.00  7825.95  8.66
2184.5  89779.73  7822.57  8.71
2187.0  89173.30  7817.09  8.77
2189.5  88498.47  7798.46  8.81
2191.9  87723.00  7780.50  8.87
2194.4  87096.00  7767.33  8.92
2196.9  86342.40  7750.40  8.98
2199.3  85666.00  7733.33  9.03
2201.8  84787.07  7695.82  9.08
2204.3  84325.17  7679.91  9.11
2206.7  83705.30  7643.60  9.13
2209.2  83227.55  7639.82  9.18
2211.6  82585.80  7619.70  9.23
2214.1  82276.55  7611.75  9.25
2216.5  81711.60  7572.51  9.27
2219.0  81373.87  7555.95  9.29
2221.4  80989.42  7530.06  9.30
2223.9  80513.42  7483.78  9.30
2226.3  80007.67  7434.19  9.29
2228.7  79462.00  7372.96  9.28
2231.1  78883.20  7293.00  9.25
2233.6  78294.53  7224.84  9.23
2236.0  77736.75  7136.69  9.18
2238.4  77231.00  7044.14  9.12
2240.9  76774.73  6946.71  9.05
2243.3  76238.33  6844.07  8.98
2245.7  75679.70  6729.52  8.89
2248.1  75188.53  6617.87  8.80
2250.5  74675.33  6502.48  8.71
2252.9  74052.33  6372.02  8.60
2255.3  73500.65  6241.97  8.49
2257.7  73050.00  6123.33  8.38
2260.1  72551.03  6006.62  8.28
2262.5  71960.00  5883.33  8.18
2264.9  71430.75  5763.71  8.07
2267.3  70800.00  5640.00  7.97
2269.7  70313.60  5528.37  7.86
2272.1  69766.08  5422.36  7.77
2274.5  69214.45  5314.46  7.68
2276.8  68724.35  5218.68  7.59
2279.2  68149.05  5105.40  7.49
2281.6  67708.40  5023.26  7.42
2284.0  67255.90  4922.07  7.32
2286.3  66788.80  4830.22  7.23
2288.7  66385.15  4748.83  7.15
2291.1  65841.27  4645.93  7.06
2293.4  65398.67  4558.40  6.97
2295.8  64776.70  4442.73  6.86
2298.2  64170.00  4350.45  6.78
2300.5  63517.95  4246.95  6.69
2302.9  62775.00  4140.22  6.60
2305.2  62047.20  4030.73  6.50
2307.6  61373.85  3947.85  6.43
2309.9  60605.00  3850.89  6.35
2312.2  60016.00  3768.22  6.28
2314.6  59409.00  3694.95  6.22
2316.9  58715.55  3612.15  6.15
2319.2  58136.27  3541.94  6.09
2321.6  57502.90  3464.57  6.03
2323.9  56937.50  3392.36  5.96
2326.2  56413.03  3314.32  5.88
2328.6  55886.60  3239.50  5.80
2330.9  55387.50  3171.00  5.73
2333.2  54916.92  3111.50  5.67
2335.5  54484.40  3045.93  5.59
2337.8  54013.72  2976.20  5.51
2340.1  53442.20  2900.72  5.43
2342.4  52996.67  2838.33  5.36
2344.8  52574.67  2780.11  5.29
2347.1  51992.97  2716.08  5.22
2349.4  51458.85  2651.35  5.15
2351.6  50874.97  2596.26  5.10
2353.9  50378.20  2530.31  5.02
2356.2  49858.25  2479.01  4.97
2358.5  49268.80  2404.27  4.88
2360.8  48697.60  2352.00  4.83
2363.1  48242.88  2299.42  4.77
2365.4  47787.70  2244.93  4.70
2367.7  47298.60  2192.60  4.64
2369.9  46750.35  2137.33  4.57
2372.2  46141.87  2094.58  4.54
2374.5  45553.20  2032.80  4.46
2376.7  44921.65  1974.83  4.40
2379.0  44299.73  1907.87  4.31
2381.3  43680.00  1855.00  4.25
2383.5  43155.20  1806.93  4.19
2385.8  42560.03  1757.16  4.13
2388.0  42031.60  1699.20  4.04
2390.3  41521.47  1653.42  3.98
2392.5  41052.00  1608.00  3.92
2394.8  40571.30  1560.90  3.85
2397.0  40076.40  1512.62  3.77
2399.3  39595.83  1466.06  3.70
2401.5  39175.50  1425.08  3.64
2403.8  38637.38  1387.68  3.59
2406.0  38131.58  1349.28  3.54
2408.2  37724.13  1304.84  3.46
2410.4  37300.20  1260.82  3.38
2412.7  36895.73  1214.78  3.29
2414.9  36520.55  1189.10  3.26
2417.1  36118.80  1164.17  3.22
2419.3  35712.00  1134.93  3.18
2421.6  35327.08  1093.61  3.10
2423.8  34958.13  1058.94  3.03
2426.0  34574.62  1034.34  2.99
2428.2  34195.47  1010.49  2.96
2430.4  33890.57  979.27  2.89
2432.6  33613.33  960.00  2.86
2434.8  33309.73  940.12  2.82
2437.0  32951.97  908.99  2.76
2439.2  32575.17  883.09  2.71
2441.4  32256.47  867.99  2.69
2443.6  32013.22  838.21  2.62
2445.7  31737.30  809.86  2.55
2447.9  31465.58  788.61  2.51
2450.1  31162.90  777.43  2.49
2452.3  30802.57  757.60  2.46
2454.5  30451.62  737.53  2.42
2456.6  30074.13  718.09  2.39
2458.8  29701.10  686.40  2.31
2461.0  29395.58  672.78  2.29
2463.1  29085.45  654.75  2.25
2465.3  28813.03  638.99  2.22
2467.5  28556.00  634.25  2.22
2469.6  28296.92  626.50  2.21
2471.8  27976.05  620.69  2.22
2473.9  27662.83  598.31  2.16
2476.1  27300.00  581.39  2.13
2478.2  26978.23  583.95  2.16
2480.4  26662.95  573.07  2.15
2482.5  26306.18  552.24  2.10
2484.6  25977.42  535.03  2.06
2486.8  25716.60  507.63  1.97
2488.9  25426.95  489.28  1.92
2491.1  25053.47  497.16  1.98
2493.2  24652.53  494.97  2.01
2495.3  24242.40  486.35  2.01
2497.4  23892.40  472.27  1.98
2499.5  23562.93  469.31  1.99
2501.7  23433.93  460.13  1.96
2503.8  23336.47  456.92  1.96
2505.9  23284.58  444.16  1.91
2508.0  23279.65  432.08  1.86
2510.1  23284.10  441.12  1.89
2512.2  23359.55  440.40  1.89
2514.3  23520.35  455.60  1.94
2516.4  23738.50  485.93  2.05
