/*** Spectra Vista SIG Data ***/
name= 16_20220824_QUPA_38_avg.sig
comm= Averaged Ref/Tar of files: HR.082422.0044_moc.sig,HR.082422.0045_moc.sig,HR.082422.0046_moc.sig
data=
337.3  3506.83  264.67  7.55
338.8  3623.53  256.53  7.08
340.3  3779.23  249.87  6.61
341.8  3962.83  252.58  6.37
343.2  4144.00  253.71  6.12
344.7  4321.87  243.71  5.64
346.2  4547.97  229.54  5.05
347.7  4745.22  220.97  4.66
349.2  4914.00  216.00  4.40
350.6  5165.98  216.85  4.20
352.1  5454.02  221.15  4.05
353.6  5737.07  224.72  3.92
355.1  6061.50  227.70  3.76
356.6  6358.35  224.74  3.53
358.0  6656.47  230.90  3.47
359.5  6962.80  238.37  3.42
361.0  7261.80  242.25  3.34
362.5  7650.53  248.14  3.24
364.0  8009.88  253.98  3.17
365.4  8392.53  259.59  3.09
366.9  8766.33  260.46  2.97
368.4  9128.03  267.56  2.93
369.9  9512.80  275.40  2.90
371.3  9932.40  289.88  2.92
372.8  10354.50  303.43  2.93
374.3  10803.75  304.58  2.82
375.8  11265.10  305.43  2.71
377.2  11692.53  307.43  2.63
378.7  12105.00  312.55  2.58
380.2  12535.40  312.55  2.49
381.7  13062.08  326.87  2.50
383.1  13564.83  336.23  2.48
384.6  14116.92  349.39  2.47
386.1  14629.53  347.46  2.38
387.6  15109.97  351.63  2.33
389.0  15615.47  362.44  2.32
390.5  16124.70  374.23  2.32
392.0  16734.03  385.41  2.30
393.4  17323.98  392.88  2.27
394.9  17904.60  400.20  2.24
396.4  18457.50  414.00  2.24
397.9  19047.92  429.52  2.25
399.3  19618.43  438.97  2.24
400.8  20189.25  446.27  2.21
402.2  20867.50  458.27  2.20
403.7  21507.00  470.04  2.19
405.2  22128.23  482.52  2.18
406.6  22720.53  492.72  2.17
408.1  23338.27  503.66  2.16
409.6  23954.77  518.44  2.16
411.0  24652.13  532.73  2.16
412.5  25350.97  551.37  2.17
414.0  26039.25  566.62  2.18
415.4  26765.00  579.21  2.16
416.9  27447.60  592.94  2.16
418.4  28174.35  602.93  2.14
419.8  28901.60  620.53  2.15
421.3  29660.80  636.61  2.15
422.7  30473.20  657.89  2.16
424.2  31286.25  679.82  2.17
425.7  32067.53  695.47  2.17
427.1  32852.70  711.37  2.17
428.6  33686.67  729.24  2.16
430.0  34447.25  748.63  2.17
431.5  35352.35  767.57  2.17
432.9  36244.10  788.31  2.17
434.4  37168.60  811.75  2.18
435.9  38042.67  833.33  2.19
437.3  38912.50  851.19  2.19
438.8  39783.80  870.09  2.19
440.2  40685.52  888.07  2.18
441.7  41682.93  912.48  2.19
443.1  42620.83  936.33  2.20
444.6  43623.00  960.67  2.20
446.0  44590.75  984.86  2.21
447.5  45590.78  1009.38  2.21
448.9  46560.40  1033.23  2.22
450.4  47595.57  1060.67  2.23
451.8  48498.67  1087.05  2.24
453.3  49449.65  1112.00  2.25
454.7  50504.17  1138.07  2.25
456.2  51409.98  1161.28  2.26
457.6  52418.55  1183.37  2.26
459.1  53433.25  1209.40  2.26
460.5  54409.50  1231.78  2.26
462.0  55497.58  1255.89  2.26
463.4  56562.73  1279.97  2.26
464.8  57590.50  1302.93  2.26
466.3  58624.50  1327.70  2.26
467.7  59659.23  1352.54  2.27
469.2  60766.47  1379.35  2.27
470.6  61763.80  1403.66  2.27
472.0  62840.18  1428.95  2.27
473.5  63873.25  1451.51  2.27
474.9  64942.00  1479.29  2.28
476.4  66144.00  1507.20  2.28
477.8  67260.67  1537.00  2.29
479.2  68314.33  1561.86  2.29
480.7  69451.05  1590.87  2.29
482.1  70631.60  1621.15  2.30
483.6  71864.67  1654.18  2.30
485.0  73002.25  1683.23  2.31
486.4  74253.50  1718.28  2.31
487.9  75377.25  1750.82  2.32
489.3  76579.82  1788.03  2.33
490.7  77689.10  1827.30  2.35
492.2  78968.40  1869.00  2.37
493.6  80115.97  1910.08  2.38
495.0  81266.25  1951.39  2.40
496.5  82502.85  1998.60  2.42
497.9  83637.72  2048.91  2.45
499.3  84841.07  2110.40  2.49
500.7  86132.23  2177.97  2.53
502.2  87327.47  2247.01  2.57
503.6  88612.27  2330.44  2.63
505.0  89726.37  2419.34  2.70
506.5  91092.80  2521.60  2.77
507.9  92330.10  2641.67  2.86
509.3  93762.93  2780.99  2.97
510.7  95052.75  2943.11  3.10
512.2  96500.00  3129.36  3.24
513.6  98029.63  3342.87  3.41
515.0  99489.65  3584.70  3.60
516.4  100907.10  3851.55  3.82
517.8  102566.33  4159.48  4.06
519.3  103920.42  4486.57  4.32
520.7  105534.23  4845.24  4.59
522.1  106880.80  5209.35  4.87
523.5  108290.27  5585.15  5.16
524.9  109758.60  5965.28  5.43
526.3  111183.80  6331.77  5.69
527.8  112711.50  6695.23  5.94
529.2  113945.27  7029.96  6.17
530.6  115600.00  7368.12  6.37
532.0  117376.00  7685.33  6.55
533.4  118736.00  7944.61  6.69
534.8  119712.70  8151.64  6.81
536.3  121492.20  8387.46  6.90
537.7  123597.60  8629.20  6.98
539.1  125115.18  8814.13  7.04
540.5  126372.37  8976.67  7.10
541.9  128174.80  9173.28  7.16
543.3  129508.82  9330.55  7.20
544.7  130856.80  9491.31  7.25
546.1  132699.23  9691.13  7.30
547.5  134004.27  9844.27  7.35
549.0  135879.33  10034.09  7.38
550.4  137423.75  10189.88  7.41
551.8  138986.13  10325.53  7.43
553.2  140567.52  10431.10  7.42
554.6  141960.00  10490.14  7.39
556.0  143540.70  10526.44  7.33
557.4  145197.03  10531.50  7.25
558.8  146866.50  10504.76  7.15
560.2  148355.58  10431.32  7.03
561.6  150071.35  10338.62  6.89
563.0  151698.95  10208.64  6.73
564.4  153326.67  10052.64  6.56
565.8  154891.25  9865.06  6.37
567.2  156670.50  9671.93  6.17
568.6  158231.25  9448.82  5.97
570.0  159715.52  9209.60  5.77
571.4  161506.80  8989.44  5.57
572.8  163307.58  8781.33  5.38
574.2  164968.53  8582.40  5.20
575.6  166545.00  8396.79  5.04
577.0  168106.33  8236.09  4.90
578.4  169897.00  8103.33  4.77
579.8  171444.15  7982.23  4.66
581.2  173223.73  7885.33  4.55
582.5  174673.20  7788.86  4.46
583.9  176236.93  7707.08  4.37
585.3  178087.95  7649.03  4.30
586.7  179589.37  7589.49  4.23
588.1  181123.25  7542.90  4.16
589.5  182819.00  7516.83  4.11
590.9  184495.47  7500.23  4.07
592.3  186359.13  7501.31  4.03
593.7  187835.05  7499.98  3.99
595.0  189510.75  7509.34  3.96
596.4  191003.87  7514.70  3.93
597.8  192525.02  7522.48  3.91
599.2  194119.20  7530.29  3.88
600.6  195921.92  7538.14  3.85
602.0  197249.05  7518.00  3.81
603.3  199076.60  7506.70  3.77
604.7  200785.47  7479.57  3.73
606.1  202308.00  7430.97  3.67
607.5  203991.97  7381.57  3.62
608.9  205720.10  7326.07  3.56
610.2  207144.00  7254.90  3.50
611.6  208772.55  7188.42  3.44
613.0  210363.10  7121.79  3.39
614.4  211770.40  7053.29  3.33
615.8  213261.75  6996.32  3.28
617.1  214835.60  6946.80  3.23
618.5  216494.40  6912.31  3.19
619.9  218044.30  6883.98  3.16
621.3  219713.10  6869.89  3.13
622.6  221338.50  6871.21  3.10
624.0  222830.20  6878.93  3.09
625.4  224340.60  6899.99  3.08
626.8  225975.75  6928.13  3.07
628.1  227355.52  6950.48  3.06
629.5  229278.87  6995.58  3.05
630.9  230947.02  7032.72  3.05
632.2  232353.80  7051.90  3.03
633.6  234018.83  7073.44  3.02
635.0  235594.13  7073.30  3.00
636.3  237159.93  7051.81  2.97
637.7  238581.92  7007.91  2.94
639.1  240275.00  6955.00  2.89
640.4  241794.00  6889.88  2.85
641.8  243049.82  6807.45  2.80
643.2  244683.37  6744.78  2.76
644.5  246095.17  6672.55  2.71
645.9  247808.10  6617.40  2.67
647.2  249729.90  6590.87  2.64
648.6  251626.50  6580.28  2.62
650.0  253094.40  6566.40  2.59
651.3  253570.53  6543.17  2.58
652.7  254671.77  6533.03  2.57
654.0  256831.13  6547.22  2.55
655.4  258405.15  6548.35  2.53
656.8  258658.93  6522.47  2.52
658.1  259930.13  6509.49  2.50
659.5  262396.75  6523.10  2.49
660.8  264300.00  6529.29  2.47
662.2  265245.87  6513.07  2.46
663.5  266863.20  6512.10  2.44
664.9  268205.60  6528.97  2.43
666.2  268960.40  6531.03  2.43
667.6  270698.07  6584.81  2.43
668.9  271906.78  6641.66  2.44
670.3  273049.58  6706.11  2.46
671.6  274689.25  6797.64  2.47
673.0  275898.75  6898.78  2.50
674.3  277178.20  7008.86  2.53
675.7  278527.63  7137.58  2.56
677.0  279688.13  7270.35  2.60
678.4  281097.73  7429.77  2.64
679.7  282228.35  7597.58  2.69
681.1  283590.17  7789.32  2.75
682.4  284780.60  7991.78  2.81
683.8  286106.60  8204.36  2.87
685.1  287108.75  8430.68  2.94
686.4  288466.80  8693.94  3.01
687.8  289813.67  9005.95  3.11
689.1  290896.50  9383.14  3.23
690.5  292338.00  9887.22  3.38
691.8  293163.90  10552.55  3.60
693.1  294540.60  11480.31  3.90
694.5  295765.17  12696.67  4.29
695.8  297039.17  14254.50  4.80
697.1  298267.67  16195.83  5.43
698.5  299367.60  18549.14  6.20
699.8  300504.22  21303.70  7.09
701.1  301698.43  24430.69  8.10
702.5  302500.73  27856.77  9.21
703.8  303510.00  31562.14  10.40
705.1  304695.95  35482.76  11.65
706.5  305806.58  39554.74  12.93
707.8  306820.80  43742.14  14.26
709.1  307757.57  47983.87  15.59
710.5  308933.35  52336.18  16.94
711.8  309851.07  56667.49  18.29
713.1  310891.73  61053.15  19.64
714.4  311843.20  65423.95  20.98
715.8  312705.47  69765.02  22.31
717.1  314077.10  74187.10  23.62
718.4  315078.40  78478.93  24.91
719.7  316238.23  82759.37  26.17
721.0  316800.00  86813.57  27.40
722.4  317609.23  90839.99  28.60
723.7  318625.10  94806.43  29.75
725.0  319725.60  98676.28  30.86
726.3  320721.68  102377.73  31.92
727.6  321315.13  105810.18  32.93
729.0  322279.65  109201.60  33.88
730.3  323102.15  112386.12  34.78
731.6  324053.70  115461.18  35.63
732.9  324919.00  118330.10  36.42
734.2  325785.17  121040.20  37.15
735.5  326856.35  123683.25  37.84
736.8  327676.20  126081.74  38.48
738.1  328561.27  128349.83  39.06
739.5  329569.72  130524.28  39.60
740.8  330314.60  132447.05  40.10
742.1  331142.65  134275.78  40.55
743.4  331933.33  135978.57  40.97
744.7  332981.33  137668.89  41.34
746.0  333927.10  139188.40  41.68
747.3  334530.65  140455.57  41.99
748.6  335333.67  141698.57  42.26
749.9  336145.33  142861.33  42.50
751.2  336916.60  143942.05  42.72
752.5  337858.00  145000.51  42.92
753.8  338523.03  145871.00  43.09
755.1  339265.33  146706.86  43.24
756.4  339908.85  147424.20  43.37
757.7  340956.70  148272.38  43.49
759.0  342813.20  149440.04  43.59
760.3  344062.40  150288.91  43.68
761.6  345711.33  151267.87  43.76
762.9  346305.50  151741.28  43.82
764.2  346741.00  152115.66  43.87
765.5  347073.07  152421.00  43.92
766.8  347561.60  152775.92  43.96
768.1  348126.13  153150.34  43.99
769.3  348777.10  153533.87  44.02
770.6  349468.17  153932.63  44.05
771.9  350271.60  154356.07  44.07
773.2  350721.07  154609.60  44.08
774.5  351379.60  154952.07  44.10
775.8  352143.10  155344.89  44.11
777.1  352773.30  155658.23  44.12
778.4  353139.23  155865.63  44.14
779.6  354004.93  156265.74  44.14
780.9  354520.00  156531.43  44.15
782.2  355014.00  156790.07  44.16
783.5  355386.00  156990.76  44.17
784.8  355987.65  157280.89  44.18
786.0  356418.30  157497.37  44.19
787.3  356842.57  157716.73  44.20
788.6  357331.10  157945.96  44.20
789.9  357827.87  158200.13  44.21
791.2  358563.88  158540.97  44.22
792.4  359273.62  158898.67  44.23
793.7  359807.07  159149.41  44.23
795.0  360484.30  159463.94  44.24
796.2  361210.65  159785.12  44.24
797.5  361973.40  160141.78  44.24
798.8  362723.57  160488.45  44.25
800.0  363456.90  160839.89  44.25
801.3  363960.20  161078.20  44.26
802.6  364573.95  161387.46  44.27
803.8  365281.55  161707.71  44.27
805.1  365815.33  161959.50  44.27
806.4  366344.20  162193.52  44.27
807.7  366948.90  162474.43  44.28
808.9  367532.20  162755.36  44.28
810.2  368131.40  163021.33  44.28
811.4  368652.67  163279.56  44.29
812.7  369308.33  163594.94  44.30
814.0  370185.40  164008.22  44.30
815.2  370907.00  164312.10  44.30
816.5  371371.78  164542.35  44.31
817.7  371909.43  164784.78  44.31
819.0  372453.40  165047.93  44.31
820.2  372621.33  165159.24  44.32
821.5  373393.07  165519.68  44.33
822.7  373790.40  165723.75  44.34
824.0  374146.20  165900.08  44.34
825.2  374680.35  166161.86  44.35
826.5  375048.33  166331.46  44.35
827.7  375651.55  166614.73  44.35
829.0  376092.03  166834.40  44.36
830.2  376413.40  167018.55  44.37
831.5  376960.83  167266.97  44.37
832.7  377320.30  167441.40  44.38
834.0  377695.95  167623.48  44.38
835.2  378144.98  167829.88  44.38
836.4  378429.33  168006.77  44.40
837.7  378894.13  168226.48  44.40
838.9  379393.32  168466.56  44.40
840.1  379812.15  168699.28  44.42
841.4  380281.67  168938.81  44.42
842.6  380709.33  169172.34  44.44
843.8  381095.33  169376.32  44.44
845.1  381620.50  169644.91  44.45
846.3  382035.67  169871.22  44.46
847.5  382452.00  170108.20  44.48
848.8  382954.00  170344.34  44.48
850.0  383334.47  170527.33  44.49
851.2  383957.10  170807.40  44.49
852.5  384342.53  171025.75  44.50
853.7  384844.50  171296.79  44.51
854.9  385318.93  171545.24  44.52
856.1  385855.17  171800.08  44.52
857.4  386059.90  171907.30  44.53
858.6  386591.03  172161.12  44.53
859.8  387020.00  172380.36  44.54
861.0  387550.80  172631.83  44.54
862.2  388069.50  172888.24  44.55
863.5  388477.48  173091.41  44.56
864.7  389039.20  173341.14  44.56
865.9  389411.47  173545.56  44.57
867.1  389781.83  173736.98  44.57
868.3  390267.90  173958.53  44.57
869.5  390807.90  174218.35  44.58
870.8  391425.00  174492.86  44.58
872.0  392037.75  174739.77  44.57
873.2  392469.30  174981.57  44.58
874.4  392926.95  175189.11  44.59
875.6  393343.93  175383.44  44.59
876.8  393948.37  175640.34  44.58
878.0  394478.37  175874.10  44.58
879.2  395122.10  176138.96  44.58
880.4  395602.00  176408.93  44.59
881.6  396205.68  176640.93  44.58
882.8  396670.40  176882.21  44.59
884.0  397321.53  177181.92  44.59
885.2  397924.13  177412.92  44.58
886.5  398581.10  177716.92  44.59
887.7  399110.83  177966.57  44.59
888.8  399845.35  178281.81  44.59
890.0  400555.03  178569.38  44.58
891.2  401160.93  178850.99  44.58
892.4  401892.40  179162.85  44.58
893.6  402486.07  179422.05  44.58
894.8  403512.00  179878.62  44.58
896.0  404476.83  180294.71  44.57
897.2  405418.00  180687.93  44.57
898.4  406267.40  181071.00  44.57
899.6  406843.75  181336.07  44.57
900.8  407362.20  181541.85  44.57
902.0  407622.10  181662.21  44.57
903.2  408054.00  181815.55  44.56
904.3  408471.00  182000.54  44.56
905.5  409171.02  182299.70  44.55
906.7  409886.33  182605.29  44.55
907.9  410548.13  182869.17  44.54
909.1  411048.00  183058.71  44.53
910.2  411250.55  183152.72  44.54
911.4  411502.65  183313.93  44.55
912.6  411811.40  183413.16  44.54
913.8  412146.55  183581.78  44.54
915.0  412751.50  183759.80  44.52
916.2  412951.50  183859.93  44.52
917.3  413004.30  183927.26  44.53
918.5  413284.33  184035.74  44.53
919.7  413593.20  184144.94  44.52
920.8  413796.43  184220.62  44.52
922.0  414041.83  184261.00  44.50
923.2  414414.00  184366.00  44.49
924.4  414848.25  184447.29  44.46
925.5  415194.47  184581.35  44.46
926.7  415829.92  184884.11  44.46
927.9  416737.20  185267.03  44.46
929.0  418396.50  185885.48  44.43
930.2  420780.33  186867.35  44.41
931.4  423309.60  187956.00  44.40
932.5  426233.47  189201.86  44.39
933.7  427734.52  189824.36  44.38
934.9  428537.08  190118.33  44.36
936.0  428147.42  189916.07  44.36
937.2  426088.90  188928.14  44.34
938.3  424449.57  188099.47  44.32
939.5  423112.80  187393.03  44.29
940.7  423332.40  187436.49  44.28
941.8  425113.25  188122.43  44.25
943.0  426615.00  188707.57  44.23
944.2  427522.77  189034.05  44.22
945.3  427186.50  188743.29  44.18
946.5  426591.00  188275.50  44.13
947.6  426786.60  188320.79  44.13
948.8  426855.00  188185.77  44.09
949.9  427173.60  188131.60  44.04
951.1  426850.88  187882.37  44.02
952.2  426632.00  187641.14  43.98
953.4  426520.50  187354.00  43.93
954.5  426675.60  187233.43  43.88
955.7  426686.40  187027.20  43.83
956.8  426648.20  186771.43  43.78
958.0  426313.67  186481.90  43.74
959.1  426319.28  186255.37  43.69
960.3  426067.02  186038.82  43.66
961.4  426099.17  185942.31  43.64
962.6  426275.50  186023.17  43.64
963.7  426047.75  185816.16  43.61
964.9  425905.75  185710.69  43.60
966.0  425881.80  185606.87  43.58
967.2  426162.00  185634.56  43.56
968.3  426200.40  185629.24  43.55
969.5  426072.30  185557.92  43.55
970.6  426158.10  185581.43  43.55
971.8  426381.20  185614.98  43.53
972.9  426499.35  185610.33  43.52
974.0  426929.00  185763.00  43.51
975.2  426861.08  185734.44  43.51
976.3  426883.77  185715.95  43.51
977.5  426833.52  185773.97  43.52
978.6  427040.07  185684.51  43.48
979.7  427556.50  185827.30  43.46
980.9  427476.90  185738.15  43.45
982.0  427795.43  185900.63  43.46
983.2  427814.53  185830.72  43.44
984.3  427426.80  185824.23  43.48
985.4  427374.07  185750.13  43.46
986.6  427840.42  185758.19  43.42
987.7  429164.05  186225.77  43.39
988.9  428806.80  186269.32  43.44
990.0  429828.13  186707.03  43.44
993.1  367962.23  159092.07  43.24
996.9  368739.68  159833.74  43.35
1000.7  370026.30  160699.66  43.43
1004.5  370721.50  161258.01  43.50
1008.4  370566.83  161493.92  43.58
1012.2  370744.50  161832.92  43.65
1016.0  370986.00  162197.66  43.72
1019.8  371303.63  162577.80  43.79
1023.7  371486.86  162840.21  43.83
1027.5  371392.50  163007.73  43.89
1031.3  371774.08  163318.35  43.93
1035.1  371756.29  163444.87  43.97
1038.9  371780.02  163558.27  43.99
1042.7  371657.08  163602.28  44.02
1046.5  371525.00  163604.26  44.04
1050.3  371577.78  163685.79  44.05
1054.2  371278.25  163637.50  44.07
1058.0  370808.73  163455.07  44.08
1061.8  370697.00  163450.30  44.09
1065.6  370401.10  163312.69  44.09
1069.4  370525.20  163365.74  44.09
1073.2  370254.63  163222.52  44.08
1077.0  369817.93  163001.44  44.08
1080.8  369327.08  162697.77  44.05
1084.6  368190.08  162103.78  44.03
1088.4  367458.26  161722.46  44.01
1092.2  366590.25  161246.89  43.99
1096.0  365999.63  160897.69  43.96
1099.8  365520.57  160560.46  43.93
1103.6  364889.07  160155.27  43.89
1107.4  364022.78  159622.31  43.85
1111.2  363756.40  159362.06  43.81
1114.9  363078.92  158883.50  43.76
1118.7  362419.20  158371.71  43.70
1122.5  361705.93  157761.07  43.62
1126.3  360580.62  156914.76  43.52
1130.1  360061.51  156182.11  43.38
1133.9  358481.90  154771.00  43.17
1137.7  357101.50  153296.83  42.93
1141.4  355352.18  151500.48  42.63
1145.2  354625.53  150017.08  42.30
1149.0  353578.75  148441.88  41.98
1152.8  351973.35  146798.48  41.71
1156.6  350315.35  145383.88  41.50
1160.3  348599.33  144171.52  41.36
1164.1  346173.17  142865.89  41.27
1167.9  344377.08  141946.28  41.22
1171.7  343082.25  141314.63  41.19
1175.4  341962.63  140787.47  41.17
1179.2  340997.73  140295.67  41.14
1183.0  340729.00  140083.00  41.11
1186.7  340184.83  139750.33  41.08
1190.5  339041.87  139191.17  41.05
1194.3  337806.87  138634.34  41.04
1198.0  336645.93  138159.72  41.04
1201.8  335217.05  137585.92  41.04
1205.6  333972.67  137139.43  41.06
1209.3  332958.05  136849.31  41.10
1213.1  331952.63  136533.92  41.13
1216.8  330891.64  136301.89  41.19
1220.6  329765.33  136039.20  41.25
1224.3  328483.00  135714.56  41.32
1228.1  327278.00  135450.80  41.39
1231.9  326088.50  135129.14  41.44
1235.6  324693.60  134687.49  41.48
1239.4  323385.88  134302.22  41.53
1243.1  322166.83  133909.72  41.57
1246.9  320991.96  133490.45  41.59
1250.6  320038.27  133144.75  41.60
1254.3  318980.75  132745.63  41.62
1258.1  318016.07  132361.57  41.62
1261.8  316775.47  131863.35  41.63
1265.6  315382.90  131248.75  41.62
1269.3  313891.05  130559.45  41.59
1273.1  313797.85  130432.36  41.57
1276.8  314060.00  130429.20  41.53
1280.6  314010.87  130285.68  41.49
1284.3  312731.60  129597.48  41.44
1288.0  311287.78  128791.78  41.37
1291.8  309955.97  127956.49  41.28
1295.5  308485.47  127066.13  41.19
1299.2  307221.73  126196.26  41.08
1302.9  305751.64  125189.98  40.94
1306.7  304188.73  124086.78  40.79
1310.4  302727.53  122907.87  40.60
1314.1  301381.30  121731.16  40.39
1317.9  300182.08  120506.49  40.14
1321.6  298804.89  119115.69  39.86
1325.3  297176.78  117532.65  39.55
1329.0  295870.05  116026.70  39.22
1332.8  293770.40  114111.80  38.84
1336.5  291913.93  112281.97  38.46
1340.2  291503.33  110998.33  38.08
1343.9  291011.46  109667.29  37.68
1347.6  290274.60  108260.36  37.30
1351.4  290330.50  107198.00  36.92
1355.1  290485.07  106197.51  36.56
1358.8  290464.00  105060.57  36.17
1362.5  289920.70  103630.92  35.74
1366.2  288261.35  101615.80  35.25
1369.9  286464.38  99309.46  34.67
1373.6  284534.19  96582.14  33.94
1377.3  282654.30  93337.54  33.02
1381.0  281397.00  89556.41  31.83
1384.8  279370.00  84722.86  30.33
1388.4  277103.05  79313.87  28.62
1392.2  275330.58  73645.58  26.75
1395.9  273739.05  67875.03  24.80
1399.6  272124.25  62325.09  22.90
1403.3  270964.54  57389.60  21.18
1407.0  269898.70  53133.28  19.69
1410.7  268779.23  49622.57  18.46
1414.3  267650.72  46846.88  17.50
1418.1  266564.33  44763.08  16.79
1421.7  265733.01  43252.54  16.28
1425.4  264868.50  42174.27  15.92
1429.1  264034.88  41455.40  15.70
1432.8  262619.63  40913.53  15.58
1436.5  261829.79  40670.86  15.53
1440.2  260990.73  40573.41  15.55
1443.9  259686.81  40508.50  15.60
1447.6  258088.60  40469.00  15.68
1451.2  257039.93  40550.24  15.78
1454.9  255792.60  40640.96  15.89
1458.6  254732.24  40859.61  16.04
1462.3  253597.30  41182.74  16.24
1466.0  252249.00  41632.59  16.50
1469.7  250586.70  42196.98  16.84
1473.3  249570.83  42999.72  17.23
1477.0  247696.07  43757.85  17.67
1480.7  246141.61  44631.45  18.13
1484.4  244254.68  45454.88  18.61
1488.0  242733.33  46371.81  19.10
1491.7  241141.88  47258.24  19.60
1495.4  239426.35  48113.21  20.10
1499.0  237843.50  48952.00  20.58
1502.7  236548.67  49844.59  21.07
1506.4  235146.43  50674.66  21.55
1510.0  233745.67  51469.61  22.02
1513.7  232311.04  52207.46  22.47
1517.4  231010.33  52945.29  22.92
1521.0  229807.47  53665.09  23.35
1524.7  228600.67  54317.41  23.76
1528.3  227327.75  54924.05  24.16
1532.0  226106.65  55488.58  24.54
1535.7  224731.64  55963.73  24.90
1539.3  223489.29  56435.12  25.25
1543.0  222522.38  56949.88  25.59
1546.6  221826.58  57500.24  25.92
1550.3  220866.00  57932.16  26.23
1553.9  219790.07  58308.50  26.53
1557.6  218544.33  58597.63  26.81
1561.2  217299.15  58841.10  27.08
1564.9  215995.98  59056.30  27.34
1568.5  214705.75  59234.23  27.59
1572.2  213574.05  59435.51  27.83
1575.8  212506.00  59632.00  28.06
1579.5  211531.05  59820.13  28.28
1583.1  210544.35  60000.55  28.50
1586.8  209328.00  60094.00  28.71
1590.4  208282.73  60207.01  28.91
1594.0  206999.65  60237.54  29.10
1597.7  205869.78  60296.80  29.29
1601.3  204545.25  60298.43  29.48
1604.9  203230.02  60264.02  29.65
1608.6  201919.33  60200.25  29.81
1612.2  200880.08  60199.31  29.97
1615.8  199758.65  60146.40  30.11
1619.5  198660.42  60076.26  30.24
1623.1  197362.97  59926.98  30.36
1626.7  196111.18  59769.08  30.48
1630.3  194889.00  59607.07  30.59
1634.0  193704.00  59422.00  30.68
1637.6  192558.60  59226.70  30.76
1641.2  191403.15  58983.91  30.82
1644.8  190081.58  58646.33  30.85
1648.5  188941.07  58347.55  30.88
1652.1  187938.90  58029.56  30.88
1655.7  186999.80  57704.75  30.86
1659.3  186139.61  57383.73  30.83
1662.9  184747.50  56897.38  30.80
1666.6  183344.93  56419.39  30.77
1670.2  181985.13  55940.12  30.74
1673.8  180604.43  55436.99  30.70
1677.4  179530.90  55003.74  30.64
1681.0  178738.43  54637.14  30.57
1684.6  178323.17  54337.52  30.47
1688.2  177639.10  53897.35  30.34
1691.8  176968.82  53475.70  30.22
1695.4  176562.80  53110.03  30.08
1699.0  176251.37  52769.07  29.94
1702.6  175984.67  52412.90  29.78
1706.2  175421.46  51954.39  29.62
1709.8  174556.43  51402.02  29.45
1713.4  173868.38  50899.61  29.27
1717.0  173017.50  50358.61  29.11
1720.6  172246.95  49838.19  28.93
1724.2  171547.95  49339.92  28.76
1727.8  170817.50  48863.05  28.61
1731.4  170337.75  48473.46  28.46
1735.0  170107.12  48206.40  28.34
1738.6  169841.85  47908.24  28.21
1742.2  169288.97  47490.95  28.05
1745.8  168623.88  47020.01  27.88
1749.4  167659.80  46438.31  27.70
1753.0  166175.60  45685.75  27.49
1756.6  164523.04  44902.04  27.29
1760.1  163194.19  44214.26  27.09
1763.7  161490.67  43454.67  26.91
1767.3  160081.08  42815.18  26.75
1770.9  158849.02  42251.53  26.60
1774.5  157419.29  41659.43  26.46
1778.0  156276.68  41165.08  26.34
1781.6  155196.60  40714.54  26.23
1785.2  154066.35  40271.29  26.14
1788.8  152887.50  39866.16  26.08
1792.3  151663.07  39471.74  26.03
1795.9  151183.18  39289.08  25.99
1799.5  150682.00  39115.19  25.96
1803.1  149828.93  38873.68  25.95
1806.6  149976.63  38886.24  25.93
1810.2  150916.03  39111.17  25.92
1813.8  151827.75  39333.71  25.91
1817.3  151929.20  39334.74  25.89
1820.9  151261.40  39130.77  25.87
1824.5  150127.15  38782.32  25.83
1828.0  149331.88  38498.36  25.78
1831.6  148551.53  38184.51  25.70
1835.2  147843.33  37837.14  25.59
1838.7  147455.20  37493.92  25.43
1842.3  147120.00  37088.57  25.21
1845.8  146402.42  36490.28  24.92
1849.4  145929.25  35817.99  24.54
1852.9  145294.39  34947.71  24.05
1856.5  144453.68  33824.28  23.42
1860.0  143718.55  32499.71  22.61
1863.6  143451.17  31046.22  21.64
1867.1  143236.80  29353.45  20.49
1870.7  143116.95  27296.32  19.07
1874.2  142415.55  24762.54  17.39
1877.8  141325.40  22041.29  15.60
1881.3  140004.13  19226.32  13.73
1884.9  139105.27  16589.62  11.93
1888.4  138130.21  14101.48  10.21
1891.9  137176.47  11949.39  8.71
1895.5  136122.68  10204.26  7.50
1899.0  135593.63  8933.68  6.59
1901.3  164128.00  7222.72  4.40
1904.1  163991.25  6439.25  3.93
1906.8  163306.20  5846.80  3.58
1909.6  161698.95  5375.88  3.32
1912.4  160150.32  5036.03  3.14
1915.1  159075.95  4802.60  3.02
1917.9  157804.50  4633.00  2.94
1920.6  156795.60  4525.89  2.89
1923.3  155826.07  4439.87  2.85
1926.1  154608.13  4410.55  2.85
1928.8  153516.00  4395.11  2.86
1931.6  152660.35  4416.73  2.89
1934.3  151814.12  4453.28  2.93
1937.0  151020.50  4518.18  2.99
1939.8  150131.58  4594.72  3.06
1942.5  148940.00  4689.67  3.15
1945.2  147365.90  4775.65  3.24
1947.9  146095.37  4876.20  3.34
1950.7  145064.30  5010.30  3.45
1953.4  143402.80  5131.53  3.58
1956.1  142106.92  5279.61  3.72
1958.8  140933.22  5437.83  3.86
1961.5  139527.20  5590.53  4.01
1964.2  138074.30  5760.30  4.17
1966.9  136555.45  5915.68  4.33
1969.6  135351.00  6102.00  4.51
1972.3  134007.30  6292.30  4.70
1975.0  132988.95  6501.80  4.89
1977.7  131906.15  6697.73  5.08
1980.4  130781.13  6916.90  5.29
1983.1  129712.72  7136.04  5.50
1985.8  128820.90  7366.00  5.72
1988.4  127824.67  7583.33  5.93
1991.1  126927.27  7816.04  6.16
1993.8  126079.07  8053.71  6.39
1996.5  125458.67  8297.85  6.61
1999.1  124786.57  8541.99  6.85
2001.8  124104.17  8774.34  7.07
2004.5  123435.50  9019.07  7.31
2007.1  122726.20  9241.08  7.53
2009.8  121980.37  9456.38  7.75
2012.4  121400.22  9673.64  7.97
2015.1  120849.40  9893.80  8.19
2017.8  120089.67  10083.73  8.40
2020.4  119582.10  10291.17  8.61
2023.1  119226.33  10486.62  8.80
2025.7  118993.33  10694.67  8.99
2028.3  118655.33  10882.45  9.17
2031.0  118249.63  11048.10  9.34
2033.6  117972.00  11214.30  9.51
2036.2  117728.40  11376.70  9.66
2038.9  117145.50  11498.50  9.82
2041.5  116812.05  11628.03  9.95
2044.1  116284.20  11733.40  10.09
2046.8  115918.80  11843.60  10.22
2049.4  115301.10  11924.80  10.34
2052.0  115009.27  12037.45  10.47
2054.6  114633.75  12136.25  10.59
2057.2  114066.07  12226.67  10.72
2059.8  113734.20  12340.20  10.85
2062.4  112872.12  12395.10  10.98
2065.0  112371.80  12485.76  11.11
2067.6  111486.17  12531.66  11.24
2070.2  110893.43  12610.11  11.37
2072.8  110274.55  12682.75  11.50
2075.4  109838.75  12766.25  11.62
2078.0  109220.75  12832.45  11.75
2080.6  108671.20  12900.80  11.87
2083.2  107979.03  12951.29  11.99
2085.8  107499.22  13013.97  12.11
2088.4  106848.00  13061.55  12.22
2090.9  106055.68  13092.75  12.35
2093.5  105182.47  13109.09  12.46
2096.1  104425.05  13131.08  12.57
2098.7  103669.68  13154.51  12.69
2101.2  102730.20  13152.40  12.80
2103.8  102057.73  13184.42  12.92
2106.4  101402.73  13213.53  13.03
2108.9  100756.47  13239.73  13.14
2111.5  99926.80  13236.82  13.25
2114.0  99298.00  13254.29  13.35
2116.6  98778.75  13285.42  13.45
2119.1  98239.27  13313.65  13.55
2121.7  97763.75  13343.75  13.65
2124.2  97353.83  13369.17  13.73
2126.8  96581.53  13350.67  13.82
2129.3  96192.80  13376.00  13.91
2131.9  95620.80  13376.00  13.99
2134.4  95181.75  13387.10  14.06
2136.9  94802.93  13404.95  14.14
2139.4  94288.13  13391.62  14.20
2142.0  93862.53  13397.53  14.27
2144.5  93583.50  13424.17  14.34
2147.0  93353.33  13450.62  14.41
2149.5  92870.93  13435.73  14.47
2152.1  92708.00  13475.00  14.53
2154.6  92625.07  13524.44  14.60
2157.1  92095.92  13494.80  14.65
2159.6  91678.08  13482.69  14.71
2162.1  91527.80  13507.43  14.76
2164.6  91287.67  13514.29  14.80
2167.1  90979.28  13499.50  14.84
2169.6  90655.13  13496.27  14.89
2172.1  90191.20  13474.51  14.94
2174.6  89849.60  13464.47  14.99
2177.1  89417.07  13439.17  15.03
2179.5  89020.75  13419.10  15.07
2182.0  88544.50  13398.55  15.13
2184.5  88015.67  13361.87  15.18
2187.0  87418.70  13313.58  15.23
2189.5  86744.05  13264.02  15.29
2191.9  85984.50  13195.50  15.35
2194.4  85377.00  13143.98  15.40
2196.9  84652.80  13062.40  15.43
2199.3  84003.33  13004.89  15.48
2201.8  83132.40  12903.15  15.52
2204.3  82685.78  12863.11  15.56
2206.7  82070.20  12788.58  15.58
2209.2  81596.80  12742.91  15.62
2211.6  80982.00  12668.70  15.64
2214.1  80704.45  12646.45  15.67
2216.5  80142.13  12562.36  15.68
2219.0  79814.33  12502.76  15.66
2221.4  79422.58  12428.89  15.65
2223.9  78946.58  12336.33  15.63
2226.3  78450.75  12223.95  15.58
2228.7  77930.08  12097.20  15.52
2231.1  77358.60  11962.50  15.46
2233.6  76764.80  11804.11  15.38
2236.0  76229.42  11645.47  15.28
2238.4  75753.42  11483.50  15.16
2240.9  75314.53  11320.69  15.03
2243.3  74768.20  11145.20  14.91
2245.7  74217.05  10954.95  14.76
2248.1  73753.33  10783.93  14.62
2250.5  73257.70  10595.64  14.46
2252.9  72647.03  10391.91  14.30
2255.3  72097.70  10192.12  14.14
2257.7  71660.00  10023.33  13.99
2260.1  71166.43  9839.35  13.83
2262.5  70560.00  9653.33  13.68
2264.9  70043.07  9480.84  13.54
2267.3  69450.00  9290.00  13.38
2269.7  68969.13  9126.99  13.23
2272.1  68433.87  8964.92  13.10
2274.5  67876.68  8818.61  12.99
2276.8  67412.17  8677.77  12.87
2279.2  66842.55  8529.10  12.76
2281.6  66409.80  8398.96  12.65
2284.0  65963.10  8275.27  12.55
2286.3  65512.00  8147.20  12.44
2288.7  65112.23  8027.86  12.33
2291.1  64562.10  7883.08  12.21
2293.4  64125.60  7754.76  12.09
2295.8  63530.40  7601.40  11.96
2298.2  62938.35  7445.10  11.83
2300.5  62296.65  7286.40  11.70
2302.9  61586.67  7123.11  11.57
2305.2  60862.70  6973.10  11.46
2307.6  60208.07  6829.63  11.34
2309.9  59468.33  6692.56  11.25
2312.2  58869.00  6589.22  11.19
2314.6  58260.15  6486.00  11.13
2316.9  57556.35  6379.05  11.08
2319.2  56995.93  6278.74  11.02
2321.6  56391.88  6171.16  10.94
2323.9  55864.58  6076.39  10.88
2326.2  55317.53  5967.87  10.79
2328.6  54810.25  5862.45  10.70
2330.9  54316.50  5757.50  10.60
2333.2  53858.58  5658.56  10.51
2335.5  53414.40  5560.43  10.41
2337.8  52946.17  5463.55  10.32
2340.1  52385.43  5359.32  10.23
2342.4  51956.67  5246.95  10.10
2344.8  51537.58  5145.39  9.98
2347.1  50984.03  5044.67  9.89
2349.4  50478.37  4939.14  9.78
2351.6  49883.47  4847.33  9.72
2353.9  49396.23  4759.04  9.63
2356.2  48902.22  4672.70  9.56
2358.5  48316.80  4584.53  9.49
2360.8  47734.40  4498.67  9.42
2363.1  47311.90  4408.15  9.32
2365.4  46838.50  4324.13  9.23
2367.7  46375.20  4237.00  9.14
2369.9  45834.35  4152.53  9.06
2372.2  45224.53  4047.73  8.95
2374.5  44652.30  3950.10  8.85
2376.7  44027.17  3852.86  8.75
2379.0  43427.23  3757.57  8.65
2381.3  42828.33  3659.44  8.54
2383.5  42322.13  3566.93  8.43
2385.8  41736.37  3471.17  8.32
2388.0  41217.40  3386.60  8.22
2390.3  40702.67  3302.89  8.11
2392.5  40236.00  3216.00  7.99
2394.8  39772.70  3146.00  7.91
2397.0  39299.87  3053.56  7.77
2399.3  38828.28  2980.86  7.68
2401.5  38403.75  2903.25  7.56
2403.8  37886.07  2832.83  7.48
2406.0  37386.58  2748.22  7.35
2408.2  36988.60  2676.18  7.24
2410.4  36576.17  2609.02  7.13
2412.7  36154.30  2534.28  7.01
2414.9  35774.20  2462.53  6.88
2417.1  35382.20  2396.07  6.77
2419.3  34995.20  2329.60  6.66
2421.6  34616.67  2273.34  6.57
2423.8  34244.97  2208.66  6.45
2426.0  33860.53  2146.58  6.34
2428.2  33529.07  2081.96  6.21
2430.4  33215.67  2024.70  6.10
2432.6  32946.67  1977.78  6.00
2434.8  32628.03  1906.98  5.84
2437.0  32280.30  1853.80  5.74
2439.2  31926.37  1793.21  5.62
2441.4  31602.07  1745.07  5.52
2443.6  31350.02  1699.45  5.42
2445.7  31098.67  1656.74  5.33
2447.9  30825.42  1609.70  5.22
2450.1  30544.70  1564.23  5.12
2452.3  30181.43  1534.01  5.08
2454.5  29813.37  1479.79  4.96
2456.6  29432.13  1431.42  4.86
2458.8  29086.20  1372.80  4.72
2461.0  28775.67  1335.94  4.64
2463.1  28488.90  1290.10  4.53
2465.3  28227.70  1258.47  4.46
2467.5  27980.75  1239.00  4.43
2469.6  27700.25  1203.28  4.34
2471.8  27390.40  1176.31  4.29
2473.9  27074.58  1141.30  4.22
2476.1  26738.83  1097.06  4.10
2478.2  26384.13  1061.25  4.02
2480.4  26095.00  1048.92  4.02
2482.5  25748.78  1032.22  4.01
2484.6  25400.83  997.33  3.93
2486.8  25135.70  968.17  3.85
2488.9  24842.97  947.00  3.81
2491.1  24498.13  930.85  3.80
2493.2  24109.67  910.10  3.77
2495.3  23697.27  876.49  3.70
2497.4  23361.10  847.93  3.63
2499.5  23045.07  836.14  3.63
2501.7  22908.07  827.14  3.61
2503.8  22801.53  813.55  3.57
2505.9  22737.92  797.22  3.51
2508.0  22736.63  788.25  3.47
2510.1  22711.83  786.87  3.46
2512.2  22790.70  795.17  3.49
2514.3  22931.87  797.30  3.48
2516.4  23108.10  807.70  3.50
