/*** Spectra Vista SIG Data ***/
name= 47_20221021_ACRU_32_avg.sig
comm= Averaged Ref/Tar of files: HR.102122.0056_moc.sig,HR.102122.0057_moc.sig,HR.102122.0058_moc.sig
data=
337.3  6317.33  521.43  8.25
338.8  6445.40  487.41  7.56
340.3  6805.80  466.32  6.85
341.8  7076.55  483.87  6.84
343.2  7550.13  473.73  6.27
344.7  7900.50  446.55  5.65
346.2  8225.00  460.60  5.60
347.7  8627.35  485.45  5.63
349.2  8920.80  473.76  5.31
350.6  9350.40  487.00  5.21
352.1  9834.25  499.97  5.08
353.6  10388.80  486.19  4.68
355.1  10910.10  496.72  4.55
356.6  11518.28  520.60  4.52
358.0  12031.75  515.04  4.28
359.5  12499.88  528.45  4.23
361.0  13164.60  537.65  4.08
362.5  13726.65  576.75  4.20
364.0  14483.20  588.38  4.06
365.4  15103.73  597.51  3.96
366.9  15710.75  613.98  3.91
368.4  16462.60  634.27  3.85
369.9  17172.00  657.20  3.83
371.3  18016.08  707.34  3.93
372.8  18753.95  734.23  3.92
374.3  19567.20  743.41  3.80
375.8  20390.45  760.68  3.73
377.2  21165.30  772.20  3.65
378.7  21965.48  793.64  3.61
380.2  22724.48  822.51  3.62
381.7  23632.00  815.87  3.45
383.1  24569.85  829.54  3.38
384.6  25551.45  855.22  3.35
386.1  26467.95  871.72  3.29
387.6  27339.00  897.28  3.28
389.0  28361.93  943.65  3.33
390.5  29342.10  964.20  3.29
392.0  30377.25  986.70  3.25
393.4  31492.88  993.25  3.15
394.9  32423.30  1018.00  3.14
396.4  33547.80  1052.48  3.14
397.9  34619.10  1082.16  3.13
399.3  35563.33  1111.46  3.13
400.8  36749.63  1135.75  3.09
402.2  37897.20  1167.54  3.08
403.7  39062.40  1183.14  3.03
405.2  40199.20  1217.04  3.03
406.6  41358.90  1238.20  2.99
408.1  42440.10  1279.66  3.02
409.6  43587.73  1300.36  2.98
411.0  44805.48  1339.87  2.99
412.5  46186.45  1362.48  2.95
414.0  47471.38  1398.32  2.95
415.4  48762.00  1439.64  2.95
416.9  50020.83  1470.98  2.94
418.4  51327.23  1520.81  2.96
419.8  52636.15  1564.83  2.97
421.3  54088.65  1612.38  2.98
422.7  55533.40  1667.47  3.00
424.2  56995.73  1713.04  3.01
425.7  58379.75  1749.92  3.00
427.1  59865.00  1805.16  3.02
428.6  61311.05  1853.54  3.02
430.0  62822.38  1918.51  3.05
431.5  64473.83  1974.61  3.06
432.9  66113.75  2035.43  3.08
434.4  67759.90  2099.71  3.10
435.9  69376.00  2157.16  3.11
437.3  71035.50  2218.75  3.12
438.8  72624.10  2277.17  3.14
440.2  74313.75  2343.27  3.15
441.7  76167.65  2412.75  3.17
443.1  77950.35  2472.66  3.17
444.6  79697.78  2535.88  3.18
446.0  81468.68  2611.14  3.21
447.5  83400.00  2683.33  3.22
448.9  85093.95  2741.75  3.22
450.4  86975.00  2806.67  3.23
451.8  88766.63  2870.95  3.23
453.3  90560.33  2928.53  3.23
454.7  92318.18  3003.54  3.25
456.2  94100.65  3066.00  3.26
457.6  95956.65  3139.56  3.27
459.1  97780.73  3203.62  3.28
460.5  99607.03  3267.72  3.28
462.0  101581.20  3333.84  3.28
463.4  103533.15  3410.59  3.29
464.8  105466.73  3480.75  3.30
466.3  107379.45  3548.63  3.30
467.7  109371.20  3619.41  3.31
469.2  111206.40  3685.16  3.31
470.6  113219.75  3750.48  3.31
472.0  115249.18  3826.24  3.32
473.5  117227.95  3891.23  3.32
474.9  119374.15  3967.20  3.32
476.4  121402.60  4040.27  3.33
477.8  123480.00  4110.40  3.33
479.2  125495.95  4177.59  3.33
480.7  127593.98  4255.93  3.34
482.1  129739.55  4333.96  3.34
483.6  131883.30  4415.64  3.35
485.0  134112.15  4502.11  3.36
486.4  136191.83  4581.84  3.36
487.9  138396.75  4678.20  3.38
489.3  140504.78  4775.40  3.40
490.7  142619.85  4882.02  3.42
492.2  144826.00  4997.78  3.45
493.6  147075.10  5120.41  3.48
495.0  149320.28  5262.92  3.52
496.5  151474.05  5405.40  3.57
497.9  153735.75  5572.85  3.62
499.3  155977.38  5750.67  3.69
500.7  158225.30  5943.00  3.76
502.2  160572.03  6160.58  3.84
503.6  162855.00  6410.80  3.94
505.0  165078.10  6692.25  4.05
506.5  167502.85  7008.07  4.18
507.9  169928.05  7367.56  4.34
509.3  172164.38  7772.40  4.51
510.7  174739.50  8226.14  4.71
512.2  177361.50  8720.74  4.92
513.6  180184.78  9274.94  5.15
515.0  182901.08  9887.34  5.41
516.4  185717.20  10558.13  5.69
517.8  188461.00  11274.23  5.98
519.3  191352.00  12047.79  6.30
520.7  193981.80  12834.56  6.62
522.1  196647.75  13634.96  6.93
523.5  199175.63  14453.31  7.26
524.9  202045.20  15296.99  7.57
526.3  204628.95  16117.92  7.88
527.8  207388.13  16961.27  8.18
529.2  209923.20  17786.88  8.47
530.6  212598.00  18603.72  8.75
532.0  215422.35  19393.23  9.00
533.4  217934.10  20135.50  9.24
534.8  220456.50  20838.51  9.45
536.3  223352.93  21555.14  9.65
537.7  226252.50  22248.57  9.83
539.1  229136.05  22918.35  10.00
540.5  231942.00  23581.70  10.17
541.9  234890.33  24253.18  10.33
543.3  237428.10  24877.88  10.48
544.7  240394.00  25566.93  10.64
546.1  243191.90  26219.39  10.78
547.5  246067.20  26879.04  10.92
549.0  248994.00  27540.21  11.06
550.4  251862.98  28159.95  11.18
551.8  254836.48  28782.39  11.29
553.2  257675.10  29347.90  11.39
554.6  260529.70  29866.48  11.46
556.0  263419.80  30339.96  11.52
557.4  266520.70  30799.89  11.56
558.8  269386.00  31205.21  11.58
560.2  272540.00  31610.67  11.60
561.6  275469.15  31937.99  11.59
563.0  278231.20  32205.07  11.57
564.4  281398.60  32485.41  11.54
565.8  284398.15  32733.63  11.51
567.2  287568.58  32947.68  11.46
568.6  290564.55  33114.51  11.40
570.0  293405.13  33174.70  11.31
571.4  296764.98  33231.55  11.20
572.8  299899.60  33229.92  11.08
574.2  302749.13  33197.29  10.97
575.6  305799.13  33190.05  10.85
577.0  308777.43  33195.80  10.75
578.4  312156.25  33270.42  10.66
579.8  315208.93  33318.53  10.57
581.2  318241.75  33386.87  10.49
582.5  321120.00  33456.00  10.42
583.9  324178.70  33547.57  10.35
585.3  327057.80  33635.52  10.28
586.7  330006.60  33747.56  10.23
588.1  332957.00  33881.31  10.18
589.5  336270.45  34072.14  10.13
590.9  339196.53  34244.47  10.10
592.3  342105.75  34440.09  10.07
593.7  345074.45  34667.99  10.05
595.0  347991.60  34902.48  10.03
596.4  351259.88  35189.83  10.02
597.8  353884.90  35401.04  10.00
599.2  356953.35  35652.24  9.99
600.6  360121.58  35873.20  9.96
602.0  363083.40  36020.24  9.92
603.3  365924.00  36101.87  9.87
604.7  368907.08  36134.55  9.80
606.1  371894.33  36111.90  9.71
607.5  375192.28  36046.68  9.61
608.9  378243.25  35897.40  9.49
610.2  381340.58  35711.94  9.36
611.6  384230.00  35475.00  9.23
613.0  387041.00  35195.96  9.09
614.4  389805.08  34917.42  8.96
615.8  393034.70  34686.64  8.83
617.1  395714.50  34430.74  8.70
618.5  398916.45  34257.81  8.59
619.9  401587.05  34101.14  8.49
621.3  404516.13  34027.37  8.41
622.6  407423.25  34011.90  8.35
624.0  410098.88  34045.05  8.30
625.4  413140.28  34157.18  8.27
626.8  416060.45  34330.05  8.25
628.1  418811.75  34518.35  8.24
629.5  421530.90  34720.02  8.24
630.9  424315.70  34902.04  8.23
632.2  427286.28  35024.64  8.20
633.6  429679.25  35000.20  8.15
635.0  432533.08  34865.57  8.06
636.3  435521.40  34563.93  7.94
637.7  438157.10  34062.59  7.77
639.1  441081.85  33415.80  7.58
640.4  443762.50  32610.33  7.35
641.8  446549.40  31728.48  7.11
643.2  449080.90  30800.17  6.86
644.5  451955.00  29894.67  6.61
645.9  454530.30  28996.43  6.38
647.2  456785.18  28211.52  6.18
648.6  459353.20  27589.39  6.01
650.0  462106.80  27097.68  5.86
651.3  464985.40  26766.04  5.76
652.7  468828.75  26520.50  5.66
654.0  471606.75  26257.38  5.57
655.4  473790.98  25970.70  5.48
656.8  475490.40  25627.91  5.39
658.1  478148.48  25250.26  5.28
659.5  481291.20  24762.24  5.14
660.8  484054.20  24228.54  5.01
662.2  486726.58  23660.26  4.86
663.5  489542.08  23101.83  4.72
664.9  491350.93  22545.12  4.59
666.2  493571.98  22070.88  4.47
667.6  496113.75  21694.20  4.37
668.9  498700.80  21438.72  4.30
670.3  501680.38  21254.57  4.24
671.6  503796.80  21149.12  4.20
673.0  506044.00  21149.12  4.18
674.3  508411.75  21220.17  4.17
675.7  510857.10  21381.24  4.19
677.0  513118.20  21607.94  4.21
678.4  515262.00  21910.24  4.25
679.7  517636.28  22322.95  4.31
681.1  520131.93  22889.36  4.40
682.4  522271.88  23645.25  4.53
683.8  524517.75  24690.50  4.71
685.1  526762.05  26137.88  4.96
686.4  528994.38  28133.56  5.32
687.8  531346.43  30879.63  5.81
689.1  533792.70  34569.92  6.48
690.5  535796.40  39353.44  7.34
691.8  538349.08  45540.99  8.46
693.1  540792.00  53110.60  9.82
694.5  543103.60  61914.16  11.40
695.8  545463.40  71743.75  13.15
697.1  547779.50  82336.63  15.03
698.5  550024.00  93491.28  17.00
699.8  552368.40  104988.80  19.01
701.1  554274.00  116438.21  21.01
702.5  556284.38  127753.83  22.97
703.8  558675.88  138795.97  24.84
705.1  560475.35  149224.21  26.62
706.5  562688.73  159256.89  28.30
707.8  564531.03  168658.00  29.88
709.1  566768.33  177653.09  31.34
710.5  568876.55  186149.10  32.72
711.8  570782.00  194102.00  34.01
713.1  572674.00  201675.73  35.22
714.4  574727.95  208929.40  36.35
715.8  576989.63  215926.36  37.42
717.1  579202.45  222619.48  38.44
718.4  581399.63  228999.76  39.39
719.7  583588.58  235062.42  40.28
721.0  585237.15  240652.63  41.12
722.4  587005.20  246052.14  41.92
723.7  588949.35  251225.42  42.66
725.0  590628.23  256034.18  43.35
726.3  592898.80  260827.15  43.99
727.6  594587.25  265140.10  44.59
729.0  596341.20  269266.25  45.15
730.3  598287.60  273208.47  45.67
731.6  599729.30  276715.71  46.14
732.9  601640.65  280235.58  46.58
734.2  603260.63  283412.25  46.98
735.5  604999.45  286468.97  47.35
736.8  606931.68  289466.57  47.69
738.1  608724.60  292198.95  48.00
739.5  610443.90  294733.32  48.28
740.8  612242.68  297191.51  48.54
742.1  613797.68  299385.14  48.78
743.4  615471.15  301552.16  49.00
744.7  617351.00  303669.33  49.19
746.0  618831.45  305473.01  49.36
747.3  620405.10  307212.27  49.52
748.6  621910.15  308857.13  49.66
749.9  623657.23  310516.13  49.79
751.2  624953.50  311858.25  49.90
752.5  626380.80  313271.96  50.01
753.8  627641.55  314517.42  50.11
755.1  629040.73  315820.61  50.21
756.4  630092.95  316874.15  50.29
757.7  632071.00  318301.13  50.36
759.0  635593.50  320471.50  50.42
760.3  638240.55  322166.88  50.48
761.6  641014.13  323866.61  50.52
762.9  642309.25  324827.80  50.57
764.2  643001.80  325452.66  50.61
765.5  643778.28  326092.25  50.65
766.8  644284.30  326553.60  50.68
768.1  645384.60  327261.90  50.71
769.3  646600.15  328040.26  50.73
770.6  647930.40  328920.13  50.76
771.9  649003.80  329627.55  50.79
773.2  650338.65  330441.54  50.81
774.5  651146.10  331022.58  50.84
775.8  652160.15  331666.15  50.86
777.1  653335.43  332364.51  50.87
778.4  654620.00  333095.55  50.88
779.6  655855.80  333811.92  50.90
780.9  656486.78  334270.53  50.92
782.2  657338.28  334850.25  50.94
783.5  658146.25  335396.67  50.96
784.8  658932.75  335878.20  50.97
786.0  659680.25  336353.53  50.99
787.3  660477.58  336827.73  51.00
788.6  661362.13  337348.95  51.01
789.9  661982.10  337778.51  51.03
791.2  663273.80  338524.19  51.04
792.4  664280.38  339169.23  51.06
793.7  665734.00  340022.33  51.07
795.0  666751.15  340623.21  51.09
796.2  668075.35  341345.83  51.09
797.5  669191.88  342005.67  51.11
798.8  670512.50  342740.18  51.12
800.0  671580.00  343364.00  51.13
801.3  672745.50  344027.25  51.14
802.6  673704.00  344620.80  51.15
803.8  674726.85  345249.59  51.17
805.1  675734.63  345803.95  51.17
806.4  676642.48  346330.01  51.18
807.7  677756.60  346929.56  51.19
808.9  678776.75  347566.35  51.20
810.2  679641.90  348064.92  51.21
811.4  680595.60  348642.72  51.23
812.7  681839.15  349370.37  51.24
814.0  683182.50  350037.38  51.24
815.2  684461.10  350802.04  51.25
816.5  685615.00  351419.25  51.26
817.7  686384.75  351895.40  51.27
819.0  687043.00  352303.47  51.28
820.2  687812.85  352754.72  51.29
821.5  688878.80  353354.03  51.29
822.7  689885.88  353877.16  51.30
824.0  690816.10  354388.84  51.30
825.2  691499.25  354771.04  51.30
826.5  692198.95  355202.87  51.32
827.7  693246.35  355754.29  51.32
829.0  694209.23  356252.66  51.32
830.2  695143.80  356769.71  51.32
831.5  696067.43  357236.25  51.32
832.7  696930.75  357741.06  51.33
834.0  697472.78  358110.09  51.34
835.2  698548.30  358600.55  51.34
836.4  699264.40  359012.53  51.34
837.7  700245.00  359470.50  51.33
838.9  701444.40  360124.05  51.34
840.1  702324.15  360614.10  51.35
841.4  703334.90  361111.88  51.34
842.6  704111.10  361620.93  51.36
843.8  704960.10  362048.44  51.36
845.1  705828.75  362524.58  51.36
846.3  706679.40  363053.18  51.37
847.5  707671.25  363587.90  51.38
848.8  708622.30  364099.56  51.38
850.0  709869.20  364698.29  51.38
851.2  710609.15  365152.91  51.39
852.5  711760.00  365776.85  51.39
853.7  712697.40  366198.57  51.38
854.9  713740.95  366795.52  51.39
856.1  714822.35  367368.31  51.39
857.4  715823.63  367889.96  51.39
858.6  716752.40  368362.03  51.39
859.8  717941.70  368897.64  51.38
861.0  718927.30  369440.26  51.39
862.2  719961.90  370003.48  51.39
863.5  720796.30  370505.61  51.40
864.7  721912.50  370990.00  51.39
865.9  722949.88  371539.73  51.39
867.1  723506.25  371926.67  51.41
868.3  724715.95  372513.29  51.40
869.5  726057.90  373115.59  51.39
870.8  727010.10  373665.60  51.40
872.0  728209.53  374154.49  51.38
873.2  728922.13  374670.62  51.40
874.4  729836.10  375114.67  51.40
875.6  730999.50  375689.44  51.39
876.8  732388.80  376330.90  51.38
878.0  733438.30  376798.66  51.37
879.2  734451.85  377402.49  51.39
880.4  735712.00  377904.53  51.37
881.6  736577.30  378401.83  51.37
882.8  737846.95  379030.11  51.37
884.0  738761.73  379427.01  51.36
885.2  740214.00  380074.10  51.35
886.5  741438.43  380672.16  51.34
887.7  742359.83  381134.11  51.34
888.8  743763.55  381867.57  51.34
890.0  744738.75  382322.50  51.34
891.2  745831.13  382804.11  51.33
892.4  747198.38  383416.99  51.31
893.6  748877.85  384268.03  51.31
894.8  750479.03  385060.50  51.31
896.0  751991.83  385742.13  51.30
897.2  753786.00  386622.72  51.29
898.4  755727.00  387518.88  51.28
899.6  756840.20  388144.40  51.28
900.8  757499.60  388323.52  51.26
902.0  758031.90  388574.79  51.26
903.2  758078.80  388605.43  51.26
904.3  759256.88  389083.50  51.25
905.5  760468.50  389664.00  51.24
906.7  761699.58  390223.04  51.23
907.9  762711.58  390651.55  51.22
909.1  763761.08  391034.49  51.20
910.2  764032.50  391198.50  51.20
911.4  764164.13  391194.63  51.19
912.6  764602.50  391427.33  51.19
913.8  765707.60  391908.44  51.18
915.0  765907.40  391990.29  51.18
916.2  766008.30  391908.87  51.16
917.3  766688.23  392199.40  51.16
918.5  767112.45  392316.54  51.14
919.7  767230.00  392303.27  51.13
920.8  767292.43  392390.21  51.14
922.0  767291.25  392278.77  51.13
923.2  767861.63  392323.19  51.09
924.4  768187.63  392475.55  51.09
925.5  768844.00  392802.59  51.09
926.7  769761.20  393117.20  51.07
927.9  771252.10  393758.69  51.05
929.0  774597.60  395146.80  51.01
930.2  778718.80  397104.56  50.99
931.4  783605.70  399487.66  50.98
932.5  788321.05  401702.62  50.96
933.7  790897.58  402955.36  50.95
934.9  792540.00  403522.00  50.92
936.0  791471.03  402902.85  50.91
937.2  788247.55  401040.55  50.88
938.3  783984.50  398754.20  50.86
939.5  781747.20  397342.92  50.83
940.7  781496.10  397042.29  50.81
941.8  784882.80  398349.12  50.75
943.0  786982.80  399235.80  50.73
944.2  788730.00  399867.20  50.70
945.3  787739.40  399230.24  50.68
946.5  785986.25  398022.33  50.64
947.6  786551.25  398111.03  50.61
948.8  785542.43  397271.51  50.57
949.9  786109.63  397081.07  50.51
951.1  786216.80  396652.82  50.45
952.2  785128.90  395951.92  50.43
953.4  784780.20  395278.18  50.37
954.5  783546.75  393999.20  50.28
955.7  783186.70  393513.35  50.25
956.8  783706.75  393166.85  50.17
958.0  782842.95  392296.74  50.11
959.1  782006.40  391547.52  50.07
960.3  781625.00  390905.00  50.01
961.4  782128.80  390812.51  49.97
962.6  781970.40  390358.08  49.92
963.7  781824.40  390286.21  49.92
964.9  781885.88  390082.61  49.89
966.0  782208.35  390048.77  49.87
967.2  782497.80  389950.96  49.83
968.3  784471.80  390477.98  49.78
969.5  784637.13  390449.03  49.76
970.6  784954.35  390545.52  49.75
971.8  784495.43  390164.62  49.73
972.9  785540.00  390404.93  49.70
974.0  785230.18  390564.36  49.74
975.2  784586.25  390033.00  49.71
976.3  786483.00  390425.70  49.64
977.5  786201.60  389927.33  49.60
978.6  786766.20  390240.37  49.60
979.7  785646.40  389804.80  49.62
980.9  786507.15  389647.99  49.54
982.0  786615.70  389338.99  49.50
983.2  787431.40  389450.88  49.46
984.3  785508.50  388845.15  49.50
985.4  784858.90  388154.11  49.46
986.6  786894.73  388484.96  49.37
987.7  785502.63  387673.58  49.35
988.9  786086.00  388176.75  49.38
990.0  785694.15  388062.87  49.39
993.1  865639.20  426803.33  49.30
996.9  865331.60  427385.60  49.39
1000.7  864979.23  427948.48  49.48
1004.5  864058.13  428167.07  49.55
1008.4  865146.73  429365.67  49.63
1012.2  866716.46  430617.74  49.68
1016.0  866927.40  431145.25  49.73
1019.8  865789.06  431011.74  49.78
1023.7  864505.23  430734.54  49.82
1027.5  862038.67  429923.14  49.87
1031.3  860285.77  429386.16  49.91
1035.1  858897.38  429056.15  49.95
1038.9  858322.72  429037.84  49.99
1042.7  857904.10  429065.95  50.01
1046.5  857192.88  428890.97  50.03
1050.3  855508.40  428211.81  50.05
1054.2  853546.10  427345.11  50.07
1058.0  852674.40  426968.00  50.07
1061.8  851472.50  426402.93  50.08
1065.6  849435.33  425332.29  50.07
1069.4  847167.28  424080.76  50.06
1073.2  845204.75  422876.28  50.03
1077.0  843940.53  421966.52  50.00
1080.8  843643.17  421516.33  49.96
1084.6  843439.67  421139.48  49.93
1088.4  842801.60  420611.49  49.91
1092.2  841548.17  419670.38  49.87
1096.0  840088.43  418622.95  49.83
1099.8  838513.88  417408.28  49.78
1103.6  836655.18  415999.89  49.72
1107.4  835056.28  414696.58  49.66
1111.2  833605.67  413434.73  49.60
1114.9  832771.50  412323.33  49.51
1118.7  832504.75  411321.59  49.41
1122.5  832594.32  410376.97  49.29
1126.3  830179.35  408057.30  49.15
1130.1  829672.18  406310.37  48.97
1133.9  826147.09  402699.26  48.74
1137.7  823418.80  398922.76  48.45
1141.4  819530.15  394112.95  48.09
1145.2  818620.74  390369.97  47.69
1149.0  816534.30  386179.33  47.29
1152.8  813007.90  381643.87  46.94
1156.6  809265.88  377688.03  46.67
1160.3  805876.95  374523.50  46.47
1164.1  801163.07  371191.29  46.33
1167.9  798033.21  369062.69  46.25
1171.7  795518.57  367360.20  46.18
1175.4  793087.75  365852.29  46.13
1179.2  791082.00  364525.83  46.08
1183.0  791477.63  364218.94  46.02
1186.7  791744.33  363895.78  45.96
1190.5  790456.08  362929.34  45.91
1194.3  787688.18  361316.95  45.87
1198.0  784482.90  359574.85  45.84
1201.8  781960.67  358295.26  45.82
1205.6  780426.88  357682.20  45.83
1209.3  779277.00  357534.33  45.88
1213.1  777979.58  357407.90  45.94
1216.8  775966.53  357127.88  46.02
1220.6  773546.17  356682.67  46.11
1224.3  771054.17  356165.74  46.19
1228.1  768707.13  355767.97  46.28
1231.9  766175.15  355087.34  46.35
1235.6  763593.05  354265.27  46.39
1239.4  761158.28  353523.44  46.45
1243.1  758946.60  352763.20  46.48
1246.9  756940.53  352020.33  46.51
1250.6  754814.18  351182.49  46.53
1254.3  752841.60  350299.73  46.53
1258.1  750666.00  349326.67  46.54
1261.8  748196.17  348095.22  46.52
1265.6  746070.31  346935.92  46.50
1269.3  744042.07  345764.74  46.47
1273.1  744606.38  345789.48  46.44
1276.8  744517.53  345404.08  46.39
1280.6  743732.55  344544.06  46.33
1284.3  741064.23  342719.66  46.25
1288.0  739304.15  341199.21  46.15
1291.8  737893.80  339771.60  46.05
1295.5  736256.01  338150.19  45.93
1299.2  733812.30  336035.27  45.79
1302.9  730890.23  333477.06  45.63
1306.7  727687.80  330613.50  45.43
1310.4  724583.30  327543.57  45.20
1314.1  721976.25  324480.42  44.94
1317.9  719391.40  321115.58  44.64
1321.6  716575.71  317400.92  44.29
1325.3  713747.03  313412.85  43.91
1329.0  711120.67  309338.09  43.50
1332.8  707418.75  304580.56  43.06
1336.5  703956.29  299876.52  42.60
1340.2  702376.30  295958.38  42.14
1343.9  702210.60  292683.02  41.68
1347.6  703190.88  289901.74  41.23
1351.4  705243.75  287663.89  40.79
1355.1  709546.11  286371.92  40.36
1358.8  711144.10  283837.52  39.91
1362.5  712245.74  280829.06  39.43
1366.2  708786.67  275422.35  38.86
1369.9  702223.00  268151.33  38.19
1373.6  697126.19  260290.98  37.34
1377.3  695444.20  252094.49  36.25
1381.0  693784.57  241993.05  34.88
1384.8  689466.00  228781.96  33.18
1388.4  683485.10  213601.09  31.25
1392.2  678769.63  197782.72  29.14
1395.9  676812.85  182476.70  26.96
1399.6  672289.37  167065.72  24.85
1403.3  669153.60  153388.00  22.92
1407.0  665688.38  141421.50  21.24
1410.7  663127.42  131675.03  19.86
1414.3  659920.00  123783.67  18.76
1418.1  656979.17  117752.32  17.92
1421.7  654307.97  113197.00  17.30
1425.4  652346.90  109926.85  16.85
1429.1  648417.00  107220.17  16.54
1432.8  646803.68  105600.60  16.33
1436.5  643410.63  104209.81  16.20
1440.2  639898.50  103207.70  16.13
1443.9  637575.07  102717.14  16.11
1447.6  633659.20  102205.87  16.13
1451.2  630345.35  101925.40  16.17
1454.9  628391.05  102044.86  16.24
1458.6  624566.29  102131.40  16.35
1462.3  623700.87  103062.50  16.52
1466.0  623769.21  104566.83  16.76
1469.7  621934.13  106194.98  17.07
1473.3  619598.47  108111.42  17.45
1477.0  615151.36  109963.41  17.88
1480.7  611786.96  112171.08  18.33
1484.4  607942.18  114332.30  18.81
1488.0  604683.17  116706.19  19.30
1491.7  601149.18  119009.79  19.80
1495.4  597709.98  121309.15  20.30
1499.0  594714.90  123648.99  20.79
1502.7  591883.79  125969.38  21.28
1506.4  589009.48  128212.42  21.77
1510.0  586113.13  130364.72  22.24
1513.7  583295.50  132443.48  22.71
1517.4  580715.80  134458.23  23.15
1521.0  578339.58  136462.19  23.60
1524.7  575812.28  138273.27  24.01
1528.3  573354.47  140009.30  24.42
1532.0  570773.30  141622.66  24.81
1535.7  568009.13  143057.25  25.19
1539.3  565402.97  144438.54  25.55
1543.0  563698.04  145967.82  25.89
1546.6  562263.08  147488.00  26.23
1550.3  560639.30  148855.60  26.55
1553.9  558215.33  149911.17  26.86
1557.6  555978.95  150944.13  27.15
1561.2  553456.94  151770.33  27.42
1564.9  550716.13  152492.77  27.69
1568.5  547941.33  153103.41  27.94
1572.2  545537.42  153748.57  28.18
1575.8  543695.60  154515.98  28.42
1579.5  541823.02  155175.79  28.64
1583.1  539470.75  155680.44  28.86
1586.8  537214.32  156120.18  29.06
1590.4  534870.92  156523.47  29.26
1594.0  532491.78  156850.28  29.46
1597.7  530574.17  157268.86  29.64
1601.3  528504.08  157592.85  29.82
1604.9  525995.43  157757.92  29.99
1608.6  523021.95  157690.80  30.15
1612.2  519996.46  157553.19  30.30
1615.8  517371.00  157467.07  30.44
1619.5  515077.97  157381.01  30.55
1623.1  512223.53  157059.65  30.66
1626.7  509380.03  156652.18  30.75
1630.3  506786.40  156216.27  30.82
1634.0  504329.58  155666.96  30.87
1637.6  502060.83  154983.15  30.87
1641.2  499821.58  154011.67  30.81
1644.8  497347.10  152771.36  30.72
1648.5  494656.25  151374.81  30.60
1652.1  492419.87  150221.52  30.51
1655.7  490561.89  149396.69  30.45
1659.3  488711.48  148925.00  30.47
1662.9  485504.60  148316.38  30.55
1666.6  481870.40  147694.49  30.65
1670.2  478448.03  147054.05  30.74
1673.8  475097.99  146246.58  30.78
1677.4  472546.43  145454.40  30.78
1681.0  470853.80  144700.00  30.73
1684.6  469947.96  143932.15  30.63
1688.2  468322.40  142728.44  30.48
1691.8  466689.02  141426.06  30.30
1695.4  465862.84  140351.50  30.13
1699.0  464941.90  139261.85  29.95
1702.6  464362.80  138179.91  29.76
1706.2  462829.87  136658.92  29.53
1709.8  460642.18  134947.25  29.30
1713.4  459035.20  133558.53  29.10
1717.0  457285.65  132332.60  28.94
1720.6  455542.67  131244.52  28.81
1724.2  454078.23  130291.11  28.69
1727.8  452652.70  129455.66  28.60
1731.4  451867.79  128878.35  28.52
1735.0  451833.57  128596.02  28.46
1738.6  451285.88  128025.50  28.37
1742.2  450430.25  127167.13  28.23
1745.8  448704.00  125878.52  28.05
1749.4  446303.75  124303.86  27.85
1753.0  442541.60  122322.22  27.64
1756.6  438725.00  120338.56  27.43
1760.1  435431.20  118605.42  27.24
1763.7  431569.89  116779.88  27.06
1767.3  428468.63  115273.55  26.90
1770.9  425784.67  113915.15  26.75
1774.5  422612.88  112504.24  26.62
1778.0  420474.20  111468.41  26.51
1781.6  418193.63  110575.87  26.44
1785.2  415529.13  109713.97  26.40
1788.8  412758.96  108896.53  26.38
1792.3  410505.24  108259.03  26.37
1795.9  410125.65  108156.39  26.37
1799.5  410965.51  108412.82  26.38
1803.1  413855.29  109257.03  26.40
1806.6  416703.25  110119.78  26.43
1810.2  418933.73  110781.30  26.44
1813.8  418826.93  110839.22  26.46
1817.3  418366.58  110735.53  26.47
1820.9  417725.00  110534.72  26.46
1824.5  416969.76  110266.03  26.44
1828.0  417864.78  110333.72  26.40
1831.6  419824.37  110589.71  26.34
1835.2  420453.78  110327.80  26.24
1838.7  421279.25  109919.70  26.09
1842.3  419727.00  108675.00  25.89
1845.8  417386.66  106911.06  25.61
1849.4  416706.03  105214.87  25.25
1852.9  414569.79  102632.87  24.76
1856.5  412571.25  99550.70  24.13
1860.0  411888.97  96114.25  23.33
1863.6  411943.37  92106.81  22.36
1867.1  413734.00  87664.81  21.19
1870.7  416103.62  82293.23  19.78
1874.2  413880.48  75109.04  18.15
1877.8  407568.73  66794.86  16.39
1881.3  401669.45  58362.23  14.53
1884.9  398206.21  50618.58  12.71
1888.4  395309.43  43383.30  10.97
1891.9  393306.85  37211.98  9.46
1895.5  392025.78  32248.69  8.23
1899.0  391995.95  28589.38  7.29
1901.3  408887.73  21330.58  5.22
1904.1  409371.33  19235.17  4.70
1906.8  407767.67  17601.33  4.32
1909.6  403867.07  16188.05  4.01
1912.4  399783.45  15181.65  3.80
1915.1  395917.00  14394.15  3.64
1917.9  392276.65  13879.92  3.54
1920.6  389413.43  13477.78  3.46
1923.3  386871.53  13234.51  3.42
1926.1  383451.60  13037.45  3.40
1928.8  379574.00  12900.33  3.40
1931.6  378404.98  12902.72  3.41
1934.3  374758.08  12887.16  3.44
1937.0  370971.00  12915.60  3.48
1939.8  367749.70  13030.36  3.54
1942.5  363169.80  13096.77  3.61
1945.2  359395.58  13229.78  3.68
1947.9  356374.20  13423.15  3.77
1950.7  351954.10  13587.43  3.86
1953.4  348302.93  13822.24  3.97
1956.1  345480.53  14112.05  4.08
1958.8  343153.42  14446.45  4.21
1961.5  340084.15  14759.97  4.34
1964.2  336590.60  15096.24  4.49
1966.9  333485.33  15448.89  4.63
1969.6  330686.27  15822.84  4.78
1972.3  328085.70  16238.71  4.95
1975.0  325479.33  16657.34  5.12
1977.7  323207.48  17132.45  5.30
1980.4  320956.53  17603.91  5.48
1983.1  318576.10  18076.69  5.67
1985.8  316404.00  18577.60  5.87
1988.4  314346.45  19095.08  6.07
1991.1  312559.10  19616.57  6.28
1993.8  311077.20  20171.43  6.48
1996.5  309493.80  20712.77  6.69
1999.1  308041.30  21278.32  6.91
2001.8  306789.55  21844.14  7.12
2004.5  305523.00  22406.38  7.33
2007.1  303950.47  22943.13  7.55
2009.8  301982.92  23431.53  7.76
2012.4  300654.17  23936.83  7.96
2015.1  299450.50  24451.89  8.17
2017.8  298237.33  24941.87  8.36
2020.4  297097.60  25426.17  8.56
2023.1  296629.97  25953.58  8.75
2025.7  296343.97  26464.93  8.93
2028.3  295498.68  26911.62  9.11
2031.0  294902.97  27336.47  9.27
2033.6  294587.75  27763.50  9.42
2036.2  294159.83  28159.60  9.57
2038.9  293176.00  28475.20  9.71
2041.5  292229.17  28777.78  9.85
2044.1  291416.67  29069.44  9.98
2046.8  290246.78  29309.86  10.10
2049.4  289358.07  29540.24  10.21
2052.0  289129.35  29810.32  10.31
2054.6  288739.73  30076.18  10.42
2057.2  287648.25  30276.92  10.53
2059.8  286146.00  30408.00  10.63
2062.4  284733.80  30565.24  10.73
2065.0  283333.00  30704.93  10.84
2067.6  281447.03  30778.78  10.94
2070.2  279953.67  30897.96  11.04
2072.8  279016.83  31041.70  11.13
2075.4  278003.00  31178.50  11.22
2078.0  277329.83  31363.92  11.31
2080.6  276035.97  31480.22  11.40
2083.2  274686.57  31555.77  11.49
2085.8  273365.40  31626.47  11.57
2088.4  272250.38  31729.91  11.65
2090.9  270556.00  31755.50  11.74
2093.5  268634.20  31721.93  11.81
2096.1  266795.10  31703.10  11.88
2098.7  265233.23  31716.56  11.96
2101.2  263305.60  31650.60  12.02
2103.8  261818.75  31653.83  12.09
2106.4  260350.70  31628.46  12.15
2108.9  259303.83  31659.27  12.21
2111.5  258330.92  31648.36  12.25
2114.0  257703.33  31655.00  12.28
2116.6  255489.67  31462.08  12.31
2119.1  254367.40  31407.13  12.35
2121.7  253780.97  31402.30  12.37
2124.2  253616.00  31454.55  12.40
2126.8  252468.90  31366.55  12.42
2129.3  251313.47  31311.59  12.46
2131.9  251456.80  31436.71  12.50
2134.4  250620.65  31478.92  12.56
2136.9  250378.43  31578.65  12.61
2139.4  249295.75  31585.08  12.67
2142.0  248845.53  31708.99  12.74
2144.5  248258.58  31834.97  12.82
2147.0  247770.05  31960.82  12.90
2149.5  247382.60  32093.41  12.97
2152.1  247718.47  32306.44  13.04
2154.6  247776.00  32480.00  13.11
2157.1  247686.67  32635.45  13.18
2159.6  246611.80  32643.23  13.24
2162.1  246424.93  32751.99  13.29
2164.6  245725.65  32797.91  13.35
2167.1  244723.17  32795.19  13.40
2169.6  244859.15  32938.45  13.45
2172.1  244019.00  32966.07  13.51
2174.6  243649.93  33037.82  13.56
2177.1  242567.33  33042.33  13.62
2179.5  242115.23  33126.97  13.68
2182.0  241798.25  33231.08  13.74
2184.5  240761.85  33248.88  13.81
2187.0  239914.70  33286.40  13.87
2189.5  238940.60  33302.79  13.94
2191.9  237679.02  33279.58  14.00
2194.4  235961.25  33186.92  14.06
2196.9  234828.92  33170.81  14.13
2199.3  233381.70  33101.60  14.18
2201.8  232172.73  33067.18  14.24
2204.3  231413.70  33111.70  14.31
2206.7  230167.90  33044.87  14.36
2209.2  228914.10  33010.50  14.42
2211.6  226959.03  32845.25  14.47
2214.1  226316.88  32870.41  14.52
2216.5  225957.23  32921.93  14.57
2219.0  224599.10  32771.32  14.59
2221.4  224653.95  32828.60  14.61
2223.9  223476.93  32696.74  14.63
2226.3  222163.87  32510.91  14.63
2228.7  221220.13  32329.56  14.61
2231.1  220537.93  32124.61  14.57
2233.6  219504.00  31824.00  14.50
2236.0  218440.97  31516.90  14.43
2238.4  217530.02  31184.85  14.34
2240.9  216788.80  30861.53  14.24
2243.3  215964.03  30469.86  14.11
2245.7  215153.13  30055.86  13.97
2248.1  214156.80  29628.45  13.83
2250.5  213319.33  29232.13  13.70
2252.9  212630.57  28842.96  13.56
2255.3  211903.97  28444.49  13.42
2257.7  211015.93  28035.70  13.29
2260.1  210074.80  27680.53  13.18
2262.5  209024.00  27273.47  13.05
2264.9  208046.70  26897.93  12.93
2267.3  207121.20  26540.80  12.81
2269.7  206170.70  26196.85  12.71
2272.1  205351.00  25901.94  12.61
2274.5  204606.93  25595.11  12.51
2276.8  203902.67  25326.75  12.42
2279.2  203107.60  25031.97  12.32
2281.6  202527.65  24796.90  12.24
2284.0  202167.90  24542.10  12.14
2286.3  201660.87  24255.98  12.03
2288.7  201111.55  23955.51  11.91
2291.1  200537.50  23647.67  11.79
2293.4  199826.30  23301.30  11.66
2295.8  199160.87  22917.34  11.51
2298.2  198410.70  22567.30  11.37
2300.5  197254.40  22161.77  11.24
2302.9  195830.85  21716.92  11.09
2305.2  194332.25  21308.22  10.96
2307.6  192780.00  20912.26  10.85
2309.9  191747.82  20618.74  10.75
2312.2  190812.67  20393.67  10.69
2314.6  189765.77  20153.64  10.62
2316.9  188691.27  19941.66  10.57
2319.2  188006.68  19733.75  10.50
2321.6  187407.22  19571.95  10.44
2323.9  186639.20  19327.47  10.36
2326.2  185765.70  19105.47  10.28
2328.6  185024.10  18888.30  10.21
2330.9  184697.33  18709.60  10.13
2333.2  184279.25  18498.58  10.04
2335.5  183752.62  18341.12  9.98
2337.8  183260.20  18198.33  9.93
2340.1  182641.60  17997.27  9.85
2342.4  182177.10  17811.90  9.78
2344.8  181429.12  17630.23  9.72
2347.1  180681.20  17419.10  9.64
2349.4  180025.73  17231.56  9.57
2351.6  179246.00  17062.00  9.52
2353.9  178203.00  16884.40  9.47
2356.2  177399.77  16725.60  9.43
2358.5  176539.30  16551.38  9.38
2360.8  175750.00  16361.11  9.31
2363.1  175393.83  16232.78  9.26
2365.4  174960.00  16065.00  9.18
2367.7  174364.20  15863.76  9.10
2369.9  173624.73  15689.48  9.04
2372.2  172498.40  15479.55  8.97
2374.5  171275.00  15243.33  8.90
2376.7  170331.20  14955.70  8.78
2379.0  169063.95  14686.10  8.69
2381.3  167642.57  14415.68  8.60
2383.5  166693.33  14157.11  8.49
2385.8  166012.00  13939.14  8.40
2388.0  165134.67  13670.49  8.28
2390.3  164344.43  13411.80  8.16
2392.5  163879.92  13246.14  8.08
2394.8  162925.33  13006.11  7.98
2397.0  162498.13  12835.56  7.90
2399.3  161885.48  12617.62  7.79
2401.5  161063.10  12407.17  7.70
2403.8  160456.90  12174.78  7.59
2406.0  159933.40  11977.17  7.49
2408.2  159083.40  11747.75  7.38
2410.4  158299.92  11537.84  7.29
2412.7  157852.60  11361.60  7.20
2414.9  157189.93  11186.00  7.12
2417.1  157225.87  10957.51  6.97
2419.3  156764.93  10773.47  6.87
2421.6  155867.83  10558.49  6.77
2423.8  155233.80  10390.26  6.69
2426.0  154881.80  10185.10  6.58
2428.2  154596.75  10029.25  6.49
2430.4  154564.65  9855.78  6.38
2432.6  154422.20  9663.87  6.26
2434.8  153832.15  9495.07  6.17
2437.0  153238.80  9307.57  6.07
2439.2  152871.77  9109.10  5.96
2441.4  152101.60  8938.53  5.88
2443.6  151966.13  8777.13  5.78
2445.7  152022.00  8640.57  5.68
2447.9  151979.75  8468.85  5.57
2450.1  151144.17  8278.53  5.48
2452.3  150243.68  8074.00  5.37
2454.5  149620.80  7903.47  5.28
2456.6  148943.67  7783.39  5.23
2458.8  147758.33  7555.96  5.11
2461.0  147341.13  7416.50  5.03
2463.1  146899.17  7279.11  4.96
2465.3  146423.33  7145.55  4.88
2467.5  146154.67  7072.00  4.84
2469.6  145712.92  6942.28  4.76
2471.8  145375.73  6919.03  4.76
2473.9  144757.17  6717.39  4.64
2476.1  143990.00  6596.94  4.58
2478.2  142991.75  6433.97  4.50
2480.4  142153.48  6358.73  4.47
2482.5  141293.07  6211.28  4.40
2484.6  140302.00  6150.00  4.38
2486.8  139579.03  6061.43  4.34
2488.9  139182.60  5922.07  4.25
2491.1  137815.93  5806.06  4.21
2493.2  136534.90  5706.88  4.18
2495.3  134999.92  5672.02  4.20
2497.4  133637.95  5571.89  4.17
2499.5  132861.37  5436.18  4.09
2501.7  132854.00  5399.83  4.06
2503.8  133114.10  5372.73  4.04
2505.9  133776.05  5434.95  4.06
2508.0  134732.42  5445.72  4.04
2510.1  135676.20  5459.40  4.02
2512.2  136650.42  5403.67  3.95
2514.3  137726.98  5491.85  3.99
2516.4  139531.23  5897.79  4.23
