/*** Spectra Vista SIG Data ***/
name= 41_20221021_ACRU_28_avg.sig
comm= Averaged Ref/Tar of files: HR.102122.0039_moc.sig,HR.102122.0040_moc.sig,HR.102122.0041_moc.sig
data=
337.3  6317.33  487.05  7.71
338.8  6445.40  467.26  7.25
340.3  6805.80  495.13  7.28
341.8  7076.55  501.15  7.08
343.2  7550.13  499.11  6.61
344.7  7900.50  474.36  6.00
346.2  8225.00  446.50  5.43
347.7  8627.35  444.75  5.16
349.2  8920.80  446.40  5.00
350.6  9423.45  459.17  4.87
352.1  9834.25  471.67  4.80
353.6  10388.80  471.77  4.54
355.1  10910.10  456.17  4.18
356.6  11583.35  477.21  4.12
358.0  12095.08  494.54  4.09
359.5  12621.83  511.03  4.05
361.0  13283.20  519.58  3.91
362.5  13842.00  521.82  3.77
364.0  14539.78  538.81  3.71
365.4  15214.38  547.98  3.60
366.9  15873.28  567.55  3.58
368.4  16462.60  595.59  3.62
369.9  17225.00  625.90  3.63
371.3  18068.60  655.31  3.63
372.8  18805.90  677.82  3.60
374.3  19672.40  681.29  3.46
375.8  20496.10  694.27  3.39
377.2  21270.60  707.02  3.32
378.7  22018.15  727.42  3.30
380.2  22777.20  743.17  3.26
381.7  23632.00  753.57  3.19
383.1  24622.58  763.26  3.10
384.6  25551.45  781.12  3.06
386.1  26467.95  793.39  3.00
387.6  27339.00  826.18  3.02
389.0  28257.08  843.79  2.99
390.5  29238.05  867.08  2.97
392.0  30222.00  882.21  2.92
393.4  31338.75  900.29  2.87
394.9  32270.60  921.05  2.85
396.4  33396.00  949.35  2.84
397.9  34418.70  968.60  2.81
399.3  35316.70  995.89  2.82
400.8  36457.58  1019.86  2.80
402.2  37657.95  1039.03  2.76
403.7  38780.70  1059.73  2.73
405.2  39922.60  1088.84  2.73
406.6  41177.70  1113.09  2.70
408.1  42175.95  1140.46  2.70
409.6  43331.08  1173.26  2.71
411.0  44514.80  1198.29  2.69
412.5  45821.50  1235.81  2.70
414.0  47153.58  1267.42  2.69
415.4  48452.40  1304.74  2.69
416.9  49683.10  1343.75  2.70
418.4  50963.98  1383.81  2.72
419.8  52247.30  1427.47  2.73
421.3  53672.85  1465.20  2.73
422.7  55094.00  1503.29  2.73
424.2  56569.65  1551.35  2.74
425.7  58000.25  1587.27  2.74
427.1  59435.20  1637.33  2.75
428.6  60860.68  1681.40  2.76
430.0  62351.58  1720.66  2.76
431.5  63982.10  1774.07  2.77
432.9  65574.63  1826.81  2.79
434.4  67233.13  1877.38  2.79
435.9  68861.10  1927.97  2.80
437.3  70503.00  1980.39  2.81
438.8  72098.60  2031.94  2.82
440.2  73714.03  2086.00  2.83
441.7  75545.45  2145.60  2.84
443.1  77309.10  2196.13  2.84
444.6  79064.65  2255.13  2.85
446.0  80816.73  2321.23  2.87
447.5  82750.00  2383.33  2.88
448.9  84420.98  2445.02  2.90
450.4  86300.00  2516.67  2.92
451.8  88012.88  2577.11  2.93
453.3  89802.08  2635.82  2.94
454.7  91555.43  2702.32  2.95
456.2  93359.70  2769.13  2.97
457.6  95212.80  2831.27  2.97
459.1  97008.98  2891.00  2.98
460.5  98806.45  2941.59  2.98
462.0  100772.10  3010.20  2.99
463.4  102687.55  3067.82  2.99
464.8  104636.70  3139.05  3.00
466.3  106540.13  3202.59  3.01
467.7  108528.00  3269.18  3.01
469.2  110337.60  3332.99  3.02
470.6  112297.50  3399.67  3.03
472.0  114325.23  3457.69  3.02
473.5  116273.33  3524.97  3.03
474.9  118409.90  3599.87  3.04
476.4  120429.60  3669.60  3.05
477.8  122472.00  3746.67  3.06
479.2  124459.03  3808.73  3.06
480.7  126558.90  3887.19  3.07
482.1  128706.33  3957.37  3.07
483.6  130878.90  4036.20  3.08
485.0  133021.13  4129.64  3.10
486.4  135068.83  4219.27  3.12
487.9  137266.75  4310.14  3.14
489.3  139367.78  4412.64  3.17
490.7  141510.30  4519.49  3.19
492.2  143662.63  4637.29  3.23
493.6  145858.20  4770.57  3.27
495.0  148104.45  4919.85  3.32
496.5  150255.00  5081.40  3.38
497.9  152515.63  5261.54  3.45
499.3  154700.50  5461.51  3.53
500.7  156923.50  5697.74  3.63
502.2  159245.45  5959.51  3.74
503.6  161501.40  6263.09  3.88
505.0  163746.83  6614.56  4.04
506.5  166161.00  7023.30  4.23
507.9  168551.65  7491.00  4.44
509.3  170764.20  8011.88  4.69
510.7  173325.75  8627.91  4.98
512.2  175906.80  9330.33  5.30
513.6  178715.35  10123.59  5.66
515.0  181417.43  10995.23  6.06
516.4  184210.20  11964.66  6.50
517.8  186935.00  13015.12  6.96
519.3  189774.40  14156.95  7.46
520.7  192410.00  15336.02  7.97
522.1  195002.28  16567.79  8.50
523.5  197539.30  17824.57  9.02
524.9  200402.78  19106.49  9.53
526.3  202996.13  20339.81  10.02
527.8  205699.25  21566.89  10.48
529.2  208224.00  22762.97  10.93
530.6  210924.00  23938.20  11.35
532.0  213695.95  25068.77  11.73
533.4  216208.20  26095.21  12.07
534.8  218691.83  27053.48  12.37
536.3  221558.33  28003.83  12.64
537.7  224433.75  28910.62  12.88
539.1  227285.50  29762.45  13.09
540.5  230105.25  30585.93  13.29
541.9  233008.30  31414.59  13.48
543.3  235554.90  32184.21  13.66
544.7  238502.00  33006.29  13.84
546.1  241282.30  33794.13  14.01
547.5  244101.60  34582.63  14.17
549.0  247043.60  35349.49  14.31
550.4  249876.90  36067.20  14.43
551.8  252849.53  36726.71  14.53
553.2  255677.78  37279.56  14.58
554.6  258504.65  37713.10  14.59
556.0  261364.95  38045.60  14.56
557.4  264411.30  38293.29  14.48
558.8  267273.95  38419.20  14.37
560.2  270420.00  38504.76  14.24
561.6  273321.13  38475.17  14.08
563.0  276075.15  38350.25  13.89
564.4  279226.50  38208.47  13.68
565.8  282210.00  37980.52  13.46
567.2  285335.68  37685.60  13.21
568.6  288325.58  37294.33  12.93
570.0  291144.75  36777.62  12.63
571.4  294509.83  36268.81  12.31
572.8  297609.80  35707.43  12.00
574.2  300424.43  35124.70  11.69
575.6  303463.63  34602.06  11.40
577.0  306431.13  34116.53  11.13
578.4  309793.75  33735.42  10.89
579.8  312846.90  33364.78  10.66
581.2  315838.75  33044.43  10.46
582.5  318712.50  32751.43  10.28
583.9  321704.40  32508.56  10.11
585.3  324561.70  32289.00  9.95
586.7  327511.80  32124.40  9.81
588.1  330463.90  32000.88  9.68
589.5  333750.60  31962.96  9.58
590.9  336671.08  31925.50  9.48
592.3  339553.80  31937.21  9.41
593.7  342471.68  31995.48  9.34
595.0  345384.00  32076.06  9.29
596.4  348623.13  32214.31  9.24
597.8  351249.40  32280.99  9.19
599.2  354316.95  32356.25  9.13
600.6  357461.78  32399.87  9.06
602.0  360374.40  32355.66  8.98
603.3  363220.00  32232.57  8.87
604.7  366205.90  32039.46  8.75
606.1  369140.93  31767.48  8.61
607.5  372386.15  31451.51  8.45
608.9  375413.50  31048.97  8.27
610.2  378563.63  30621.64  8.09
611.6  381452.50  30153.09  7.90
613.0  384213.05  29665.75  7.72
614.4  386928.80  29196.25  7.55
615.8  390140.40  28787.78  7.38
617.1  392779.10  28386.28  7.23
618.5  396017.10  28083.90  7.09
619.9  398693.40  27815.06  6.98
621.3  401565.78  27635.77  6.88
622.6  404469.00  27520.07  6.80
624.0  407106.75  27460.97  6.75
625.4  410132.78  27479.96  6.70
626.8  413005.45  27556.10  6.67
628.1  415790.20  27670.10  6.65
629.5  418458.43  27801.60  6.64
630.9  421229.30  27939.88  6.63
632.2  424224.23  28061.03  6.61
633.6  426593.70  28085.69  6.58
635.0  429433.43  28038.17  6.53
636.3  432369.78  27876.48  6.45
637.7  435057.88  27561.36  6.34
639.1  437928.15  27149.94  6.20
640.4  440612.13  26625.75  6.04
641.8  443368.80  26040.86  5.87
643.2  445867.75  25376.15  5.69
644.5  448700.00  24703.33  5.51
645.9  451313.45  24017.80  5.32
647.2  453566.58  23387.10  5.16
648.6  456171.60  22862.44  5.01
650.0  458877.60  22419.09  4.89
651.3  461696.65  22075.34  4.78
652.7  465510.00  21796.29  4.68
654.0  468274.15  21469.80  4.58
655.4  470522.85  21106.90  4.49
656.8  472265.85  20683.60  4.38
658.1  474880.35  20243.70  4.26
659.5  477878.40  19781.49  4.14
660.8  480610.20  19294.60  4.01
662.2  483249.65  18805.24  3.89
663.5  486063.23  18355.88  3.78
664.9  487922.60  17953.86  3.68
666.2  490165.98  17630.11  3.60
667.6  492693.75  17409.43  3.53
668.9  495244.80  17284.11  3.49
670.3  498164.63  17223.50  3.46
671.6  500277.60  17226.51  3.44
673.0  502482.40  17299.20  3.44
674.3  504896.70  17419.97  3.45
675.7  507346.20  17596.80  3.47
677.0  509571.30  17839.06  3.50
678.4  511759.40  18133.94  3.54
679.7  514047.15  18518.68  3.60
681.1  516534.30  18993.85  3.68
682.4  518627.63  19577.25  3.77
683.8  520958.25  20323.86  3.90
685.1  523153.80  21338.20  4.08
686.4  525375.50  22702.61  4.32
687.8  527719.05  24580.80  4.66
689.1  530120.50  27181.60  5.13
690.5  532111.30  30652.03  5.76
691.8  534679.20  35280.14  6.60
693.1  537094.50  41155.14  7.66
694.5  539432.80  48248.96  8.94
695.8  541792.60  56410.46  10.41
697.1  544021.30  65454.28  12.03
698.5  546272.25  75205.34  13.77
699.8  548618.80  85406.17  15.57
701.1  550482.98  95786.15  17.40
702.5  552554.13  106190.26  19.22
703.8  554949.93  116507.12  20.99
705.1  556721.30  126392.51  22.70
706.5  558941.20  136026.75  24.34
707.8  560787.85  145186.84  25.89
709.1  562982.13  154049.99  27.36
710.5  565090.35  162552.55  28.77
711.8  566955.00  170644.48  30.10
713.1  568847.00  178462.29  31.37
714.4  570941.75  186036.00  32.58
715.8  573155.95  193414.95  33.75
717.1  575405.25  200511.89  34.85
718.4  577591.43  207332.59  35.90
719.7  579767.18  213882.60  36.89
721.0  581406.95  220025.09  37.84
722.4  583207.65  225944.87  38.74
723.7  585134.40  231653.29  39.59
725.0  586802.40  236979.18  40.38
726.3  589009.20  242283.35  41.13
727.6  590693.25  247113.07  41.83
729.0  592474.05  251718.23  42.49
730.3  594400.88  256128.16  43.09
731.6  595823.00  260086.46  43.65
732.9  597755.60  264007.00  44.17
734.2  599358.38  267569.89  44.64
735.5  601073.55  270969.70  45.08
736.8  603065.58  274256.40  45.48
738.1  604824.90  277254.52  45.84
739.5  606500.10  280041.10  46.17
740.8  608341.53  282731.43  46.48
742.1  609847.33  285131.77  46.75
743.4  611530.50  287475.17  47.01
744.7  613382.00  289744.00  47.24
746.0  614885.45  291693.96  47.44
747.3  616379.40  293542.40  47.62
748.6  617898.15  295278.42  47.79
749.9  619603.23  297008.59  47.94
751.2  620875.50  298407.65  48.06
752.5  622353.78  299825.24  48.18
753.8  623573.55  301070.74  48.28
755.1  625084.18  302354.82  48.37
756.4  626140.30  303359.85  48.45
757.7  628102.75  304731.56  48.52
759.0  631550.68  306791.69  48.58
760.3  634168.10  308386.83  48.63
761.6  636860.13  310002.14  48.68
762.9  638181.50  310917.36  48.72
764.2  638955.45  311486.37  48.75
765.5  639710.75  312059.92  48.78
766.8  640244.90  312471.38  48.80
768.1  641261.25  313109.40  48.83
769.3  642492.35  313814.30  48.84
770.6  643777.00  314586.22  48.87
771.9  644873.18  315223.07  48.88
773.2  646281.68  315967.69  48.89
774.5  647117.70  316474.52  48.91
775.8  648097.55  317038.64  48.92
777.1  649229.63  317672.70  48.93
778.4  650471.00  318320.50  48.94
779.6  651665.40  318963.71  48.95
780.9  652317.30  319335.36  48.95
782.2  653192.53  319837.56  48.97
783.5  654083.25  320299.83  48.97
784.8  654827.25  320717.75  48.98
786.0  655530.55  321119.36  48.99
787.3  656283.68  321532.33  48.99
788.6  657120.63  321979.75  49.00
789.9  657817.50  322338.84  49.00
791.2  659123.55  322983.71  49.00
792.4  660144.38  323537.37  49.01
793.7  661605.93  324305.07  49.02
795.0  662571.10  324824.32  49.02
796.2  663844.90  325466.46  49.03
797.5  664968.13  326033.27  49.03
798.8  666365.00  326697.92  49.03
800.0  667380.00  327240.00  49.03
801.3  668563.88  327807.00  49.03
802.6  669600.00  328333.71  49.03
803.8  670640.25  328860.10  49.04
805.1  671523.75  329355.86  49.05
806.4  672452.28  329821.47  49.05
807.7  673448.83  330341.92  49.05
808.9  674567.88  330908.68  49.05
810.2  675368.40  331349.80  49.06
811.4  676419.20  331853.07  49.06
812.7  677766.80  332533.42  49.06
814.0  678978.30  333125.10  49.06
815.2  680358.60  333795.03  49.06
816.5  681375.63  334368.33  49.07
817.7  682172.25  334761.36  49.07
819.0  682858.40  335125.87  49.08
820.2  683658.45  335541.99  49.08
821.5  684752.20  336073.32  49.08
822.7  685699.35  336584.73  49.09
824.0  686660.00  337065.73  49.09
825.2  687283.35  337437.84  49.10
826.5  688011.70  337833.53  49.10
827.7  689087.25  338336.48  49.10
829.0  689988.53  338797.96  49.10
830.2  691053.00  339285.94  49.10
831.5  691918.88  339757.78  49.10
832.7  692916.75  340253.40  49.10
834.0  693497.70  340575.11  49.11
835.2  694406.30  341093.70  49.12
836.4  695266.80  341469.18  49.11
837.7  696076.88  341888.04  49.12
838.9  697424.35  342526.89  49.11
840.1  698233.80  342989.27  49.12
841.4  699292.10  343509.65  49.12
842.6  700117.60  343984.33  49.13
843.8  700910.60  344400.33  49.14
845.1  701728.50  344844.97  49.14
846.3  702763.95  345339.30  49.14
847.5  703582.75  345816.10  49.15
848.8  704594.65  346296.53  49.15
850.0  705783.80  346934.76  49.16
851.2  706723.30  347338.88  49.15
852.5  707819.90  347939.28  49.16
853.7  708700.73  348330.79  49.15
854.9  709821.45  348935.04  49.16
856.1  710851.85  349429.21  49.16
857.4  711932.55  349915.62  49.15
858.6  712814.20  350402.80  49.16
859.8  714097.30  350964.95  49.15
861.0  715036.70  351464.10  49.15
862.2  716163.00  351977.80  49.15
863.5  717098.45  352447.10  49.15
864.7  718175.00  352913.10  49.14
865.9  719024.75  353413.55  49.15
867.1  719981.25  353786.90  49.14
868.3  721156.15  354355.49  49.14
869.5  722309.15  354910.23  49.14
870.8  723370.50  355453.16  49.14
872.0  724377.65  355904.55  49.13
873.2  725358.85  356371.76  49.13
874.4  726235.45  356770.00  49.13
875.6  727518.55  357362.47  49.12
876.8  729027.75  358024.23  49.11
878.0  730035.25  358500.90  49.11
879.2  731006.80  358988.27  49.11
880.4  732060.00  359492.76  49.11
881.6  733051.40  359961.61  49.10
882.8  734275.90  360570.78  49.11
884.0  735495.15  360960.63  49.08
885.2  736903.25  361577.05  49.07
886.5  738260.08  362180.55  49.06
887.7  739139.18  362621.33  49.06
888.8  740497.45  363297.46  49.06
890.0  741247.50  363685.00  49.06
891.2  742292.85  364167.42  49.06
892.4  743986.65  364787.18  49.03
893.6  745618.53  365646.96  49.04
894.8  747172.95  366372.38  49.03
896.0  748635.60  367060.08  49.03
897.2  750377.93  367919.36  49.03
898.4  752264.10  368794.00  49.02
899.6  753736.70  369267.24  48.99
900.8  754350.35  369512.00  48.98
902.0  754836.15  369773.64  48.99
903.2  754837.30  369901.46  49.00
904.3  755966.25  370325.89  48.99
905.5  757350.00  370889.36  48.97
906.7  758532.43  371439.90  48.97
907.9  759727.75  371786.78  48.94
909.1  760733.05  372236.33  48.93
910.2  760961.25  372420.00  48.94
911.4  761054.85  372475.20  48.94
912.6  761450.00  372641.67  48.94
913.8  762755.00  373058.67  48.91
915.0  762914.60  373149.90  48.91
916.2  763225.58  373174.26  48.89
917.3  763864.80  373449.90  48.89
918.5  763993.05  373535.77  48.89
919.7  764077.00  373555.43  48.89
920.8  764634.68  373553.09  48.85
922.0  764329.78  373504.82  48.87
923.2  764861.10  373623.82  48.85
924.4  765421.38  373733.55  48.83
925.5  766318.60  374133.34  48.82
926.7  767199.13  374442.52  48.81
927.9  768650.43  375026.63  48.79
929.0  771654.60  376395.68  48.78
930.2  775716.80  378366.36  48.78
931.4  780846.53  380649.36  48.75
932.5  785504.50  382752.75  48.73
933.7  788349.38  383928.80  48.70
934.9  789626.25  384522.50  48.70
936.0  788516.55  383831.64  48.68
937.2  785264.28  382174.89  48.67
938.3  781306.50  380052.83  48.64
939.5  779032.80  378820.37  48.63
940.7  779084.08  378671.52  48.60
941.8  782069.60  379848.98  48.57
943.0  784110.60  380703.27  48.55
944.2  785802.00  381372.00  48.53
945.3  785139.60  380808.80  48.50
946.5  783352.50  379761.67  48.48
947.6  784254.75  379979.62  48.45
948.8  782818.90  379181.38  48.44
949.9  783337.45  379090.22  48.39
951.1  783397.38  378685.22  48.34
952.2  782670.25  378124.76  48.31
953.4  782697.45  377632.33  48.25
954.5  781011.00  376538.75  48.21
955.7  780607.60  376057.34  48.17
956.8  780641.98  375862.34  48.15
958.0  780172.65  375071.19  48.08
959.1  779284.80  374500.80  48.06
960.3  779312.50  374096.43  48.00
961.4  779767.30  374061.60  47.97
962.6  779558.40  373561.37  47.92
963.7  779353.40  373426.93  47.91
964.9  779355.50  373483.35  47.92
966.0  779613.10  373468.83  47.90
967.2  779830.80  373481.60  47.89
968.3  781175.70  373976.55  47.87
969.5  781804.50  373906.50  47.83
970.6  782027.60  373955.03  47.82
971.8  782068.53  373858.17  47.80
972.9  782372.50  374187.33  47.83
974.0  783245.60  374549.16  47.82
975.2  781818.75  374007.86  47.84
976.3  782841.88  374377.00  47.82
977.5  782362.73  373869.86  47.79
978.6  782702.33  374031.31  47.79
979.7  782196.80  373870.93  47.80
980.9  782840.45  374178.00  47.80
982.0  782711.90  373928.27  47.77
983.2  783270.60  374273.87  47.78
984.3  781083.10  373419.47  47.81
985.4  781328.80  373069.93  47.75
986.6  781890.63  373282.03  47.74
987.7  781528.75  373165.78  47.75
988.9  781874.83  373658.23  47.79
990.0  781255.20  373717.32  47.84
993.1  861244.20  407931.35  47.37
996.9  860672.60  408483.37  47.46
1000.7  860179.28  408963.81  47.54
1004.5  859166.27  409114.53  47.62
1008.4  860141.18  410289.49  47.70
1012.2  861495.92  411540.02  47.77
1016.0  861415.60  412161.72  47.85
1019.8  860064.98  412107.44  47.92
1023.7  858527.82  411819.61  47.97
1027.5  855973.67  410999.06  48.02
1031.3  854094.43  410363.78  48.05
1035.1  852743.40  409961.10  48.08
1038.9  852097.62  409819.09  48.10
1042.7  851753.20  409798.48  48.11
1046.5  851019.75  409553.13  48.12
1050.3  849472.69  408825.41  48.13
1054.2  847493.08  407987.80  48.14
1058.0  846586.80  407566.29  48.14
1061.8  845405.00  407032.94  48.15
1065.6  843499.00  405993.16  48.13
1069.4  841069.22  404726.03  48.12
1073.2  838942.00  403633.29  48.11
1077.0  837598.67  402853.11  48.10
1080.8  837334.67  402464.86  48.06
1084.6  837199.00  402154.76  48.04
1088.4  836636.07  401726.62  48.02
1092.2  835384.90  400837.13  47.98
1096.0  834065.13  399850.89  47.94
1099.8  832469.50  398719.70  47.90
1103.6  830561.97  397450.03  47.85
1107.4  829012.38  396263.19  47.80
1111.2  827642.47  395168.49  47.75
1114.9  826744.50  394258.93  47.69
1118.7  826457.50  393490.11  47.61
1122.5  826560.15  392755.29  47.52
1126.3  824194.35  390752.10  47.41
1130.1  823626.13  389284.33  47.26
1133.9  820211.54  386018.58  47.06
1137.7  817523.20  382759.86  46.82
1141.4  813677.18  378608.74  46.53
1145.2  812745.61  375516.25  46.20
1149.0  810659.55  372091.48  45.90
1152.8  807185.65  368227.60  45.62
1156.6  803534.61  364746.31  45.39
1160.3  800261.85  361898.70  45.22
1164.1  795511.80  358804.48  45.10
1167.9  792441.17  356750.54  45.02
1171.7  789947.63  355101.09  44.95
1175.4  787502.63  353587.80  44.90
1179.2  785544.00  352248.75  44.84
1183.0  785874.63  351934.59  44.78
1186.7  786109.33  351631.67  44.73
1190.5  784895.46  350720.35  44.68
1194.3  782187.93  349142.40  44.64
1198.0  779030.78  347504.35  44.61
1201.8  776519.33  346272.67  44.59
1205.6  774923.38  345672.21  44.61
1209.3  773799.75  345440.03  44.64
1213.1  772588.63  345176.77  44.68
1216.8  770701.20  344810.95  44.74
1220.6  768394.50  344258.45  44.80
1224.3  766012.50  343651.79  44.86
1228.1  763740.87  343141.16  44.93
1231.9  761166.90  342414.99  44.99
1235.6  758584.75  341575.93  45.03
1239.4  756238.20  340867.04  45.07
1243.1  754039.80  340073.87  45.10
1246.9  752039.20  339292.58  45.12
1250.6  749938.82  338466.13  45.13
1254.3  747945.60  337649.14  45.14
1258.1  745826.67  336714.19  45.15
1261.8  743311.80  335550.80  45.14
1265.6  741142.34  334494.25  45.13
1269.3  739150.40  333404.82  45.11
1273.1  739769.03  333420.66  45.07
1276.8  739662.07  333043.83  45.03
1280.6  738762.19  332314.80  44.98
1284.3  736032.83  330711.09  44.93
1288.0  734275.64  329429.41  44.86
1291.8  732979.80  328185.00  44.77
1295.5  731486.10  326778.96  44.67
1299.2  729069.90  324896.74  44.56
1302.9  726086.53  322586.13  44.43
1306.7  722906.10  320027.18  44.27
1310.4  719829.10  317286.25  44.08
1314.1  717309.38  314655.27  43.87
1317.9  714757.98  311783.12  43.62
1321.6  711906.65  308580.46  43.35
1325.3  709096.28  305165.86  43.04
1329.0  706449.33  301721.93  42.71
1332.8  702815.00  297607.32  42.35
1336.5  699425.54  293594.66  41.98
1340.2  697848.75  290333.60  41.60
1343.9  697673.53  287627.08  41.23
1347.6  698547.68  285328.79  40.85
1351.4  700422.50  283573.39  40.49
1355.1  704546.98  282734.60  40.13
1358.8  706023.15  280703.34  39.76
1362.5  707069.59  278210.03  39.35
1366.2  703718.54  273517.86  38.87
1369.9  697265.00  267023.71  38.30
1373.6  692249.89  260127.39  37.58
1377.3  690566.63  253117.52  36.65
1381.0  688944.03  244376.70  35.47
1384.8  684671.70  232735.54  33.99
1388.4  678791.35  219157.89  32.29
1392.2  674154.98  204957.46  30.40
1395.9  672278.85  191145.88  28.43
1399.6  667778.37  177029.90  26.51
1403.3  664689.60  164370.86  24.73
1407.0  661307.63  153167.14  23.16
1410.7  658775.99  143937.06  21.85
1414.3  655576.50  136332.71  20.80
1418.1  652640.63  130453.13  19.99
1421.7  650095.13  125929.70  19.37
1425.4  648179.25  122621.87  18.92
1429.1  644264.25  119820.75  18.60
1432.8  642699.45  118156.25  18.38
1436.5  639299.38  116652.72  18.25
1440.2  635847.33  115561.79  18.17
1443.9  633577.27  114984.34  18.15
1447.6  629721.60  114384.91  18.16
1451.2  626455.90  114040.33  18.20
1454.9  624472.45  114090.35  18.27
1458.6  620632.30  114101.22  18.38
1462.3  619805.67  115001.14  18.55
1466.0  619849.75  116484.45  18.79
1469.7  618053.33  118071.80  19.10
1473.3  615825.47  119894.13  19.47
1477.0  611427.29  121579.52  19.88
1480.7  608100.42  123629.53  20.33
1484.4  604248.78  125611.74  20.79
1488.0  601040.07  127809.54  21.26
1491.7  597557.79  129889.51  21.74
1495.4  594158.32  131995.16  22.22
1499.0  591172.40  134108.93  22.69
1502.7  588324.38  136264.42  23.16
1506.4  585495.31  138292.50  23.62
1510.0  582697.92  140270.00  24.07
1513.7  579997.67  142152.65  24.51
1517.4  577439.10  143993.60  24.94
1521.0  574969.18  145794.88  25.36
1524.7  572447.19  147424.72  25.75
1528.3  570009.67  148987.94  26.14
1532.0  567497.40  150407.62  26.50
1535.7  564730.88  151646.46  26.85
1539.3  562144.87  152845.43  27.19
1543.0  560435.46  154224.00  27.52
1546.6  559015.83  155603.63  27.84
1550.3  557464.16  156818.10  28.13
1553.9  555077.33  157721.86  28.41
1557.6  552892.88  158598.50  28.69
1561.2  550363.45  159252.75  28.94
1564.9  547639.70  159826.39  29.18
1568.5  544890.67  160308.57  29.42
1572.2  542517.38  160834.33  29.65
1575.8  540646.25  161475.35  29.87
1579.5  538802.67  162042.52  30.07
1583.1  536435.90  162451.68  30.28
1586.8  534153.37  162818.42  30.48
1590.4  531833.68  163107.50  30.67
1594.0  529485.98  163340.69  30.85
1597.7  527604.40  163694.16  31.03
1601.3  525534.75  163982.38  31.20
1604.9  523078.97  164063.95  31.37
1608.6  520160.63  163928.19  31.51
1612.2  517159.79  163716.19  31.66
1615.8  514574.40  163558.12  31.79
1619.5  512253.30  163422.10  31.90
1623.1  509385.53  163093.78  32.02
1626.7  506574.22  162681.56  32.11
1630.3  504025.20  162283.72  32.20
1634.0  501620.82  161843.72  32.26
1637.6  499373.33  161331.91  32.31
1641.2  497099.52  160632.63  32.31
1644.8  494574.46  159702.10  32.29
1648.5  491922.15  158670.30  32.26
1652.1  489754.63  157758.15  32.21
1655.7  487911.38  157023.17  32.18
1659.3  486067.05  156445.43  32.19
1662.9  482820.25  155531.65  32.21
1666.6  479240.58  154526.67  32.24
1670.2  475890.25  153481.94  32.25
1673.8  472585.58  152293.47  32.23
1677.4  469985.10  151190.32  32.17
1681.0  468357.73  150172.76  32.06
1684.6  467449.58  149199.02  31.92
1688.2  465956.40  147799.60  31.72
1691.8  464251.33  146385.74  31.53
1695.4  463376.88  145235.82  31.34
1699.0  462486.35  144092.09  31.16
1702.6  461925.20  142974.21  30.95
1706.2  460379.07  141419.65  30.72
1709.8  458146.98  139704.13  30.49
1713.4  456547.00  138326.68  30.30
1717.0  454808.07  137149.21  30.16
1720.6  453096.80  136100.47  30.04
1724.2  451643.80  135185.11  29.93
1727.8  450273.19  134417.15  29.85
1731.4  449513.29  133881.36  29.78
1735.0  449462.57  133605.85  29.73
1738.6  448918.50  133054.50  29.64
1742.2  448091.40  132214.15  29.51
1745.8  446393.60  130986.36  29.34
1749.4  443980.53  129471.76  29.16
1753.0  440279.20  127542.80  28.97
1756.6  436471.00  125677.75  28.79
1760.1  433209.20  124028.00  28.63
1763.7  429369.43  122288.33  28.48
1767.3  426208.11  120838.94  28.35
1770.9  423570.33  119551.40  28.22
1774.5  420427.09  118186.04  28.11
1778.0  418319.15  117210.77  28.02
1781.6  416041.28  116369.25  27.97
1785.2  413392.53  115540.32  27.95
1788.8  410650.00  114793.27  27.95
1792.3  408412.68  114223.10  27.97
1795.9  407992.78  114178.68  27.99
1799.5  408801.88  114494.25  28.01
1803.1  411712.46  115412.77  28.03
1806.6  414608.87  116263.68  28.04
1810.2  416920.88  116958.30  28.05
1813.8  416887.27  116974.50  28.06
1817.3  416375.85  116844.08  28.06
1820.9  415696.88  116654.02  28.06
1824.5  414900.26  116404.45  28.06
1828.0  415707.93  116505.71  28.03
1831.6  417591.26  116838.11  27.98
1835.2  418098.29  116623.56  27.89
1838.7  418934.25  116261.75  27.75
1842.3  417352.25  115063.25  27.57
1845.8  415040.63  113373.57  27.32
1849.4  414450.63  111761.63  26.97
1852.9  412306.25  109284.52  26.51
1856.5  410344.68  106314.28  25.91
1860.0  409607.03  103012.99  25.15
1863.6  409632.64  99154.05  24.21
1867.1  411218.05  94880.60  23.07
1870.7  413421.91  89652.64  21.69
1874.2  411320.71  82479.25  20.05
1877.8  405195.63  74013.57  18.27
1881.3  399359.83  65307.40  16.35
1884.9  395849.64  57139.09  14.43
1888.4  392907.52  49386.75  12.57
1891.9  390824.30  42608.67  10.90
1895.5  389345.48  37041.02  9.51
1899.0  389186.95  32785.04  8.42
1901.3  408465.07  25078.22  6.14
1904.1  408857.42  22612.33  5.53
1906.8  406995.87  20645.65  5.07
1909.6  403070.93  18955.55  4.70
1912.4  399016.70  17703.40  4.44
1915.1  395030.97  16788.00  4.25
1917.9  391197.90  16051.80  4.10
1920.6  388240.87  15539.88  4.00
1923.3  385539.20  15188.60  3.94
1926.1  382017.60  14925.55  3.91
1928.8  378053.00  14736.80  3.90
1931.6  376836.17  14727.67  3.91
1934.3  373047.13  14698.16  3.94
1937.0  369138.00  14776.80  4.00
1939.8  365775.13  14898.19  4.07
1942.5  361172.42  15009.87  4.16
1945.2  357348.50  15204.61  4.25
1947.9  354287.70  15463.29  4.36
1950.7  349863.15  15708.36  4.49
1953.4  346209.77  16032.92  4.63
1956.1  343369.17  16390.30  4.77
1958.8  341103.00  16791.83  4.92
1961.5  338034.55  17215.22  5.09
1964.2  334540.67  17632.24  5.27
1966.9  331462.93  18075.20  5.45
1969.6  328694.43  18555.50  5.65
1972.3  326111.28  19072.17  5.85
1975.0  323578.00  19612.67  6.06
1977.7  321351.98  20169.97  6.28
1980.4  319088.00  20731.82  6.50
1983.1  316655.37  21291.53  6.72
1985.8  314527.20  21882.40  6.96
1988.4  312494.60  22473.18  7.19
1991.1  310691.50  23087.87  7.43
1993.8  309209.60  23717.17  7.67
1996.5  307646.50  24366.77  7.92
1999.1  306253.43  24989.50  8.16
2001.8  304995.82  25635.44  8.41
2004.5  303764.30  26264.62  8.65
2007.1  302231.27  26852.26  8.88
2009.8  300247.50  27399.17  9.13
2012.4  298921.58  27959.14  9.35
2015.1  297754.53  28531.74  9.58
2017.8  296578.18  29065.85  9.80
2020.4  295441.15  29604.78  10.02
2023.1  294968.12  30173.18  10.23
2025.7  294674.02  30739.45  10.43
2028.3  293869.97  31220.50  10.62
2031.0  293248.30  31659.29  10.80
2033.6  292948.50  32134.83  10.97
2036.2  292540.03  32575.98  11.14
2038.9  291595.20  32905.60  11.28
2041.5  290645.83  33208.33  11.43
2044.1  289812.50  33520.83  11.57
2046.8  288643.90  33764.63  11.70
2049.4  287772.20  34005.71  11.82
2052.0  287576.58  34314.74  11.93
2054.6  287180.80  34598.49  12.05
2057.2  286111.60  34837.75  12.18
2059.8  284592.00  35035.00  12.31
2062.4  283199.58  35223.93  12.44
2065.0  281838.45  35385.05  12.56
2067.6  279932.63  35504.27  12.68
2070.2  278439.27  35637.48  12.80
2072.8  277562.08  35876.80  12.93
2075.4  276479.00  36060.95  13.04
2078.0  275795.03  36295.18  13.16
2080.6  274540.30  36451.53  13.28
2083.2  273215.72  36586.50  13.39
2085.8  271913.60  36700.65  13.50
2088.4  270830.28  36843.71  13.60
2090.9  269158.50  36886.83  13.70
2093.5  267243.20  36893.60  13.81
2096.1  265422.30  36929.75  13.91
2098.7  263901.27  36987.14  14.02
2101.2  261978.80  36972.07  14.11
2103.8  260469.50  36993.72  14.20
2106.4  258978.97  37015.37  14.29
2108.9  257928.90  37094.56  14.38
2111.5  256971.17  37180.89  14.47
2114.0  256360.00  37273.89  14.54
2116.6  254170.03  37151.64  14.62
2119.1  253043.70  37157.63  14.68
2121.7  252499.68  37251.32  14.75
2124.2  252349.67  37385.94  14.82
2126.8  251129.95  37380.85  14.89
2129.3  250016.45  37393.65  14.96
2131.9  250195.20  37575.02  15.02
2134.4  249372.78  37629.12  15.09
2136.9  249099.73  37770.26  15.16
2139.4  248018.00  37772.08  15.23
2142.0  247608.95  37869.43  15.29
2144.5  247039.08  37962.58  15.37
2147.0  246590.52  38070.20  15.44
2149.5  246175.97  38179.70  15.51
2152.1  246524.20  38384.96  15.57
2154.6  246546.40  38527.47  15.63
2157.1  246471.60  38640.68  15.68
2159.6  245420.10  38586.16  15.72
2162.1  245206.40  38672.81  15.77
2164.6  244549.82  38677.08  15.82
2167.1  243565.13  38640.50  15.86
2169.6  243715.95  38757.66  15.90
2172.1  242871.80  38749.87  15.95
2174.6  242472.30  38805.82  16.00
2177.1  241387.25  38758.11  16.06
2179.5  240903.57  38805.65  16.11
2182.0  240577.42  38903.89  16.17
2184.5  239608.00  38887.20  16.23
2187.0  238800.20  38916.69  16.30
2189.5  237766.38  38932.36  16.37
2191.9  236498.53  38872.23  16.44
2194.4  234774.50  38725.08  16.49
2196.9  233682.17  38692.20  16.56
2199.3  232225.20  38575.70  16.61
2201.8  231054.02  38496.00  16.66
2204.3  230309.10  38529.50  16.73
2206.7  229057.00  38414.22  16.77
2209.2  227852.10  38302.80  16.81
2211.6  225922.93  38052.32  16.84
2214.1  225221.50  38062.35  16.90
2216.5  224857.75  38079.67  16.94
2219.0  223501.67  37892.68  16.95
2221.4  223526.25  37921.15  16.96
2223.9  222375.40  37720.80  16.96
2226.3  221088.53  37475.37  16.95
2228.7  220172.33  37237.20  16.91
2231.1  219510.67  37008.63  16.86
2233.6  218470.40  36674.67  16.79
2236.0  217433.95  36288.89  16.69
2238.4  216547.82  35904.86  16.58
2240.9  215829.80  35492.13  16.44
2243.3  214947.15  35050.41  16.31
2245.7  214158.33  34560.09  16.14
2248.1  213130.67  34047.29  15.97
2250.5  212344.00  33542.18  15.80
2252.9  211651.73  33075.25  15.63
2255.3  210922.80  32602.77  15.46
2257.7  210027.77  32073.07  15.27
2260.1  209080.80  31580.80  15.10
2262.5  208030.00  31060.13  14.93
2264.9  207108.40  30565.83  14.76
2267.3  206148.80  30115.80  14.61
2269.7  205250.17  29696.79  14.47
2272.1  204428.33  29294.67  14.33
2274.5  203683.20  28934.02  14.21
2276.8  202972.53  28601.60  14.09
2279.2  202199.30  28245.20  13.97
2281.6  201614.70  27908.78  13.84
2284.0  201276.90  27601.20  13.71
2286.3  200792.80  27259.29  13.58
2288.7  200206.05  26903.41  13.44
2291.1  199653.00  26565.50  13.31
2293.4  198936.00  26197.33  13.17
2295.8  198262.35  25809.12  13.02
2298.2  197471.70  25436.47  12.88
2300.5  196342.35  24992.27  12.73
2302.9  194947.45  24524.87  12.58
2305.2  193479.50  24066.50  12.44
2307.6  191986.67  23662.49  12.33
2309.9  190979.42  23372.17  12.24
2312.2  189976.33  23127.83  12.17
2314.6  188924.23  22894.02  12.12
2316.9  187877.10  22688.11  12.08
2319.2  187219.08  22501.29  12.02
2321.6  186546.18  22309.59  11.96
2323.9  185770.80  22044.00  11.87
2326.2  184958.90  21783.60  11.78
2328.6  184245.55  21562.45  11.70
2330.9  183909.20  21405.24  11.64
2333.2  183445.25  21220.67  11.57
2335.5  182940.33  21013.41  11.49
2337.8  182436.80  20823.67  11.41
2340.1  181848.13  20606.09  11.33
2342.4  181448.10  20412.00  11.25
2344.8  180728.33  20187.48  11.17
2347.1  179897.90  19943.07  11.09
2349.4  179233.33  19709.38  11.00
2351.6  178448.00  19506.67  10.93
2353.9  177362.60  19291.00  10.88
2356.2  176625.43  19113.13  10.82
2358.5  175753.63  18934.57  10.77
2360.8  175037.50  18749.30  10.71
2363.1  174675.33  18547.94  10.62
2365.4  174190.50  18387.00  10.56
2367.7  173623.80  18208.35  10.49
2369.9  172958.87  17992.27  10.40
2372.2  171743.30  17730.87  10.32
2374.5  170552.50  17453.33  10.23
2376.7  169598.50  17240.00  10.17
2379.0  168325.30  16959.98  10.08
2381.3  166897.68  16650.34  9.98
2383.5  165939.67  16388.55  9.88
2385.8  165293.33  16140.05  9.76
2388.0  164454.17  15893.46  9.66
2390.3  163654.68  15664.99  9.57
2392.5  163223.08  15435.59  9.46
2394.8  162306.75  15163.22  9.34
2397.0  161776.13  14905.29  9.21
2399.3  161203.45  14663.72  9.10
2401.5  160422.20  14412.03  8.98
2403.8  159806.47  14176.11  8.87
2406.0  159372.77  13981.86  8.77
2408.2  158517.45  13771.45  8.69
2410.4  157574.48  13506.88  8.57
2412.7  157168.80  13272.73  8.44
2414.9  156604.00  13032.58  8.32
2417.1  156577.07  12849.84  8.21
2419.3  156105.33  12624.01  8.09
2421.6  155254.40  12343.02  7.95
2423.8  154726.50  12156.41  7.86
2426.0  154255.90  11949.00  7.75
2428.2  153788.25  11723.25  7.62
2430.4  153797.43  11508.25  7.48
2432.6  153823.20  11321.10  7.36
2434.8  153289.00  11104.40  7.24
2437.0  152688.90  10855.43  7.11
2439.2  152252.10  10616.96  6.97
2441.4  151410.80  10445.73  6.90
2443.6  151325.47  10207.96  6.75
2445.7  151437.30  10091.49  6.66
2447.9  151454.55  9956.92  6.57
2450.1  150678.08  9743.36  6.47
2452.3  149705.42  9464.52  6.32
2454.5  149075.73  9198.00  6.17
2456.6  148321.92  9026.89  6.09
2458.8  147202.07  8807.55  5.98
2461.0  146776.07  8664.36  5.90
2463.1  146396.33  8572.11  5.86
2465.3  145769.33  8356.67  5.73
2467.5  145418.00  8226.11  5.66
2469.6  144963.75  8115.97  5.60
2471.8  144615.40  7958.16  5.50
2473.9  144141.83  7819.86  5.43
2476.1  143288.75  7609.86  5.31
2478.2  142519.05  7510.68  5.27
2480.4  141594.77  7289.92  5.15
2482.5  140644.93  7210.48  5.13
2484.6  139810.00  7079.33  5.06
2486.8  139080.83  7030.16  5.05
2488.9  138593.20  6904.40  4.98
2491.1  137136.20  6712.36  4.89
2493.2  135846.63  6567.21  4.83
2495.3  134479.02  6424.43  4.78
2497.4  133112.85  6301.20  4.73
2499.5  132152.30  6263.42  4.74
2501.7  132220.50  6184.17  4.68
2503.8  132650.93  6206.43  4.68
2505.9  133394.65  6229.53  4.67
2508.0  134240.33  6233.05  4.64
2510.1  135069.60  6200.80  4.59
2512.2  135923.00  6131.08  4.51
2514.3  137080.88  6245.63  4.56
2516.4  139083.30  6457.71  4.64
