/*** Spectra Vista SIG Data ***/
name= 59_20220722_ACRU_27_avg.sig
comm= Averaged Ref/Tar of files: HR.072222.0051_moc.sig,HR.072222.0052_moc.sig,HR.072222.0053_moc.sig
data=
337.3  3076.75  308.15  10.02
338.8  3174.60  292.26  9.21
340.3  3326.35  297.16  8.93
341.8  3520.83  300.48  8.53
343.2  3685.20  293.46  7.96
344.7  3838.50  291.64  7.60
346.2  4003.30  280.89  7.02
347.7  4168.45  271.90  6.52
349.2  4347.00  264.96  6.10
350.6  4590.63  284.01  6.19
352.1  4822.88  289.20  6.00
353.6  5066.20  293.46  5.79
355.1  5320.65  296.98  5.58
356.6  5571.75  297.78  5.34
358.0  5837.70  291.05  4.99
359.5  6118.20  301.35  4.93
361.0  6403.95  312.36  4.88
362.5  6733.25  320.07  4.75
364.0  7054.05  338.09  4.79
365.4  7390.30  337.74  4.57
366.9  7735.00  349.39  4.52
368.4  8046.13  355.87  4.42
369.9  8377.75  366.00  4.37
371.3  8784.30  387.02  4.41
372.8  9159.75  404.07  4.41
374.3  9567.50  410.04  4.29
375.8  9944.55  410.15  4.12
377.2  10329.60  420.15  4.07
378.7  10706.20  429.89  4.02
380.2  11082.80  443.21  4.00
381.7  11566.70  446.30  3.86
383.1  12046.65  454.81  3.78
384.6  12543.38  471.16  3.76
386.1  12999.03  475.64  3.66
387.6  13448.05  485.10  3.61
389.0  13909.20  499.25  3.59
390.5  14363.55  511.28  3.56
392.0  14944.25  522.45  3.50
393.4  15502.25  541.52  3.49
394.9  16025.40  549.84  3.43
396.4  16534.13  555.45  3.36
397.9  17040.63  574.49  3.37
399.3  17550.23  584.65  3.33
400.8  18095.55  600.10  3.32
402.2  18682.55  606.50  3.25
403.7  19260.00  627.33  3.26
405.2  19815.98  642.61  3.24
406.6  20346.40  655.79  3.22
408.1  20905.00  671.54  3.21
409.6  21489.05  681.91  3.17
411.0  22097.25  699.87  3.17
412.5  22720.08  719.16  3.17
414.0  23329.38  736.60  3.16
415.4  23969.25  759.04  3.17
416.9  24614.18  776.14  3.15
418.4  25267.28  793.95  3.14
419.8  25916.80  812.24  3.13
421.3  26594.90  838.96  3.15
422.7  27318.00  861.38  3.15
424.2  28046.25  887.14  3.16
425.7  28769.50  910.63  3.17
427.1  29481.98  937.44  3.18
428.6  30194.00  960.70  3.18
430.0  30896.30  989.99  3.20
431.5  31700.70  1021.44  3.22
432.9  32523.00  1049.50  3.23
434.4  33348.60  1072.06  3.21
435.9  34132.00  1099.47  3.22
437.3  34897.50  1130.64  3.24
438.8  35675.10  1161.50  3.26
440.2  36490.30  1192.47  3.27
441.7  37386.00  1229.99  3.29
443.1  38239.50  1255.60  3.28
444.6  39142.80  1288.54  3.29
446.0  40001.93  1319.50  3.30
447.5  40881.78  1357.49  3.32
448.9  41757.30  1394.43  3.34
450.4  42696.15  1430.91  3.35
451.8  43498.00  1460.46  3.36
453.3  44363.48  1491.30  3.36
454.7  45308.83  1530.06  3.38
456.2  46115.58  1557.28  3.38
457.6  47006.78  1595.53  3.39
459.1  47930.03  1627.93  3.40
460.5  48805.38  1658.75  3.40
462.0  49785.53  1694.36  3.40
463.4  50731.10  1731.16  3.41
464.8  51656.63  1766.49  3.42
466.3  52593.75  1800.81  3.42
467.7  53527.23  1833.24  3.42
469.2  54526.55  1864.87  3.42
470.6  55427.25  1899.56  3.43
472.0  56398.53  1933.50  3.43
473.5  57333.38  1971.58  3.44
474.9  58282.50  2006.94  3.44
476.4  59371.20  2049.46  3.45
477.8  60363.50  2085.24  3.45
479.2  61335.00  2120.59  3.46
480.7  62372.78  2159.39  3.46
482.1  63421.05  2199.98  3.47
483.6  64533.70  2246.22  3.48
485.0  65557.28  2287.33  3.49
486.4  66668.10  2337.98  3.51
487.9  67669.88  2383.74  3.52
489.3  68765.75  2440.70  3.55
490.7  69796.50  2492.59  3.57
492.2  70942.20  2556.68  3.60
493.6  71990.10  2620.82  3.64
495.0  73022.63  2684.31  3.68
496.5  74123.43  2761.14  3.73
497.9  75165.35  2841.36  3.78
499.3  76251.30  2932.48  3.85
500.7  77410.60  3039.39  3.93
502.2  78489.60  3155.82  4.02
503.6  79643.00  3290.42  4.13
505.0  80662.90  3438.42  4.26
506.5  81868.28  3617.76  4.42
507.9  83005.18  3818.64  4.60
509.3  84300.80  4056.89  4.81
510.7  85483.13  4324.82  5.06
512.2  86792.10  4640.27  5.35
513.6  88166.40  5006.92  5.68
515.0  89489.48  5412.54  6.05
516.4  90762.53  5868.99  6.47
517.8  92264.50  6388.00  6.92
519.3  93458.00  6931.87  7.42
520.7  94907.75  7534.81  7.94
522.1  96120.05  8151.02  8.48
523.5  97397.30  8800.95  9.04
524.9  98738.10  9453.05  9.57
526.3  100019.50  10095.29  10.09
527.8  101395.80  10732.45  10.58
529.2  102467.30  11337.34  11.06
530.6  103967.75  11963.50  11.51
532.0  105588.00  12555.20  11.89
533.4  106753.80  13049.58  12.22
534.8  107506.03  13456.50  12.52
536.3  109069.50  13921.43  12.76
537.7  111018.60  14399.52  12.97
539.1  112391.68  14782.49  13.15
540.5  113450.75  15110.47  13.32
541.9  115077.08  15497.47  13.47
543.3  116224.58  15824.02  13.62
544.7  117397.20  16149.35  13.76
546.1  119018.90  16526.57  13.89
547.5  120220.80  16831.79  14.00
549.0  121825.00  17177.39  14.10
550.4  123207.50  17462.44  14.17
551.8  124616.00  17719.49  14.22
553.2  126035.20  17930.01  14.23
554.6  127275.20  18062.92  14.19
556.0  128702.25  18162.97  14.11
557.4  130187.93  18218.41  13.99
558.8  131672.70  18226.05  13.84
560.2  132986.75  18157.83  13.65
561.6  134513.78  18069.60  13.43
563.0  135975.98  17921.83  13.18
564.4  137455.95  17734.05  12.90
565.8  138858.13  17495.02  12.60
567.2  140470.25  17239.52  12.27
568.6  141842.63  16925.02  11.93
570.0  143157.90  16573.50  11.58
571.4  144743.95  16234.66  11.22
572.8  146360.50  15906.00  10.87
574.2  147862.40  15577.60  10.54
575.6  149276.25  15266.14  10.23
577.0  150685.50  14989.40  9.95
578.4  152277.13  14758.03  9.69
579.8  153650.25  14534.34  9.46
581.2  155243.90  14358.07  9.25
582.5  156534.30  14178.39  9.06
583.9  157943.00  14028.29  8.88
585.3  159616.13  13924.99  8.72
586.7  160978.68  13815.01  8.58
588.1  162341.63  13730.35  8.46
589.5  163856.00  13677.07  8.35
590.9  165354.00  13645.67  8.25
592.3  167027.95  13645.79  8.17
593.7  168362.03  13635.16  8.10
595.0  169879.95  13652.40  8.04
596.4  171199.00  13664.10  7.98
597.8  172563.85  13669.23  7.92
599.2  173989.20  13672.43  7.86
600.6  175596.85  13670.18  7.78
602.0  176793.83  13610.14  7.70
603.3  178467.05  13556.97  7.60
604.7  180004.03  13468.18  7.48
606.1  181387.20  13336.32  7.35
607.5  182890.95  13197.19  7.22
608.9  184448.40  13032.51  7.07
610.2  185735.03  12840.39  6.91
611.6  187199.10  12657.84  6.76
613.0  188630.30  12478.47  6.62
614.4  189921.15  12288.79  6.47
615.8  191280.38  12117.58  6.33
617.1  192687.60  11975.32  6.21
618.5  194190.80  11861.71  6.11
619.9  195592.13  11766.87  6.02
621.3  197090.55  11706.53  5.94
622.6  198555.00  11670.75  5.88
624.0  199892.10  11650.48  5.83
625.4  201267.00  11651.45  5.79
626.8  202725.25  11681.06  5.76
628.1  203948.25  11710.74  5.74
629.5  205670.15  11782.48  5.73
630.9  207154.48  11842.83  5.72
632.2  208436.03  11869.57  5.69
633.6  209935.38  11891.60  5.66
635.0  211353.60  11870.29  5.62
636.3  212772.70  11808.49  5.55
637.7  214042.63  11691.55  5.46
639.1  215582.50  11548.33  5.36
640.4  216925.28  11365.53  5.24
641.8  218035.40  11146.57  5.11
643.2  219508.45  10927.61  4.98
644.5  220770.25  10704.23  4.85
645.9  222377.85  10503.85  4.72
647.2  224112.18  10329.20  4.61
648.6  225848.25  10190.57  4.51
650.0  227167.20  10061.07  4.43
651.3  227565.25  9924.31  4.36
652.7  228679.05  9830.28  4.30
654.0  230717.50  9774.16  4.24
655.4  232100.03  9674.39  4.17
656.8  232107.50  9521.03  4.10
658.1  233151.70  9397.37  4.03
659.5  235502.40  9314.66  3.96
660.8  237330.00  9224.57  3.89
662.2  238179.20  9086.72  3.82
663.5  239663.00  8993.32  3.75
664.9  240890.00  8922.93  3.70
666.2  241536.00  8852.51  3.67
667.6  243119.25  8841.13  3.64
668.9  244261.10  8854.68  3.63
670.3  245297.13  8868.60  3.62
671.6  246760.13  8928.81  3.62
673.0  247844.25  9009.30  3.64
674.3  248978.60  9104.36  3.66
675.7  250220.13  9225.25  3.69
677.0  251239.18  9357.90  3.72
678.4  252516.63  9518.58  3.77
679.7  253551.80  9702.33  3.83
681.1  254767.58  9914.41  3.89
682.4  255873.80  10172.74  3.98
683.8  257067.20  10465.72  4.07
685.1  257977.50  10815.12  4.19
686.4  259162.80  11277.60  4.35
687.8  260347.25  11873.45  4.56
689.1  261393.00  12670.21  4.85
690.5  262701.90  13760.36  5.24
691.8  263429.48  15205.09  5.77
693.1  264665.25  17150.58  6.48
694.5  265765.50  19604.43  7.38
695.8  266903.00  22610.90  8.47
697.1  268040.50  26163.80  9.76
698.5  269040.40  30236.40  11.24
699.8  270081.93  34771.36  12.87
701.1  271147.65  39670.88  14.63
702.5  271907.90  44768.84  16.46
703.8  272812.50  50043.43  18.34
705.1  273876.53  55401.71  20.23
706.5  274899.25  60727.45  22.09
707.8  275821.35  65990.40  23.93
709.1  276673.73  71117.67  25.70
710.5  277745.33  76194.16  27.43
711.8  278549.30  81076.00  29.11
713.1  279508.20  85870.72  30.72
714.4  280355.60  90488.73  32.28
715.8  281136.10  94952.55  33.77
717.1  282392.25  99417.91  35.21
718.4  283292.80  103616.00  36.58
719.7  284353.70  107718.18  37.88
721.0  284850.00  111460.71  39.13
722.4  285595.75  115120.97  40.31
723.7  286499.85  118678.67  41.42
725.0  287516.70  122108.13  42.47
726.3  288416.70  125324.03  43.45
727.6  288964.50  128234.33  44.38
729.0  289817.85  131121.83  45.24
730.3  290552.48  133781.39  46.04
731.6  291412.20  136334.54  46.78
732.9  292171.08  138696.83  47.47
734.2  292958.88  140922.31  48.10
735.5  293944.88  143105.49  48.68
736.8  294685.80  145046.26  49.22
738.1  295475.70  146883.48  49.71
739.5  296385.50  148661.51  50.16
740.8  297077.55  150202.84  50.56
742.1  297795.50  151683.40  50.94
743.4  298500.00  153065.71  51.28
744.7  299481.80  154477.64  51.58
746.0  300321.45  155744.61  51.86
747.3  300837.65  156775.52  52.11
748.6  301558.25  157813.17  52.33
749.9  302276.00  158772.34  52.53
751.2  303000.05  159679.87  52.70
752.5  303889.15  160605.83  52.85
753.8  304477.78  161338.19  52.99
755.1  305162.00  162058.74  53.11
756.4  305725.75  162676.23  53.21
757.7  306642.00  163447.54  53.30
759.0  308353.55  164596.59  53.38
760.3  309487.20  165394.74  53.44
761.6  310954.00  166358.43  53.50
762.9  311503.75  166796.70  53.55
764.2  311905.50  167114.58  53.58
765.5  312192.80  167399.54  53.62
766.8  312664.00  167713.13  53.64
768.1  313182.00  168058.55  53.66
769.3  313772.20  168415.89  53.67
770.6  314409.55  168804.69  53.69
771.9  315109.20  169227.64  53.70
773.2  315524.00  169471.73  53.71
774.5  316144.40  169830.61  53.72
775.8  316830.70  170212.25  53.72
777.1  317414.35  170528.06  53.72
778.4  317760.58  170728.89  53.73
779.6  318503.38  171145.79  53.73
780.9  318960.00  171402.86  53.74
782.2  319440.00  171665.58  53.74
783.5  319792.50  171852.10  53.74
784.8  320333.40  172142.65  53.74
786.0  320720.40  172365.11  53.74
787.3  321170.90  172578.92  53.73
788.6  321591.63  172813.39  53.74
789.9  322064.40  173060.59  53.73
791.2  322687.95  173402.00  53.74
792.4  323352.85  173765.06  53.74
793.7  323846.40  174031.81  53.74
795.0  324483.23  174360.47  53.73
796.2  325137.50  174707.22  53.73
797.5  325859.40  175079.48  53.73
798.8  326535.75  175422.51  53.72
800.0  327175.43  175779.90  53.73
801.3  327679.70  176033.23  53.72
802.6  328277.93  176336.19  53.72
803.8  328887.23  176671.18  53.72
805.1  329406.88  176935.68  53.71
806.4  329869.80  177182.42  53.71
807.7  330423.30  177464.29  53.71
808.9  330997.10  177759.64  53.70
810.2  331547.65  178020.20  53.69
811.4  332068.10  178280.02  53.69
812.7  332637.50  178609.17  53.69
814.0  333479.60  179047.18  53.69
815.2  334083.50  179385.04  53.69
816.5  334437.53  179601.11  53.70
817.7  334915.60  179841.86  53.70
819.0  335434.00  180101.49  53.69
820.2  335676.00  180198.02  53.68
821.5  336348.45  180571.40  53.69
822.7  336710.18  180760.22  53.68
824.0  337043.70  180940.42  53.68
825.2  337482.45  181203.36  53.69
826.5  337779.88  181368.51  53.69
827.7  338288.10  181645.19  53.70
829.0  338736.20  181848.20  53.68
830.2  339078.65  182017.44  53.68
831.5  339515.50  182271.85  53.69
832.7  339822.53  182416.26  53.68
834.0  340091.88  182593.19  53.69
835.2  340467.05  182792.00  53.69
836.4  340746.45  182942.74  53.69
837.7  341080.60  183146.45  53.70
838.9  341575.15  183393.46  53.69
840.1  341976.60  183604.06  53.69
841.4  342424.20  183844.44  53.69
842.6  342696.20  184036.30  53.70
843.8  343044.40  184231.70  53.70
845.1  343517.80  184493.71  53.71
846.3  343892.20  184694.74  53.71
847.5  344328.60  184894.72  53.70
848.8  344658.60  185116.31  53.71
850.0  345013.55  185310.35  53.71
851.2  345548.70  185611.19  53.71
852.5  345934.00  185812.30  53.71
853.7  346347.00  186033.34  53.71
854.9  346826.70  186266.02  53.71
856.1  347269.65  186479.34  53.70
857.4  347467.48  186601.43  53.70
858.6  347849.55  186845.69  53.71
859.8  348193.13  187052.18  53.72
861.0  348683.40  187265.52  53.71
862.2  349191.48  187482.31  53.69
863.5  349572.28  187671.20  53.69
864.7  350004.60  187916.46  53.69
865.9  350411.60  188117.91  53.68
867.1  350655.35  188266.14  53.69
868.3  351121.35  188473.73  53.68
869.5  351621.20  188722.97  53.67
870.8  352129.50  188978.31  53.67
872.0  352602.00  189222.38  53.66
873.2  353081.70  189414.76  53.65
874.4  353413.13  189628.75  53.66
875.6  353881.90  189782.45  53.63
876.8  354295.45  190040.59  53.64
878.0  354769.25  190280.27  53.63
879.2  355229.70  190527.93  53.64
880.4  355740.75  190771.72  53.63
881.6  356229.90  190973.57  53.61
882.8  356609.60  191139.09  53.60
884.0  357295.03  191418.15  53.57
885.2  357816.00  191683.80  53.57
886.5  358420.90  191978.62  53.56
887.7  358929.68  192183.66  53.54
888.8  359532.23  192491.15  53.54
890.0  360000.30  192769.70  53.55
891.2  360557.60  193023.78  53.53
892.4  361190.03  193308.00  53.52
893.6  361794.25  193562.56  53.50
894.8  362750.25  194014.20  53.48
896.0  363552.75  194409.01  53.47
897.2  364312.00  194804.44  53.47
898.4  365108.70  195145.53  53.45
899.6  365640.00  195419.54  53.45
900.8  366035.60  195612.57  53.44
902.0  366303.75  195714.43  53.43
903.2  366597.45  195861.79  53.43
904.3  367073.40  196019.94  53.40
905.5  367516.20  196287.55  53.41
906.7  368194.00  196575.51  53.39
907.9  368825.45  196799.03  53.36
909.1  369125.78  196989.42  53.37
910.2  369367.58  197059.20  53.35
911.4  369608.85  197147.56  53.34
912.6  369998.20  197225.87  53.30
913.8  370167.90  197319.61  53.31
915.0  370726.65  197511.44  53.28
916.2  370870.50  197618.94  53.29
917.3  370907.33  197584.76  53.27
918.5  371175.30  197662.79  53.25
919.7  371497.20  197758.49  53.23
920.8  371671.85  197784.10  53.21
922.0  371775.25  197766.80  53.20
923.2  371962.50  197880.80  53.20
924.4  372228.75  197947.41  53.18
925.5  372636.80  198039.46  53.15
926.7  373307.25  198299.90  53.12
927.9  374080.20  198688.66  53.11
929.0  375526.80  199372.83  53.09
930.2  377501.50  200384.93  53.08
931.4  379844.78  201509.85  53.05
932.5  382451.65  202769.52  53.02
933.7  383973.25  203377.60  52.97
934.9  384776.88  203657.25  52.93
936.0  384380.75  203374.32  52.91
937.2  382520.40  202334.32  52.90
938.3  380934.85  201407.79  52.87
939.5  379684.80  200590.63  52.83
940.7  379727.10  200654.78  52.84
941.8  381373.95  201257.58  52.77
943.0  382878.00  201838.91  52.72
944.2  383565.00  202143.10  52.70
945.3  383282.25  201858.99  52.67
946.5  382618.35  201364.53  52.63
947.6  382925.60  201328.35  52.58
948.8  382811.33  201105.99  52.53
949.9  383153.40  201066.00  52.48
951.1  382802.23  200696.88  52.43
952.2  382704.00  200397.94  52.36
953.4  382583.50  200081.12  52.30
954.5  382660.20  199881.46  52.23
955.7  382347.00  199622.16  52.21
956.8  382414.50  199330.77  52.12
958.0  382087.50  198966.07  52.07
959.1  381926.70  198655.20  52.01
960.3  381758.50  198426.81  51.98
961.4  381847.40  198295.27  51.93
962.6  381921.75  198270.97  51.91
963.7  381725.70  198035.69  51.88
964.9  381809.03  197965.49  51.85
966.0  381647.70  197809.21  51.83
967.2  381696.75  197815.65  51.83
968.3  381789.45  197749.54  51.80
969.5  381340.30  197550.36  51.80
970.6  381405.73  197619.89  51.81
971.8  381766.88  197643.31  51.77
972.9  381538.95  197659.24  51.81
974.0  381954.80  197793.37  51.78
975.2  381718.88  197586.10  51.76
976.3  381829.13  197673.61  51.77
977.5  381956.75  197623.45  51.74
978.6  382095.50  197672.26  51.73
979.7  381827.78  197824.77  51.81
980.9  381482.55  197891.66  51.87
982.0  381080.30  197903.95  51.93
983.2  381150.05  197781.50  51.89
984.3  381203.80  197746.40  51.87
985.4  381859.50  197938.77  51.84
986.6  381985.75  197888.62  51.81
987.7  382856.08  198500.02  51.85
988.9  381927.60  198389.62  51.94
990.0  382770.20  198710.61  51.91
993.1  331764.07  170187.60  51.30
996.9  332205.40  170935.64  51.45
1000.7  333137.18  171797.93  51.57
1004.5  333637.83  172412.72  51.68
1008.4  333416.63  172650.12  51.78
1012.2  333489.71  172999.18  51.88
1016.0  333537.00  173366.66  51.98
1019.8  333627.53  173769.75  52.08
1023.7  333583.13  174000.48  52.16
1027.5  333320.28  174095.68  52.23
1031.3  333570.35  174366.10  52.27
1035.1  333453.11  174441.53  52.31
1038.9  333450.15  174509.66  52.33
1042.7  333340.58  174512.81  52.35
1046.5  333246.67  174476.59  52.36
1050.3  333326.66  174515.66  52.36
1054.2  333065.25  174414.17  52.37
1058.0  332636.79  174170.30  52.36
1061.8  332517.61  174114.48  52.36
1065.6  332318.83  173948.77  52.34
1069.4  332309.07  173904.92  52.33
1073.2  331936.07  173687.67  52.33
1077.0  331536.05  173411.53  52.31
1080.8  331053.13  173063.54  52.28
1084.6  330177.52  172433.57  52.22
1088.4  329585.52  172013.73  52.19
1092.2  328857.75  171467.68  52.14
1096.0  328353.79  171034.54  52.09
1099.8  327969.42  170632.49  52.03
1103.6  327374.75  170133.21  51.97
1107.4  326549.03  169484.45  51.90
1111.2  326333.70  169159.94  51.84
1114.9  325792.25  168616.42  51.76
1118.7  325284.30  168024.92  51.65
1122.5  324683.67  167325.60  51.53
1126.3  323685.48  166363.24  51.40
1130.1  323297.92  165554.93  51.21
1133.9  321859.30  164039.50  50.97
1137.7  320581.80  162435.01  50.67
1141.4  318978.94  160479.31  50.31
1145.2  318366.13  158855.52  49.90
1149.0  317358.13  157129.59  49.51
1152.8  315884.85  155313.82  49.17
1156.6  314423.08  153750.85  48.90
1160.3  312878.00  152427.48  48.72
1164.1  310719.80  151025.60  48.61
1167.9  309134.38  150051.04  48.54
1171.7  307975.50  149384.25  48.51
1175.4  306882.93  148818.40  48.49
1179.2  305977.35  148303.68  48.47
1183.0  305726.00  148089.09  48.44
1186.7  305282.60  147763.00  48.40
1190.5  304328.00  147204.88  48.37
1194.3  303302.93  146610.46  48.34
1198.0  302225.83  146063.70  48.33
1201.8  300888.95  145408.53  48.33
1205.6  299780.33  144921.00  48.34
1209.3  298942.30  144627.49  48.38
1213.1  298139.63  144312.15  48.40
1216.8  297262.99  144023.82  48.45
1220.6  296296.00  143698.13  48.50
1224.3  295184.83  143306.06  48.55
1228.1  294084.60  142958.60  48.61
1231.9  292965.98  142554.33  48.66
1235.6  291674.55  142045.38  48.70
1239.4  290475.50  141603.21  48.75
1243.1  289374.48  141132.39  48.77
1246.9  288301.53  140642.37  48.78
1250.6  287435.47  140248.92  48.79
1254.3  286463.47  139791.97  48.80
1258.1  285566.17  139345.32  48.80
1261.8  284427.20  138765.18  48.79
1265.6  283146.97  138075.45  48.76
1269.3  281868.95  137341.54  48.73
1273.1  281810.20  137168.22  48.67
1276.8  282047.20  137129.77  48.62
1280.6  281883.10  136916.52  48.57
1284.3  280636.80  136143.43  48.51
1288.0  279324.18  135281.48  48.43
1291.8  278171.03  134402.11  48.32
1295.5  276977.07  133461.85  48.19
1299.2  275866.41  132527.78  48.04
1302.9  274550.58  131440.01  47.87
1306.7  273155.40  130253.55  47.68
1310.4  271803.00  128983.16  47.45
1314.1  270582.77  127728.70  47.21
1317.9  269491.67  126422.53  46.91
1321.6  268239.26  124962.31  46.59
1325.3  266787.68  123289.88  46.21
1329.0  265578.48  121690.27  45.82
1332.8  263709.60  119666.80  45.38
1336.5  262143.93  117751.80  44.92
1340.2  261822.17  116404.17  44.46
1343.9  261446.46  115031.49  44.00
1347.6  260950.50  113595.02  43.53
1351.4  261268.00  112563.21  43.08
1355.1  261789.73  111623.50  42.64
1358.8  262096.00  110534.86  42.17
1362.5  261776.20  109061.10  41.66
1366.2  260192.65  106862.24  41.07
1369.9  258381.50  104323.70  40.38
1373.6  256553.44  101387.88  39.52
1377.3  254924.70  97996.24  38.44
1381.0  253929.83  94096.93  37.06
1384.8  252102.50  89066.25  35.33
1388.4  249883.43  83398.75  33.38
1392.2  248214.08  77482.61  31.22
1395.9  246768.98  71473.79  28.96
1399.6  245278.48  65668.28  26.77
1403.3  244159.62  60484.99  24.77
1407.0  243083.10  56004.14  23.04
1410.7  241959.30  52311.96  21.62
1414.3  240787.46  49439.62  20.53
1418.1  239727.46  47327.71  19.74
1421.7  238869.75  45847.48  19.19
1425.4  237984.50  44832.12  18.84
1429.1  237174.75  44200.93  18.64
1432.8  235839.95  43744.26  18.55
1436.5  235108.33  43580.70  18.54
1440.2  234371.73  43548.86  18.58
1443.9  233227.04  43533.80  18.67
1447.6  231800.80  43533.60  18.78
1451.2  230806.40  43630.53  18.90
1454.9  229658.85  43740.22  19.05
1458.6  228668.93  43970.65  19.23
1462.3  227664.80  44318.27  19.47
1466.0  226457.58  44786.76  19.78
1469.7  224984.83  45381.58  20.17
1473.3  224057.50  46224.91  20.63
1477.0  222341.70  47017.07  21.15
1480.7  220948.10  47925.16  21.69
1484.4  219252.81  48765.43  22.24
1488.0  217873.33  49692.76  22.81
1491.7  216423.60  50572.63  23.37
1495.4  214881.00  51420.03  23.93
1499.0  213454.50  52243.50  24.48
1502.7  212299.83  53119.24  25.02
1506.4  211053.14  53915.54  25.55
1510.0  209796.43  54679.53  26.06
1513.7  208486.83  55386.33  26.57
1517.4  207288.67  56080.19  27.05
1521.0  206224.67  56773.18  27.53
1524.7  205151.92  57389.58  27.97
1528.3  203993.25  57960.93  28.41
1532.0  202884.73  58497.45  28.83
1535.7  201664.52  58938.57  29.23
1539.3  200538.63  59376.01  29.61
1543.0  199674.78  59857.61  29.98
1546.6  199053.83  60377.26  30.33
1550.3  198161.20  60774.28  30.67
1553.9  197210.43  61115.17  30.99
1557.6  196069.87  61366.38  31.30
1561.2  194951.25  61553.38  31.57
1564.9  193808.79  61721.06  31.85
1568.5  192645.13  61840.33  32.10
1572.2  191642.00  61988.60  32.35
1575.8  190666.00  62134.00  32.59
1579.5  189772.70  62277.51  32.82
1583.1  188861.26  62404.70  33.04
1586.8  187754.00  62434.00  33.25
1590.4  186811.73  62500.46  33.46
1594.0  185641.19  62471.72  33.65
1597.7  184648.17  62483.36  33.84
1601.3  183509.55  62426.70  34.02
1604.9  182374.35  62345.56  34.19
1608.6  181210.02  62225.83  34.34
1612.2  180305.40  62166.82  34.48
1615.8  179271.30  62051.00  34.61
1619.5  178258.58  61913.26  34.73
1623.1  177111.30  61696.75  34.84
1626.7  176001.15  61472.03  34.93
1630.3  174918.58  61233.34  35.01
1634.0  173824.00  60956.00  35.07
1637.6  172794.93  60653.46  35.10
1641.2  171761.25  60272.49  35.09
1644.8  170569.75  59762.90  35.04
1648.5  169565.03  59289.68  34.97
1652.1  168650.10  58831.24  34.88
1655.7  167815.60  58426.92  34.82
1659.3  167054.18  58126.03  34.79
1662.9  165806.67  57733.22  34.82
1666.6  164580.00  57371.90  34.86
1670.2  163371.89  57000.52  34.89
1673.8  162135.43  56574.31  34.89
1677.4  161153.50  56189.96  34.87
1681.0  160469.08  55843.57  34.80
1684.6  160113.42  55546.68  34.69
1688.2  159484.65  55059.67  34.52
1691.8  158895.77  54621.18  34.38
1695.4  158514.60  54225.74  34.21
1699.0  158217.73  53867.07  34.05
1702.6  157953.33  53489.95  33.86
1706.2  157468.68  52993.85  33.65
1709.8  156677.64  52390.24  33.44
1713.4  156060.83  51863.76  33.23
1717.0  155302.75  51342.64  33.06
1720.6  154590.83  50863.99  32.90
1724.2  153951.38  50423.05  32.75
1727.8  153299.30  49998.25  32.61
1731.4  152868.38  49659.70  32.49
1735.0  152668.82  49428.08  32.38
1738.6  152445.15  49157.48  32.25
1742.2  151935.14  48749.34  32.09
1745.8  151363.90  48278.48  31.90
1749.4  150527.03  47687.83  31.68
1753.0  149197.67  46926.20  31.45
1756.6  147704.38  46136.50  31.24
1760.1  146522.73  45454.93  31.02
1763.7  144976.67  44683.52  30.82
1767.3  143707.25  44027.01  30.64
1770.9  142607.56  43434.30  30.46
1774.5  141336.30  42809.30  30.29
1778.0  140310.23  42291.43  30.14
1781.6  139334.55  41833.48  30.02
1785.2  138290.10  41391.73  29.93
1788.8  137259.00  40987.87  29.86
1792.3  136186.00  40590.31  29.81
1795.9  135753.48  40408.91  29.77
1799.5  135313.00  40243.19  29.74
1803.1  134777.77  40028.57  29.70
1806.6  135254.82  40087.72  29.64
1810.2  136326.87  40329.13  29.58
1813.8  137207.30  40537.73  29.54
1817.3  137256.20  40517.77  29.52
1820.9  136583.85  40285.03  29.49
1824.5  135535.45  39929.18  29.46
1828.0  134804.08  39631.95  29.40
1831.6  134179.10  39342.98  29.32
1835.2  133634.17  39021.07  29.20
1838.7  133314.27  38689.81  29.02
1842.3  133005.00  38292.86  28.79
1845.8  132272.92  37665.56  28.48
1849.4  131800.58  36989.67  28.06
1852.9  131177.55  36115.27  27.53
1856.5  130351.60  34998.49  26.85
1860.0  129623.76  33684.82  25.99
1863.6  129438.88  32272.95  24.93
1867.1  129362.45  30642.15  23.69
1870.7  129437.98  28654.72  22.14
1874.2  128744.10  26135.74  20.30
1877.8  127493.87  23360.33  18.32
1881.3  126016.75  20492.82  16.26
1884.9  125063.22  17799.86  14.23
1888.4  124106.23  15240.96  12.28
1891.9  123122.80  13027.19  10.58
1895.5  122127.07  11225.01  9.19
1899.0  121589.00  9910.91  8.15
1901.3  152011.67  8399.67  5.53
1904.1  151962.00  7611.00  5.01
1906.8  151208.40  6984.20  4.62
1909.6  149597.00  6527.27  4.36
1912.4  148072.75  6179.91  4.17
1915.1  146906.65  5942.20  4.04
1917.9  145619.33  5763.00  3.96
1920.6  144558.07  5660.30  3.92
1923.3  143533.60  5610.58  3.91
1926.1  142201.50  5572.87  3.92
1928.8  140961.33  5568.44  3.95
1931.6  139976.65  5604.96  4.00
1934.3  139025.53  5665.06  4.07
1937.0  138138.80  5741.51  4.16
1939.8  137169.83  5834.14  4.25
1942.5  135971.00  5921.67  4.36
1945.2  134407.90  6012.23  4.47
1947.9  133142.33  6133.71  4.61
1950.7  132133.23  6273.46  4.75
1953.4  130596.25  6398.50  4.90
1956.1  129375.58  6544.58  5.06
1958.8  128299.82  6704.89  5.23
1961.5  127015.20  6869.33  5.41
1964.2  125689.20  7040.37  5.60
1966.9  124310.80  7212.85  5.80
1969.6  123201.00  7407.00  6.01
1972.3  121974.50  7594.67  6.23
1975.0  121041.45  7811.60  6.45
1977.7  120056.55  8029.04  6.69
1980.4  119033.80  8252.36  6.93
1983.1  118067.25  8478.41  7.18
1985.8  117241.20  8714.50  7.43
1988.4  116341.33  8949.78  7.69
1991.1  115505.37  9197.38  7.96
1993.8  114739.53  9446.74  8.23
1996.5  114162.22  9702.37  8.50
1999.1  113559.05  9952.25  8.76
2001.8  112967.17  10195.97  9.03
2004.5  112354.85  10443.43  9.30
2007.1  111706.10  10668.33  9.55
2009.8  111033.30  10895.26  9.81
2012.4  110534.60  11126.99  10.07
2015.1  110049.10  11349.95  10.31
2017.8  109349.80  11537.01  10.55
2020.4  108888.82  11750.26  10.79
2023.1  108572.80  11971.56  11.03
2025.7  108359.33  12173.78  11.23
2028.3  108082.00  12367.33  11.44
2031.0  107725.43  12538.73  11.64
2033.6  107497.20  12707.80  11.82
2036.2  107262.30  12867.30  12.00
2038.9  106731.60  12977.50  12.16
2041.5  106413.07  13098.25  12.31
2044.1  105931.20  13192.10  12.45
2046.8  105609.30  13296.50  12.59
2049.4  105061.20  13360.30  12.72
2052.0  104817.47  13466.80  12.85
2054.6  104466.25  13547.92  12.97
2057.2  103952.87  13615.27  13.10
2059.8  103638.47  13720.07  13.24
2062.4  102856.67  13760.71  13.38
2065.0  102398.33  13836.51  13.51
2067.6  101601.47  13865.31  13.65
2070.2  101061.03  13926.33  13.78
2072.8  100503.17  13975.72  13.91
2075.4  100117.50  14046.67  14.03
2078.0  99550.30  14091.39  14.16
2080.6  99044.00  14135.73  14.27
2083.2  98432.13  14161.09  14.39
2085.8  97995.65  14208.50  14.50
2088.4  97414.00  14215.78  14.59
2090.9  96718.83  14209.53  14.69
2093.5  95924.87  14190.31  14.79
2096.1  95228.90  14188.01  14.90
2098.7  94535.02  14176.30  15.00
2101.2  93682.47  14130.53  15.08
2103.8  93088.60  14115.98  15.16
2106.4  92503.47  14098.51  15.24
2108.9  91927.07  14081.04  15.32
2111.5  91176.00  14025.73  15.38
2114.0  90625.80  13993.71  15.44
2116.6  90160.00  13970.83  15.50
2119.1  89665.47  13936.08  15.54
2121.7  89241.25  13906.67  15.58
2124.2  88867.70  13886.40  15.63
2126.8  88158.32  13816.18  15.67
2129.3  87797.60  13807.20  15.73
2131.9  87278.40  13766.13  15.77
2134.4  86898.15  13747.00  15.82
2136.9  86568.08  13742.52  15.87
2139.4  86086.47  13722.64  15.94
2142.0  85696.33  13707.87  16.00
2144.5  85466.70  13717.87  16.05
2147.0  85250.80  13748.40  16.13
2149.5  84795.20  13721.60  16.18
2152.1  84640.97  13747.49  16.24
2154.6  84592.00  13772.27  16.28
2157.1  84120.75  13740.05  16.33
2159.6  83739.25  13718.86  16.38
2162.1  83583.50  13725.83  16.42
2164.6  83350.80  13715.22  16.45
2167.1  83072.43  13704.60  16.50
2169.6  82793.32  13692.89  16.54
2172.1  82370.57  13659.18  16.58
2174.6  82074.87  13649.80  16.63
2177.1  81693.33  13621.74  16.67
2179.5  81315.87  13596.12  16.72
2182.0  80877.50  13569.97  16.78
2184.5  80415.17  13543.28  16.84
2187.0  79872.03  13502.25  16.90
2189.5  79271.18  13444.20  16.96
2191.9  78584.00  13379.17  17.03
2194.4  78023.50  13331.80  17.09
2196.9  77366.40  13264.00  17.14
2199.3  76763.00  13201.44  17.20
2201.8  75988.13  13107.56  17.25
2204.3  75598.15  13079.07  17.30
2206.7  75027.45  13011.85  17.34
2209.2  74599.40  12980.11  17.40
2211.6  74042.10  12912.90  17.44
2214.1  73779.25  12885.25  17.46
2216.5  73268.27  12820.62  17.50
2219.0  72950.40  12790.82  17.53
2221.4  72619.75  12742.92  17.55
2223.9  72203.25  12670.20  17.55
2226.3  71757.00  12584.25  17.54
2228.7  71248.95  12472.77  17.51
2231.1  70725.60  12338.70  17.45
2233.6  70188.93  12184.89  17.36
2236.0  69704.25  12042.14  17.28
2238.4  69267.92  11896.69  17.17
2240.9  68867.80  11751.13  17.06
2243.3  68400.93  11575.64  16.92
2245.7  67898.80  11396.07  16.78
2248.1  67464.37  11222.47  16.63
2250.5  66998.15  11044.89  16.49
2252.9  66457.73  10850.38  16.33
2255.3  65978.45  10669.72  16.17
2257.7  65550.00  10503.33  16.02
2260.1  65106.30  10347.71  15.89
2262.5  64570.00  10170.00  15.75
2264.9  64083.02  10003.30  15.61
2267.3  63560.00  9830.00  15.47
2269.7  63119.70  9688.86  15.35
2272.1  62634.22  9539.21  15.23
2274.5  62116.30  9381.00  15.10
2276.8  61702.67  9248.72  14.99
2279.2  61184.40  9112.00  14.89
2281.6  60822.80  8982.82  14.77
2284.0  60398.00  8847.60  14.65
2286.3  59979.20  8721.42  14.54
2288.7  59613.23  8591.34  14.41
2291.1  59138.43  8442.50  14.28
2293.4  58735.60  8302.31  14.14
2295.8  58195.00  8137.00  13.98
2298.2  57670.20  7986.75  13.85
2300.5  57069.90  7824.60  13.71
2302.9  56399.33  7650.11  13.56
2305.2  55753.90  7488.10  13.43
2307.6  55163.22  7338.59  13.30
2309.9  54477.33  7192.00  13.20
2312.2  53950.33  7074.89  13.11
2314.6  53395.65  6965.55  13.05
2316.9  52753.95  6837.90  12.96
2319.2  52206.53  6738.33  12.91
2321.6  51657.08  6621.11  12.82
2323.9  51187.50  6517.36  12.73
2326.2  50706.00  6406.07  12.63
2328.6  50233.15  6294.38  12.53
2330.9  49770.00  6195.00  12.45
2333.2  49350.08  6092.47  12.35
2335.5  48952.50  6002.70  12.26
2337.8  48535.78  5909.27  12.18
2340.1  48018.18  5808.62  12.10
2342.4  47634.17  5701.95  11.97
2344.8  47247.33  5614.80  11.88
2347.1  46750.90  5508.92  11.78
2349.4  46270.00  5416.53  11.71
2351.6  45752.22  5313.71  11.61
2353.9  45302.87  5233.48  11.55
2356.2  44844.63  5143.31  11.47
2358.5  44307.20  5043.73  11.38
2360.8  43780.80  4957.87  11.32
2363.1  43374.85  4886.73  11.27
2365.4  42962.60  4802.50  11.18
2367.7  42556.20  4708.20  11.06
2369.9  42078.75  4610.53  10.96
2372.2  41520.80  4514.04  10.87
2374.5  40979.40  4415.95  10.78
2376.7  40402.77  4309.78  10.67
2379.0  39867.43  4203.51  10.54
2381.3  39316.67  4102.78  10.44
2383.5  38849.07  4016.71  10.34
2385.8  38312.27  3906.53  10.20
2388.0  37854.40  3811.40  10.07
2390.3  37380.00  3718.22  9.95
2392.5  36924.00  3636.00  9.85
2394.8  36517.80  3549.33  9.72
2397.0  36096.67  3462.04  9.59
2399.3  35684.98  3382.91  9.48
2401.5  35292.25  3307.50  9.37
2403.8  34794.58  3214.65  9.24
2406.0  34332.08  3137.28  9.14
2408.2  33971.67  3054.33  8.99
2410.4  33580.17  2979.35  8.87
2412.7  33213.70  2911.28  8.77
2414.9  32877.35  2837.82  8.63
2417.1  32524.70  2777.07  8.54
2419.3  32153.60  2696.53  8.39
2421.6  31800.83  2626.39  8.26
2423.8  31457.13  2550.11  8.11
2426.0  31121.05  2488.47  8.00
2428.2  30798.13  2430.40  7.89
2430.4  30516.07  2359.94  7.73
2432.6  30253.33  2297.78  7.60
2434.8  30008.17  2241.14  7.47
2437.0  29687.67  2189.63  7.38
2439.2  29371.72  2126.62  7.24
2441.4  29052.63  2067.72  7.12
2443.6  28835.38  2031.05  7.04
2445.7  28599.67  1980.69  6.93
2447.9  28348.25  1929.78  6.81
2450.1  28071.90  1882.70  6.71
2452.3  27739.25  1821.05  6.56
2454.5  27402.20  1763.46  6.44
2456.6  27063.87  1716.75  6.34
2458.8  26726.70  1663.57  6.22
2461.0  26469.00  1619.47  6.12
2463.1  26190.00  1576.25  6.02
2465.3  25959.53  1536.50  5.92
2467.5  25709.25  1499.58  5.83
2469.6  25477.67  1466.81  5.76
2471.8  25197.97  1431.59  5.68
2473.9  24932.75  1392.70  5.59
2476.1  24630.67  1370.05  5.56
2478.2  24297.17  1330.38  5.48
2480.4  24038.10  1304.75  5.43
2482.5  23720.47  1269.64  5.35
2484.6  23406.17  1241.47  5.30
2486.8  23141.80  1219.37  5.27
2488.9  22838.48  1183.75  5.18
2491.1  22530.67  1158.27  5.14
2493.2  22193.67  1133.63  5.11
2495.3  21821.37  1106.30  5.07
2497.4  21525.70  1067.97  4.96
2499.5  21200.17  1051.92  4.96
2501.7  21100.40  1040.78  4.93
2503.8  21012.85  1036.43  4.93
2505.9  20944.17  1025.00  4.89
2508.0  20932.42  1021.81  4.88
2510.1  20905.62  1019.35  4.88
2512.2  21010.75  1009.25  4.80
2514.3  21147.43  1006.12  4.76
2516.4  21354.80  1050.67  4.92
