/*** Spectra Vista SIG Data ***/
name= 20_20220824_QURU_46_avg.sig
comm= Averaged Ref/Tar of files: HR.082422.0056_moc.sig,HR.082422.0057_moc.sig,HR.082422.0058_moc.sig
data=
337.3  3573.00  337.45  9.44
338.8  3703.70  320.67  8.66
340.3  3888.55  318.58  8.19
341.8  4069.53  317.03  7.79
343.2  4306.80  319.68  7.42
344.7  4435.60  307.08  6.92
346.2  4616.05  294.12  6.37
347.7  4797.65  288.38  6.01
349.2  5027.40  277.20  5.51
350.6  5288.40  288.90  5.46
352.1  5608.83  295.33  5.27
353.6  5899.00  296.11  5.02
355.1  6162.53  296.34  4.81
356.6  6489.45  297.16  4.58
358.0  6762.80  301.99  4.47
359.5  7076.10  309.00  4.37
361.0  7391.48  315.21  4.26
362.5  7757.88  316.17  4.08
364.0  8143.70  324.98  3.99
365.4  8542.40  333.45  3.90
366.9  8895.25  338.87  3.81
368.4  9273.50  352.76  3.80
369.9  9647.93  360.33  3.73
371.3  10092.60  377.36  3.74
372.8  10513.80  389.40  3.70
374.3  10965.00  390.58  3.56
375.8  11399.85  398.86  3.50
377.2  11809.10  408.88  3.46
378.7  12266.40  412.47  3.36
380.2  12669.90  423.23  3.34
381.7  13215.23  428.80  3.24
383.1  13744.50  441.98  3.22
384.6  14269.78  449.58  3.15
386.1  14755.65  457.62  3.10
387.6  15226.75  470.73  3.09
389.0  15731.60  485.97  3.09
390.5  16248.60  495.60  3.05
392.0  16848.65  507.84  3.01
393.4  17446.60  518.49  2.97
394.9  18009.00  528.96  2.94
396.4  18578.25  541.65  2.92
397.9  19167.50  560.33  2.92
399.3  19728.18  577.41  2.93
400.8  20313.88  591.55  2.91
402.2  20990.25  599.02  2.85
403.7  21619.35  613.11  2.84
405.2  22230.83  631.33  2.84
406.6  22852.00  652.69  2.86
408.1  23481.40  665.95  2.84
409.6  24101.10  684.84  2.84
411.0  24787.35  705.97  2.85
412.5  25468.98  724.71  2.85
414.0  26141.13  741.65  2.84
415.4  26890.88  763.20  2.84
416.9  27582.53  783.85  2.84
418.4  28292.63  801.78  2.83
419.8  29047.20  825.07  2.84
421.3  29785.58  848.47  2.85
422.7  30606.60  876.96  2.87
424.2  31421.25  900.00  2.86
425.7  32208.80  925.84  2.87
427.1  32995.13  949.50  2.88
428.6  33821.00  967.20  2.86
430.0  34599.00  991.43  2.87
431.5  35491.65  1014.90  2.86
432.9  36405.25  1046.99  2.88
434.4  37330.95  1073.42  2.88
435.9  38192.00  1099.47  2.88
437.3  39077.50  1123.83  2.88
438.8  39924.08  1151.16  2.88
440.2  40829.25  1178.61  2.89
441.7  41821.40  1209.57  2.89
443.1  42784.25  1238.43  2.89
444.6  43793.30  1271.57  2.90
446.0  44750.78  1307.88  2.92
447.5  45741.58  1339.03  2.93
448.9  46710.90  1369.12  2.93
450.4  47759.60  1403.78  2.94
451.8  48659.00  1440.40  2.96
453.3  49619.63  1471.37  2.97
454.7  50671.05  1507.22  2.97
456.2  51577.50  1535.86  2.98
457.6  52595.55  1569.99  2.99
459.1  53606.48  1599.00  2.98
460.5  54583.38  1629.97  2.99
462.0  55682.43  1660.87  2.98
463.4  56745.40  1698.80  2.99
464.8  57775.50  1731.60  3.00
466.3  58834.88  1765.28  3.00
467.7  59875.05  1797.85  3.00
469.2  60972.90  1829.75  3.00
470.6  61988.60  1856.47  2.99
472.0  63056.00  1895.43  3.01
473.5  64085.13  1926.65  3.01
474.9  65165.25  1964.60  3.01
476.4  66369.60  2008.32  3.03
477.8  67497.50  2041.60  3.02
479.2  68570.50  2074.47  3.03
480.7  69726.08  2117.21  3.04
482.1  70891.70  2157.87  3.04
483.6  72148.85  2200.25  3.05
485.0  73286.93  2236.87  3.05
486.4  74554.20  2283.38  3.06
487.9  75684.38  2324.40  3.07
489.3  76908.68  2373.67  3.09
490.7  78042.50  2418.83  3.10
492.2  79321.20  2471.56  3.12
493.6  80472.45  2525.66  3.14
495.0  81651.38  2575.95  3.15
496.5  82884.40  2635.63  3.18
497.9  84029.05  2698.24  3.21
499.3  85247.08  2766.73  3.25
500.7  86552.20  2847.96  3.29
502.2  87760.60  2921.95  3.33
503.6  89060.00  3015.39  3.39
505.0  90156.10  3115.57  3.46
506.5  91531.13  3226.86  3.53
507.9  92789.68  3350.45  3.61
509.3  94246.40  3494.77  3.71
510.7  95574.38  3644.55  3.81
512.2  97040.40  3829.12  3.95
513.6  98570.15  4040.96  4.10
515.0  100044.43  4278.88  4.28
516.4  101450.48  4537.89  4.47
517.8  103112.50  4843.93  4.70
519.3  104478.73  5162.71  4.94
520.7  106091.55  5526.33  5.21
522.1  107453.78  5901.18  5.49
523.5  108864.80  6299.48  5.79
524.9  110316.60  6701.58  6.07
526.3  111714.75  7098.47  6.35
527.8  113275.80  7510.14  6.63
529.2  114595.90  7908.92  6.90
530.6  116264.70  8309.71  7.15
532.0  118048.00  8689.33  7.36
533.4  119405.70  9011.99  7.55
534.8  120387.18  9285.71  7.71
536.3  122163.00  9590.72  7.85
537.7  124236.00  9890.16  7.96
539.1  125715.00  10136.08  8.06
540.5  126958.80  10366.21  8.17
541.9  128771.40  10617.91  8.25
543.3  130114.58  10828.03  8.32
544.7  131464.80  11048.88  8.40
546.1  133315.60  11309.58  8.48
547.5  134601.60  11512.11  8.55
549.0  136510.00  11758.27  8.61
550.4  138071.88  11960.92  8.66
551.8  139635.18  12136.03  8.69
553.2  141234.43  12282.29  8.70
554.6  142646.40  12376.00  8.68
556.0  144237.60  12443.46  8.63
557.4  145881.93  12475.35  8.55
558.8  147570.30  12477.96  8.46
560.2  149088.75  12430.63  8.34
561.6  150818.48  12365.44  8.20
563.0  152453.15  12259.94  8.04
564.4  154093.30  12128.28  7.87
565.8  155677.50  11963.75  7.68
567.2  157476.75  11796.33  7.49
568.6  159046.88  11594.20  7.29
570.0  160542.30  11367.17  7.08
571.4  162357.65  11160.50  6.87
572.8  164160.50  10960.35  6.68
574.2  165860.80  10763.95  6.49
575.6  167445.00  10582.50  6.32
577.0  169025.40  10421.61  6.17
578.4  170807.00  10301.20  6.03
579.8  172365.98  10179.09  5.91
581.2  174157.45  10094.94  5.80
582.5  175628.70  10002.72  5.70
583.9  177212.40  9932.45  5.60
585.3  179077.73  9891.39  5.52
586.7  180591.45  9844.47  5.45
588.1  182141.75  9813.17  5.39
589.5  183848.00  9801.63  5.33
590.9  185541.20  9804.27  5.28
592.3  187409.15  9830.83  5.25
593.7  188895.53  9847.63  5.21
595.0  190605.15  9882.09  5.18
596.4  192100.30  9909.34  5.16
597.8  193614.60  9935.26  5.13
599.2  195214.80  9954.56  5.10
600.6  197036.78  9981.31  5.07
602.0  198381.23  9968.51  5.02
603.3  200241.90  9972.80  4.98
604.7  201966.08  9948.11  4.93
606.1  203508.60  9899.20  4.86
607.5  205184.88  9845.90  4.80
608.9  206928.40  9786.29  4.73
610.2  208372.50  9707.04  4.66
611.6  210018.83  9635.95  4.59
613.0  211620.25  9562.05  4.52
614.4  213055.65  9482.72  4.45
615.8  214548.75  9418.50  4.39
617.1  216134.10  9368.80  4.33
618.5  217826.40  9337.81  4.29
619.9  219397.50  9317.18  4.25
621.3  221089.95  9318.36  4.21
622.6  222741.50  9328.93  4.19
624.0  224241.30  9344.16  4.17
625.4  225767.03  9375.74  4.15
626.8  227424.93  9419.11  4.14
628.1  228804.95  9458.09  4.13
629.5  230771.63  9529.42  4.13
630.9  232467.95  9590.83  4.13
632.2  233949.45  9635.01  4.12
633.6  235674.25  9679.05  4.11
635.0  237291.20  9700.80  4.09
636.3  238878.40  9701.84  4.06
637.7  240313.63  9674.40  4.03
639.1  242042.50  9639.00  3.98
640.4  243561.50  9586.92  3.94
641.8  244826.38  9511.42  3.88
643.2  246509.90  9442.70  3.83
644.5  247926.25  9361.03  3.78
645.9  249720.75  9301.26  3.72
647.2  251961.68  9278.08  3.68
648.6  254036.25  9266.40  3.65
650.0  255614.40  9262.08  3.62
651.3  255913.90  9215.21  3.60
652.7  256615.65  9158.53  3.57
654.0  258770.00  9153.89  3.54
655.4  260409.35  9134.29  3.51
656.8  260800.30  9095.13  3.49
658.1  262048.80  9061.84  3.46
659.5  264443.55  9036.02  3.42
660.8  266377.50  9000.00  3.38
662.2  267276.80  8954.03  3.35
663.5  268945.30  8924.97  3.32
664.9  270459.80  8890.09  3.29
666.2  271284.00  8865.20  3.27
667.6  273057.08  8894.28  3.26
668.9  274309.45  8922.90  3.25
670.3  275212.50  8947.02  3.25
671.6  277071.38  9018.15  3.25
673.0  278332.50  9100.75  3.27
674.3  279631.30  9190.65  3.29
675.7  281036.83  9297.99  3.31
677.0  282228.35  9423.76  3.34
678.4  283704.03  9567.66  3.37
679.7  284893.38  9720.37  3.41
681.1  286246.53  9898.43  3.46
682.4  287498.90  10101.17  3.51
683.8  288891.20  10342.80  3.58
685.1  289948.13  10596.40  3.65
686.4  291330.60  10910.56  3.75
687.8  292698.75  11279.27  3.85
689.1  293855.75  11739.10  3.99
690.5  295310.55  12331.24  4.18
691.8  296153.08  13104.42  4.42
693.1  297530.40  14145.68  4.75
694.5  298798.50  15497.30  5.19
695.8  300140.75  17202.03  5.73
697.1  301414.75  19316.27  6.41
698.5  302568.30  21855.56  7.22
699.8  303754.30  24830.64  8.17
701.1  304978.75  28207.70  9.25
702.5  305845.65  31909.75  10.43
703.8  306855.00  35922.00  11.71
705.1  308119.50  40167.66  13.04
706.5  309289.63  44579.95  14.41
707.8  310352.10  49104.44  15.82
709.1  311322.13  53690.14  17.25
710.5  312550.00  58390.29  18.68
711.8  313493.40  63064.40  20.12
713.1  314630.70  67794.97  21.55
714.4  315611.90  72504.73  22.97
715.8  316526.20  77172.87  24.38
717.1  317951.10  81932.12  25.77
718.4  318998.40  86535.68  27.13
719.7  320223.80  91125.64  28.46
721.0  320805.00  95451.00  29.75
722.4  321675.75  99755.19  31.01
723.7  322717.20  103984.64  32.22
725.0  323853.98  108128.58  33.39
726.3  324891.05  112076.84  34.50
727.6  325530.15  115731.88  35.55
729.0  326543.70  119356.72  36.55
730.3  327415.50  122763.16  37.49
731.6  328429.05  126044.03  38.38
732.9  329317.98  129120.39  39.21
734.2  330218.63  132037.58  39.98
735.5  331349.63  134876.67  40.71
736.8  332202.90  137463.16  41.38
738.1  333118.20  139910.60  42.00
739.5  334171.03  142258.59  42.57
740.8  334964.85  144343.76  43.09
742.1  335825.13  146337.67  43.58
743.4  336650.00  148200.00  44.02
744.7  337772.98  150066.50  44.43
746.0  338752.05  151745.10  44.80
747.3  339354.88  153153.40  45.13
748.6  340157.50  154544.63  45.43
749.9  341042.00  155847.47  45.70
751.2  341911.25  157056.90  45.93
752.5  342931.10  158277.23  46.15
753.8  343668.50  159293.91  46.35
755.1  344500.00  160281.33  46.53
756.4  345181.78  161131.58  46.68
757.7  346276.00  162123.92  46.82
759.0  348241.78  163455.18  46.94
760.3  349562.40  164433.28  47.04
761.6  351306.20  165569.04  47.13
762.9  351949.75  166149.60  47.21
764.2  352416.90  166618.60  47.28
765.5  352784.35  167021.71  47.34
766.8  353300.80  167464.96  47.40
768.1  353953.20  167936.43  47.45
769.3  354666.55  168406.93  47.48
770.6  355440.15  168892.53  47.52
771.9  356301.05  169406.88  47.55
773.2  356817.60  169737.33  47.57
774.5  357528.60  170170.00  47.60
775.8  358345.85  170645.83  47.62
777.1  359069.70  171044.43  47.64
778.4  359514.65  171316.27  47.65
779.6  360415.63  171802.57  47.67
780.9  360990.00  172128.00  47.68
782.2  361578.25  172449.20  47.69
783.5  362035.00  172707.27  47.70
784.8  362656.13  173059.77  47.72
786.0  363209.00  173347.67  47.73
787.3  363725.10  173620.30  47.73
788.6  364268.95  173917.26  47.74
789.9  364858.20  174227.76  47.75
791.2  365654.38  174623.72  47.76
792.4  366484.15  175048.89  47.76
793.7  367066.00  175354.45  47.77
795.0  367846.88  175732.15  47.77
796.2  368637.48  176140.10  47.78
797.5  369508.73  176574.31  47.79
798.8  370355.65  176989.19  47.79
800.0  371162.70  177399.88  47.80
801.3  371793.90  177698.64  47.79
802.6  372507.98  178084.02  47.81
803.8  373274.18  178464.78  47.81
805.1  373917.25  178783.97  47.81
806.4  374484.90  179070.00  47.82
807.7  375169.73  179411.49  47.82
808.9  375867.50  179756.85  47.82
810.2  376516.00  180094.88  47.83
811.4  377140.50  180417.92  47.84
812.7  377893.75  180792.08  47.84
814.0  378868.05  181279.47  47.85
815.2  379591.00  181657.03  47.86
816.5  380179.08  181934.69  47.85
817.7  380722.25  182226.77  47.86
819.0  381317.20  182547.93  47.87
820.2  381568.00  182682.13  47.88
821.5  382382.60  183112.63  47.89
822.7  382845.40  183357.71  47.89
824.0  383265.00  183593.88  47.90
825.2  383824.58  183909.15  47.91
826.5  384251.20  184126.67  47.92
827.7  384920.38  184448.02  47.92
829.0  385317.30  184693.74  47.93
830.2  385710.00  184910.03  47.94
831.5  386255.30  185193.92  47.95
832.7  386622.60  185407.74  47.96
834.0  387058.18  185616.89  47.96
835.2  387476.93  185847.46  47.96
836.4  387854.50  186042.12  47.97
837.7  388234.60  186325.15  47.99
838.9  388719.35  186594.10  48.00
840.1  389149.65  186839.64  48.01
841.4  389708.10  187147.89  48.02
842.6  390092.20  187372.19  48.03
843.8  390510.40  187598.13  48.04
845.1  391057.15  187910.01  48.05
846.3  391491.40  188153.07  48.06
847.5  391891.50  188432.72  48.08
848.8  392430.00  188679.52  48.08
850.0  392752.85  188902.28  48.10
851.2  393390.00  189216.36  48.10
852.5  393901.80  189470.67  48.10
853.7  394436.25  189747.00  48.11
854.9  394947.50  190024.28  48.11
856.1  395339.75  190298.68  48.14
857.4  395623.23  190443.56  48.14
858.6  396110.50  190718.85  48.15
859.8  396616.88  190966.25  48.15
861.0  397191.60  191234.16  48.15
862.2  397664.63  191513.96  48.16
863.5  398125.98  191724.87  48.16
864.7  398646.60  192031.84  48.17
865.9  399149.20  192288.43  48.17
867.1  399446.05  192473.63  48.19
868.3  399998.40  192723.78  48.18
869.5  400566.75  192988.19  48.18
870.8  401242.50  193290.00  48.17
872.0  401858.03  193601.18  48.18
873.2  402238.05  193864.10  48.20
874.4  402772.50  194099.49  48.19
875.6  403182.85  194299.99  48.19
876.8  403814.55  194560.06  48.18
878.0  404330.80  194860.45  48.19
879.2  404902.35  195142.16  48.19
880.4  405497.63  195426.05  48.19
881.6  406129.15  195717.83  48.19
882.8  406600.00  195955.52  48.19
884.0  407248.80  196294.38  48.20
885.2  407892.70  196564.93  48.19
886.5  408621.15  196903.45  48.19
887.7  409253.65  197190.76  48.18
888.8  410007.30  197531.27  48.18
890.0  410755.35  197855.33  48.17
891.2  411436.70  198181.75  48.17
892.4  412123.43  198513.56  48.17
893.6  412763.40  198815.01  48.17
894.8  413775.75  199318.77  48.17
896.0  414865.00  199796.87  48.16
897.2  415896.00  200250.70  48.15
898.4  416770.20  200658.04  48.15
899.6  417369.75  200963.50  48.15
900.8  417904.70  201221.18  48.15
902.0  418281.45  201351.20  48.14
903.2  418797.98  201552.63  48.13
904.3  419260.80  201776.60  48.13
905.5  420050.45  202104.10  48.11
906.7  420744.50  202484.00  48.13
907.9  421449.00  202802.18  48.12
909.1  421908.08  203001.66  48.12
910.2  422185.13  203138.35  48.12
911.4  422735.63  203312.85  48.09
912.6  422994.00  203442.29  48.10
913.8  423524.33  203616.99  48.08
915.0  424080.30  203901.74  48.08
916.2  424359.00  204067.50  48.09
917.3  424609.88  204121.08  48.07
918.5  425036.70  204274.35  48.06
919.7  425432.70  204428.70  48.05
920.8  425680.00  204521.50  48.05
922.0  425944.75  204622.37  48.04
923.2  426426.00  204731.80  48.01
924.4  426748.50  204887.25  48.01
925.5  427213.50  205043.77  48.00
926.7  427979.25  205399.67  47.99
927.9  429028.20  205833.28  47.98
929.0  430708.05  206559.36  47.96
930.2  433188.60  207678.36  47.94
931.4  435925.13  208937.61  47.93
932.5  438966.20  210319.71  47.91
933.7  440533.63  211010.03  47.90
934.9  441433.13  211365.58  47.88
936.0  441168.00  211152.28  47.86
937.2  439269.75  210165.62  47.84
938.3  437765.85  209338.66  47.82
939.5  436366.80  208544.64  47.79
940.7  436626.00  208640.76  47.78
941.8  438387.08  209363.89  47.76
943.0  440058.75  210057.10  47.73
944.2  441282.40  210461.51  47.69
945.3  441080.25  210246.40  47.67
946.5  440414.55  209842.74  47.65
947.6  440707.70  209897.13  47.63
948.8  440824.80  209753.96  47.58
949.9  441189.00  209691.44  47.53
951.1  440954.48  209401.57  47.49
952.2  441048.00  209195.20  47.43
953.4  440820.75  208935.63  47.40
954.5  441207.00  208802.88  47.33
955.7  441252.00  208630.80  47.28
956.8  441029.60  208399.56  47.25
958.0  440785.00  208121.40  47.22
959.1  440840.93  207907.77  47.16
960.3  440862.08  207682.76  47.11
961.4  440954.00  207592.39  47.08
962.6  441379.75  207655.47  47.05
963.7  441094.35  207643.08  47.07
964.9  441301.95  207580.94  47.04
966.0  441312.30  207523.08  47.02
967.2  441394.65  207586.68  47.03
968.3  441486.45  207492.30  47.00
969.5  441448.93  207444.65  46.99
970.6  441749.25  207574.03  46.99
971.8  442250.73  207641.26  46.95
972.9  441798.38  207567.18  46.98
974.0  442246.30  207706.93  46.97
975.2  442098.00  207676.90  46.98
976.3  442061.33  207657.68  46.97
977.5  442464.75  207794.56  46.96
978.6  442510.60  207785.27  46.96
979.7  442563.45  207775.47  46.95
980.9  442357.43  207665.99  46.95
982.0  442513.90  207722.36  46.94
983.2  442461.05  207639.92  46.93
984.3  442653.20  207731.60  46.93
985.4  442609.88  207901.28  46.97
986.6  443398.25  207901.78  46.89
987.7  444165.23  208538.07  46.95
988.9  443973.60  208290.72  46.92
990.0  445352.40  208607.33  46.84
993.1  363791.58  169625.51  46.63
996.9  365204.10  170727.67  46.75
1000.7  366747.27  171860.98  46.86
1004.5  367496.83  172552.57  46.95
1008.4  367345.42  172843.11  47.05
1012.2  367469.88  173195.80  47.13
1016.0  367657.20  173604.43  47.22
1019.8  368110.05  174087.38  47.29
1023.7  368565.35  174569.61  47.36
1027.5  368844.78  174982.51  47.44
1031.3  369645.93  175572.37  47.50
1035.1  370006.06  175908.07  47.54
1038.9  370303.27  176173.93  47.58
1042.7  370295.58  176286.46  47.61
1046.5  370141.83  176319.28  47.64
1050.3  370254.43  176433.17  47.65
1054.2  370010.67  176414.92  47.68
1058.0  369532.28  176210.88  47.68
1061.8  369407.36  176192.47  47.70
1065.6  369259.83  176119.75  47.70
1069.4  369668.73  176347.75  47.70
1073.2  369720.78  176386.58  47.71
1077.0  369427.60  176208.15  47.70
1080.8  368692.71  175769.34  47.67
1084.6  367192.93  174928.60  47.64
1088.4  366113.13  174332.47  47.62
1092.2  365157.00  173761.71  47.59
1096.0  364641.73  173403.66  47.55
1099.8  364271.70  173081.57  47.51
1103.6  363768.40  172702.74  47.48
1107.4  363023.48  172173.05  47.43
1111.2  362842.30  171933.90  47.39
1114.9  362174.17  171416.83  47.33
1118.7  361439.10  170844.65  47.27
1122.5  360658.13  170142.76  47.18
1126.3  359487.63  169192.83  47.06
1130.1  358979.45  168390.14  46.91
1133.9  357420.00  166877.40  46.69
1137.7  356124.90  165291.38  46.41
1141.4  354468.73  163367.67  46.09
1145.2  353848.73  161765.86  45.72
1149.0  352859.79  160055.00  45.36
1152.8  351285.95  158238.78  45.05
1156.6  349705.77  156662.92  44.80
1160.3  348088.33  155316.19  44.62
1164.1  345664.27  153826.28  44.50
1167.9  343850.00  152748.07  44.42
1171.7  342538.88  151999.88  44.37
1175.4  341517.40  151426.20  44.34
1179.2  340646.35  150917.24  44.30
1183.0  340421.33  150655.24  44.26
1186.7  339737.07  150183.63  44.21
1190.5  338367.13  149425.18  44.16
1194.3  337023.73  148732.81  44.13
1198.0  335961.18  148215.77  44.12
1201.8  334631.40  147628.85  44.12
1205.6  333369.67  147109.67  44.13
1209.3  332297.55  146750.52  44.16
1213.1  331194.00  146380.57  44.20
1216.8  330093.96  146119.99  44.27
1220.6  329067.20  145912.80  44.34
1224.3  327880.50  145638.59  44.42
1228.1  326812.40  145458.43  44.51
1231.9  325765.08  145220.54  44.58
1235.6  324448.88  144855.68  44.65
1239.4  323236.88  144511.37  44.71
1243.1  322074.87  144132.87  44.75
1246.9  320937.38  143734.96  44.79
1250.6  320002.40  143394.94  44.81
1254.3  318980.75  143004.27  44.83
1258.1  318104.15  142639.63  44.84
1261.8  316915.20  142133.75  44.85
1265.6  315434.45  141438.47  44.84
1269.3  313687.95  140588.72  44.82
1273.1  313482.29  140383.13  44.78
1276.8  313912.40  140470.69  44.75
1280.6  314190.90  140500.82  44.72
1284.3  313125.20  139884.97  44.67
1288.0  311628.86  139012.43  44.61
1291.8  310004.69  137996.16  44.51
1295.5  308308.00  136907.47  44.41
1299.2  306983.11  135952.62  44.29
1302.9  305611.17  134918.43  44.15
1306.7  304157.70  133786.92  43.99
1310.4  302773.75  132575.50  43.79
1314.1  301518.25  131361.14  43.57
1317.9  300395.00  130096.43  43.31
1321.6  299078.34  128643.03  43.01
1325.3  297450.83  126963.45  42.68
1329.0  296114.58  125345.17  42.33
1332.8  293970.60  123272.60  41.93
1336.5  292097.13  121298.03  41.53
1340.2  291639.83  119901.17  41.11
1343.9  291072.29  118444.67  40.69
1347.6  290181.90  116870.42  40.27
1351.4  289943.00  115616.71  39.88
1355.1  289791.33  114429.96  39.49
1358.8  289360.00  113065.14  39.07
1362.5  288626.70  111496.59  38.63
1366.2  286888.60  109347.04  38.11
1369.9  285416.63  107092.75  37.52
1373.6  283838.63  104447.92  36.80
1377.3  281986.50  101194.41  35.89
1381.0  280540.17  97344.12  34.70
1384.8  278297.50  92406.78  33.20
1388.4  276192.00  87001.85  31.50
1392.2  274574.67  81310.44  29.61
1395.9  273001.90  75418.23  27.63
1399.6  271359.05  69676.47  25.68
1403.3  270255.42  64525.87  23.88
1407.0  269302.10  60023.34  22.29
1410.7  268324.65  56244.14  20.96
1414.3  267359.23  53226.82  19.91
1418.1  266426.71  50916.88  19.11
1421.7  265748.35  49218.26  18.52
1425.4  264990.70  47978.78  18.11
1429.1  264265.50  47126.57  17.83
1432.8  262896.98  46471.54  17.68
1436.5  262079.53  46136.00  17.60
1440.2  261193.10  45966.14  17.60
1443.9  259857.22  45842.05  17.64
1447.6  258258.00  45764.40  17.72
1451.2  257283.40  45834.77  17.81
1454.9  256110.75  45915.32  17.93
1458.6  255124.63  46128.76  18.08
1462.3  254018.23  46437.97  18.28
1466.0  252696.25  46856.89  18.54
1469.7  251046.79  47385.20  18.88
1473.3  250030.67  48165.95  19.26
1477.0  248183.37  48892.43  19.70
1480.7  246657.57  49744.70  20.17
1484.4  244800.12  50542.86  20.65
1488.0  243290.67  51444.38  21.15
1491.7  241667.18  52294.45  21.64
1495.4  239950.45  53123.36  22.14
1499.0  238365.50  53937.93  22.63
1502.7  237067.67  54814.23  23.12
1506.4  235677.68  55624.18  23.60
1510.0  234305.97  56415.85  24.08
1513.7  232911.29  57138.09  24.53
1517.4  231641.00  57861.62  24.98
1521.0  230520.80  58583.01  25.41
1524.7  229347.08  59224.44  25.82
1528.3  228076.38  59809.29  26.22
1532.0  226854.83  60354.80  26.61
1535.7  225437.06  60802.89  26.97
1539.3  224225.53  61261.09  27.32
1543.0  223278.83  61766.74  27.66
1546.6  222573.00  62312.71  28.00
1550.3  221610.65  62735.26  28.31
1553.9  220547.87  63101.89  28.61
1557.6  219310.67  63380.74  28.90
1561.2  218066.40  63604.03  29.17
1564.9  216772.05  63797.83  29.43
1568.5  215469.33  63956.55  29.68
1572.2  214332.75  64152.30  29.93
1575.8  213262.00  64348.00  30.17
1579.5  212292.80  64539.02  30.40
1583.1  211309.31  64721.44  30.63
1586.8  210112.00  64816.00  30.85
1590.4  209124.73  64958.29  31.06
1594.0  207822.77  64993.78  31.27
1597.7  206587.70  65028.89  31.48
1601.3  205140.60  64982.25  31.68
1604.9  203723.23  64918.29  31.87
1608.6  202394.77  64870.68  32.05
1612.2  201497.18  64925.73  32.22
1615.8  200499.33  64931.84  32.39
1619.5  199467.58  64895.40  32.53
1623.1  198187.00  64749.46  32.67
1626.7  196921.73  64586.46  32.80
1630.3  195710.08  64432.18  32.92
1634.0  194502.00  64256.00  33.04
1637.6  193360.40  64077.69  33.14
1641.2  192218.05  63847.22  33.22
1644.8  190871.64  63517.73  33.28
1648.5  189730.20  63229.31  33.33
1652.1  188686.20  62928.30  33.35
1655.7  187738.20  62597.66  33.34
1659.3  186890.00  62268.35  33.32
1662.9  185484.17  61724.17  33.28
1666.6  184076.40  61165.88  33.23
1670.2  182702.10  60599.45  33.17
1673.8  181318.01  60010.26  33.10
1677.4  180219.35  59493.72  33.01
1681.0  179470.33  59046.63  32.90
1684.6  179069.58  58673.18  32.77
1688.2  178403.20  58148.41  32.59
1691.8  177732.47  57655.57  32.44
1695.4  177315.40  57223.97  32.27
1699.0  177019.97  56813.37  32.09
1702.6  176730.00  56397.57  31.91
1706.2  176185.10  55879.64  31.72
1709.8  175321.83  55260.01  31.52
1713.4  174642.63  54697.78  31.32
1717.0  173814.00  54098.79  31.12
1720.6  173044.80  53529.83  30.93
1724.2  172353.90  52973.09  30.74
1727.8  171615.15  52447.10  30.56
1731.4  171109.13  52049.45  30.42
1735.0  170867.95  51806.23  30.32
1738.6  170583.45  51550.03  30.22
1742.2  169986.84  51155.35  30.09
1745.8  169325.50  50704.10  29.94
1749.4  168365.18  50110.74  29.76
1753.0  166859.07  49338.31  29.57
1756.6  165187.75  48521.50  29.37
1760.1  163861.05  47816.62  29.18
1763.7  162165.33  47038.29  29.01
1767.3  160733.60  46392.14  28.86
1770.9  159513.78  45834.37  28.73
1774.5  158101.42  45245.46  28.62
1778.0  156960.30  44756.82  28.51
1781.6  155863.20  44305.09  28.43
1785.2  154712.43  43860.12  28.35
1788.8  153551.90  43453.49  28.30
1792.3  152333.33  43053.75  28.26
1795.9  151849.32  42889.79  28.24
1799.5  151293.00  42709.57  28.23
1803.1  149984.10  42331.68  28.22
1806.6  149691.79  42227.24  28.21
1810.2  150517.50  42458.03  28.21
1813.8  151638.05  42775.41  28.21
1817.3  151956.00  42860.86  28.21
1820.9  151523.73  42728.48  28.20
1824.5  150454.03  42396.62  28.18
1828.0  149757.21  42147.88  28.14
1831.6  148920.75  41837.68  28.09
1835.2  148098.33  41473.93  28.00
1838.7  147644.13  41125.18  27.85
1842.3  147240.00  40727.14  27.66
1845.8  146570.63  40142.81  27.39
1849.4  146161.38  39514.31  27.03
1852.9  145531.52  38653.64  26.56
1856.5  144711.55  37547.23  25.95
1860.0  144008.50  36232.24  25.16
1863.6  143700.79  34795.35  24.21
1867.1  143356.85  33079.90  23.08
1870.7  142973.15  30960.65  21.65
1874.2  142157.25  28336.56  19.93
1877.8  141306.93  25547.32  18.08
1881.3  140358.00  22640.02  16.13
1884.9  139762.88  19855.60  14.21
1888.4  138893.69  17123.84  12.33
1891.9  138085.20  14720.88  10.66
1895.5  137030.02  12718.87  9.28
1899.0  136563.75  11229.29  8.22
1901.3  164536.83  9304.05  5.65
1904.1  164475.00  8385.00  5.10
1906.8  163813.80  7698.60  4.70
1909.6  162270.50  7156.80  4.41
1912.4  160796.53  6759.28  4.20
1915.1  159666.10  6471.30  4.05
1917.9  158313.00  6265.22  3.96
1920.6  157218.80  6124.64  3.90
1923.3  156124.27  6019.22  3.86
1926.1  154794.93  5930.90  3.83
1928.8  153516.00  5910.67  3.85
1931.6  152453.10  5918.14  3.88
1934.3  151398.65  5963.68  3.94
1937.0  150408.83  6031.03  4.01
1939.8  149367.08  6104.42  4.09
1942.5  148137.00  6207.67  4.19
1945.2  146582.15  6304.83  4.30
1947.9  145342.87  6431.37  4.42
1950.7  144361.10  6563.20  4.55
1953.4  142772.50  6694.55  4.69
1956.1  141532.50  6852.19  4.84
1958.8  140430.12  7027.87  5.00
1961.5  139076.40  7188.27  5.17
1964.2  137673.90  7374.03  5.36
1966.9  136193.45  7556.75  5.55
1969.6  135036.00  7761.00  5.75
1972.3  133678.00  7962.53  5.96
1975.0  132679.20  8186.25  6.17
1977.7  131624.02  8419.92  6.40
1980.4  130518.13  8649.78  6.63
1983.1  129451.22  8893.90  6.87
1985.8  128542.50  9140.80  7.11
1988.4  127547.33  9377.33  7.35
1991.1  126651.00  9629.04  7.60
1993.8  125820.57  9877.57  7.85
1996.5  125200.17  10153.31  8.11
1999.1  124528.07  10411.81  8.36
2001.8  123845.17  10673.68  8.62
2004.5  123193.30  10916.30  8.86
2007.1  122501.30  11149.85  9.10
2009.8  121781.80  11384.49  9.35
2012.4  121202.03  11623.89  9.59
2015.1  120659.47  11850.69  9.82
2017.8  119891.10  12034.87  10.04
2020.4  119409.77  12244.28  10.25
2023.1  119070.93  12446.39  10.45
2025.7  118837.33  12662.00  10.65
2028.3  118516.67  12849.78  10.84
2031.0  118128.07  13007.63  11.01
2033.6  117850.20  13166.00  11.17
2036.2  117615.30  13311.00  11.32
2038.9  117041.10  13418.30  11.46
2041.5  116698.73  13536.99  11.60
2044.1  116162.40  13621.30  11.73
2046.8  115805.70  13722.80  11.85
2049.4  115188.00  13783.70  11.97
2052.0  114904.47  13877.27  12.08
2054.6  114528.75  13965.00  12.19
2057.2  113987.47  14040.29  12.32
2059.8  113673.07  14153.82  12.45
2062.4  112819.82  14190.73  12.58
2065.0  112293.20  14273.18  12.71
2067.6  111433.87  14301.14  12.83
2070.2  110841.13  14370.88  12.97
2072.8  110230.97  14431.89  13.09
2075.4  109821.25  14513.33  13.22
2078.0  109203.18  14571.55  13.34
2080.6  108662.40  14637.33  13.47
2083.2  107987.80  14678.32  13.59
2085.8  107499.22  14738.43  13.71
2088.4  106839.17  14778.17  13.83
2090.9  106073.32  14797.31  13.95
2093.5  105208.77  14792.29  14.06
2096.1  104451.40  14805.77  14.17
2098.7  103678.47  14823.34  14.30
2101.2  102738.93  14808.82  14.41
2103.8  102092.67  14837.93  14.53
2106.4  101437.67  14858.31  14.65
2108.9  100808.87  14884.51  14.77
2111.5  99970.47  14872.87  14.88
2114.0  99350.40  14899.07  15.00
2116.6  98857.50  14933.33  15.11
2119.1  98318.17  14958.86  15.21
2121.7  97842.50  14991.67  15.32
2124.2  97441.50  15026.07  15.42
2126.8  96678.15  15001.93  15.52
2129.3  96272.00  15021.60  15.60
2131.9  95691.20  15012.80  15.69
2134.4  95261.40  15027.30  15.77
2136.9  94891.77  15045.40  15.86
2139.4  94376.80  15023.09  15.92
2142.0  93942.33  15014.22  15.98
2144.5  93690.30  15041.00  16.05
2147.0  93451.60  15079.47  16.14
2149.5  92951.33  15064.58  16.21
2152.1  92779.87  15100.98  16.28
2154.6  92724.80  15132.26  16.32
2157.1  92204.92  15084.39  16.36
2159.6  91796.17  15075.31  16.42
2162.1  91627.90  15096.90  16.48
2164.6  91397.27  15097.40  16.52
2167.1  91071.12  15091.28  16.57
2169.6  90747.30  15084.61  16.62
2172.1  90302.00  15050.33  16.67
2174.6  89988.60  15045.98  16.72
2177.1  89565.60  15026.62  16.78
2179.5  89151.18  15009.15  16.84
2182.0  88684.75  14991.17  16.90
2184.5  88165.80  14953.91  16.96
2187.0  87569.63  14910.96  17.03
2189.5  86905.27  14847.74  17.08
2191.9  86155.50  14778.83  17.15
2194.4  85558.45  14732.47  17.22
2196.9  84835.20  14662.40  17.28
2199.3  84206.33  14599.89  17.34
2201.8  83336.80  14486.44  17.38
2204.3  82901.75  14443.59  17.42
2206.7  82286.90  14374.43  17.47
2209.2  81824.12  14330.83  17.51
2211.6  81209.70  14252.70  17.55
2214.1  80923.35  14205.28  17.55
2216.5  80360.67  14121.89  17.57
2219.0  80032.87  14062.29  17.57
2221.4  79660.58  13995.72  17.57
2223.9  79204.42  13889.94  17.54
2226.3  78698.67  13770.95  17.50
2228.7  78157.40  13635.71  17.45
2231.1  77586.30  13473.90  17.37
2233.6  77013.13  13294.11  17.26
2236.0  76487.25  13109.83  17.14
2238.4  76001.33  12928.03  17.01
2240.9  75572.80  12751.09  16.87
2243.3  75056.27  12535.87  16.70
2245.7  74495.65  12311.47  16.53
2248.1  74032.40  12102.86  16.35
2250.5  73537.23  11893.48  16.17
2252.9  72946.03  11654.35  15.98
2255.3  72416.10  11429.23  15.78
2257.7  71970.00  11213.33  15.58
2260.1  71477.47  10999.88  15.39
2262.5  70880.00  10773.33  15.20
2264.9  70372.52  10572.35  15.02
2267.3  69780.00  10363.33  14.85
2269.7  69310.27  10173.80  14.68
2272.1  68764.42  9986.62  14.52
2274.5  68216.12  9803.63  14.37
2276.8  67752.73  9642.71  14.23
2279.2  67194.30  9477.15  14.10
2281.6  66782.27  9331.80  13.97
2284.0  66326.70  9184.27  13.85
2286.3  65876.80  9035.56  13.72
2288.7  65458.47  8896.84  13.59
2291.1  64930.50  8742.68  13.46
2293.4  64515.73  8603.47  13.34
2295.8  63921.80  8435.70  13.20
2298.2  63342.00  8259.30  13.04
2300.5  62689.95  8083.35  12.89
2302.9  61969.00  7898.11  12.75
2305.2  61274.70  7728.43  12.61
2307.6  60631.05  7572.43  12.49
2309.9  59881.67  7419.33  12.39
2312.2  59303.00  7309.11  12.33
2314.6  58684.50  7224.30  12.31
2316.9  57991.05  7131.15  12.30
2319.2  57410.60  7035.51  12.25
2321.6  56786.45  6932.60  12.21
2323.9  56250.00  6829.86  12.14
2326.2  55724.43  6719.07  12.06
2328.6  55207.35  6611.37  11.98
2330.9  54694.50  6506.50  11.90
2333.2  54239.58  6399.39  11.80
2335.5  53810.30  6291.60  11.69
2337.8  53355.93  6186.04  11.59
2340.1  52795.20  6060.23  11.48
2342.4  52357.50  5954.72  11.37
2344.8  51941.50  5851.33  11.27
2347.1  51389.80  5720.94  11.13
2349.4  50863.95  5618.50  11.05
2351.6  50302.10  5530.37  10.99
2353.9  49815.50  5446.79  10.93
2356.2  49291.30  5358.23  10.87
2358.5  48720.00  5249.07  10.77
2360.8  48148.80  5152.00  10.70
2363.1  47715.70  5077.41  10.64
2365.4  47245.30  4990.83  10.56
2367.7  46774.20  4894.40  10.46
2369.9  46258.00  4793.73  10.36
2372.2  45660.27  4697.51  10.29
2374.5  45079.65  4604.60  10.21
2376.7  44445.37  4495.65  10.12
2379.0  43857.67  4389.65  10.01
2381.3  43248.33  4277.78  9.89
2383.5  42732.80  4177.07  9.77
2385.8  42136.43  4067.34  9.65
2388.0  41630.40  3984.47  9.57
2390.3  41118.00  3900.18  9.49
2392.5  40632.00  3808.00  9.37
2394.8  40184.10  3718.73  9.25
2397.0  39712.40  3619.78  9.11
2399.3  39254.70  3545.35  9.03
2401.5  38795.75  3462.67  8.93
2403.8  38255.57  3362.45  8.79
2406.0  37746.67  3278.00  8.68
2408.2  37350.13  3199.78  8.57
2410.4  36950.67  3120.84  8.45
2412.7  36531.30  3036.95  8.31
2414.9  36166.35  2968.53  8.21
2417.1  35763.20  2887.13  8.07
2419.3  35353.60  2803.20  7.93
2421.6  34978.33  2729.72  7.80
2423.8  34608.03  2671.13  7.72
2426.0  34237.05  2601.00  7.60
2428.2  33868.80  2543.64  7.51
2430.4  33546.50  2474.63  7.38
2432.6  33280.00  2408.89  7.24
2434.8  32975.57  2348.08  7.12
2437.0  32629.57  2283.67  7.00
2439.2  32291.32  2212.23  6.85
2441.4  31970.17  2154.07  6.74
2443.6  31723.07  2104.74  6.63
2445.7  31445.75  2059.36  6.55
2447.9  31145.50  2008.64  6.45
2450.1  30839.75  1948.27  6.32
2452.3  30477.88  1901.04  6.24
2454.5  30125.40  1839.11  6.10
2456.6  29746.00  1783.33  6.00
2458.8  29386.50  1730.30  5.89
2461.0  29078.42  1686.75  5.80
2463.1  28794.45  1644.15  5.71
2465.3  28535.00  1604.79  5.62
2467.5  28275.75  1578.25  5.58
2469.6  28013.50  1541.39  5.50
2471.8  27690.73  1491.66  5.39
2473.9  27391.33  1463.08  5.34
2476.1  27027.00  1415.56  5.24
2478.2  26688.80  1381.16  5.18
2480.4  26386.65  1340.57  5.08
2482.5  26042.97  1305.76  5.01
2484.6  25696.92  1272.64  4.95
2486.8  25402.60  1256.00  4.94
2488.9  25079.72  1225.84  4.89
2491.1  24720.27  1200.58  4.86
2493.2  24333.20  1165.57  4.79
2495.3  23937.77  1154.40  4.82
2497.4  23618.70  1121.63  4.75
2499.5  23304.00  1095.07  4.70
2501.7  23171.00  1079.12  4.66
2503.8  23035.57  1086.58  4.72
2505.9  22960.00  1059.17  4.61
2508.0  22929.32  1051.00  4.58
2510.1  22926.43  1055.12  4.60
2512.2  23047.60  1045.95  4.54
2514.3  23159.67  1050.41  4.54
2516.4  23246.00  1096.63  4.72
