/*** Spectra Vista SIG Data ***/
name= 8_20221020_ACSA_07_avg.sig
comm= Averaged Ref/Tar of files: HR.102022.0022_moc.sig,HR.102022.0023_moc.sig,HR.102022.0024_moc.sig
data=
337.3  3027.13  235.37  7.78
338.8  3126.50  241.87  7.74
340.3  3279.50  228.00  6.95
341.8  3475.10  223.84  6.44
343.2  3640.80  224.54  6.17
344.7  3795.85  218.53  5.76
346.2  3921.60  214.76  5.48
347.7  4168.45  219.47  5.27
349.2  4347.00  214.56  4.94
350.6  4590.63  214.40  4.67
352.1  4858.60  218.77  4.50
353.6  5100.90  214.81  4.21
355.1  5354.33  222.57  4.16
356.6  5637.30  230.36  4.09
358.0  5901.50  234.54  3.97
359.5  6180.00  234.25  3.79
361.0  6523.65  234.56  3.60
362.5  6850.35  240.62  3.51
364.0  7168.75  247.70  3.46
365.4  7502.70  258.25  3.44
366.9  7845.50  269.93  3.44
368.4  8182.50  277.17  3.39
369.9  8539.90  289.30  3.39
371.3  8944.50  303.11  3.39
372.8  9372.15  321.89  3.43
374.3  9755.63  322.50  3.31
375.8  10133.20  332.13  3.28
377.2  10517.90  338.43  3.22
378.7  10948.30  341.76  3.12
380.2  11298.00  346.11  3.06
381.7  11782.90  357.24  3.03
383.1  12262.25  365.75  2.98
384.6  12759.18  372.26  2.92
386.1  13188.20  379.13  2.87
387.6  13636.70  382.43  2.80
389.0  14070.00  388.98  2.76
390.5  14522.85  398.25  2.74
392.0  15050.05  414.63  2.76
393.4  15607.35  425.41  2.73
394.9  16129.80  433.51  2.69
396.4  16637.63  440.61  2.65
397.9  17143.13  451.98  2.64
399.3  17676.85  463.08  2.62
400.8  18220.18  474.29  2.60
402.2  18829.85  485.39  2.58
403.7  19404.45  496.17  2.56
405.2  19981.70  510.03  2.55
406.6  20555.20  522.33  2.54
408.1  21131.00  532.07  2.52
409.6  21708.55  542.27  2.50
411.0  22332.10  556.32  2.49
412.5  22969.98  568.82  2.48
414.0  23594.25  584.86  2.48
415.4  24267.38  597.96  2.46
416.9  24903.30  620.84  2.49
418.4  25566.08  635.84  2.49
419.8  26280.80  652.60  2.48
421.3  26969.23  671.92  2.49
422.7  27718.20  696.83  2.51
424.2  28468.13  719.84  2.53
425.7  29193.30  744.68  2.55
427.1  29925.08  769.40  2.57
428.6  30705.50  794.48  2.59
430.0  31427.43  819.02  2.61
431.5  32267.85  843.62  2.61
432.9  33109.00  871.61  2.63
434.4  33964.58  900.70  2.65
435.9  34776.00  929.87  2.67
437.3  35598.75  958.96  2.69
438.8  36421.73  987.49  2.71
440.2  37258.38  1013.71  2.72
441.7  38176.60  1048.26  2.75
443.1  39061.00  1074.13  2.75
444.6  39994.30  1108.39  2.77
446.0  40923.15  1141.68  2.79
447.5  41838.23  1172.24  2.80
448.9  42737.70  1202.40  2.81
450.4  43719.20  1232.59  2.82
451.8  44577.00  1260.38  2.83
453.3  45461.78  1295.42  2.85
454.7  46441.88  1329.93  2.86
456.2  47279.38  1355.88  2.87
457.6  48214.80  1387.55  2.88
459.1  49169.25  1419.81  2.89
460.5  50089.38  1450.61  2.90
462.0  51124.50  1484.79  2.90
463.4  52128.50  1516.00  2.91
464.8  53085.75  1548.32  2.92
466.3  54052.35  1579.08  2.92
467.7  55005.10  1612.32  2.93
469.2  56046.65  1646.37  2.94
470.6  57014.90  1677.84  2.94
472.0  58031.23  1709.91  2.95
473.5  59014.25  1741.95  2.95
474.9  60021.00  1775.28  2.96
476.4  61156.80  1810.70  2.96
477.8  62190.50  1844.68  2.97
479.2  63176.50  1874.09  2.97
480.7  64240.05  1911.39  2.98
482.1  65342.90  1946.76  2.98
483.6  66498.90  1988.73  2.99
485.0  67554.83  2026.22  3.00
486.4  68705.10  2065.82  3.01
487.9  69746.63  2110.88  3.03
489.3  70871.43  2161.35  3.05
490.7  71916.90  2211.13  3.07
492.2  73117.80  2272.34  3.11
493.6  74202.25  2329.77  3.14
495.0  75289.50  2396.55  3.18
496.5  76427.40  2467.64  3.23
497.9  77498.68  2542.83  3.28
499.3  78643.33  2633.11  3.35
500.7  79886.45  2732.15  3.42
502.2  81000.80  2839.49  3.51
503.6  82241.80  2962.27  3.60
505.0  83285.25  3102.17  3.72
506.5  84557.33  3259.51  3.85
507.9  85718.15  3431.92  4.00
509.3  87053.60  3631.92  4.17
510.7  88261.88  3848.33  4.36
512.2  89629.20  4095.74  4.57
513.6  91079.45  4369.23  4.80
515.0  92476.73  4667.83  5.05
516.4  93810.15  4985.82  5.31
517.8  95414.38  5337.63  5.59
519.3  96723.40  5694.75  5.89
520.7  98265.70  6080.71  6.19
522.1  99543.93  6466.30  6.50
523.5  100858.40  6868.85  6.81
524.9  102295.35  7277.91  7.11
526.3  103678.75  7676.02  7.40
527.8  105138.00  8080.38  7.69
529.2  106222.10  8461.07  7.97
530.6  107768.10  8878.22  8.24
532.0  109382.00  9291.33  8.49
533.4  110676.98  9657.00  8.73
534.8  111539.65  9972.28  8.94
536.3  113081.40  10334.86  9.14
537.7  114975.00  10723.80  9.33
539.1  116360.33  11059.75  9.50
540.5  117535.70  11367.17  9.67
541.9  119233.65  11725.43  9.83
543.3  120530.48  12040.54  9.99
544.7  121820.40  12355.10  10.14
546.1  123585.28  12716.70  10.29
547.5  124790.40  13012.16  10.43
549.0  126434.00  13346.25  10.56
550.4  127903.75  13657.78  10.68
551.8  129425.93  13957.25  10.78
553.2  130916.55  14239.02  10.88
554.6  132215.20  14475.22  10.95
556.0  133701.30  14709.72  11.00
557.4  135278.15  14935.36  11.04
558.8  136889.10  15155.16  11.07
560.2  138319.50  15338.40  11.09
561.6  139955.63  15526.50  11.09
563.0  141517.25  15683.27  11.08
564.4  143079.10  15830.23  11.06
565.8  144574.38  15959.16  11.04
567.2  146296.75  16096.03  11.00
568.6  147758.63  16191.01  10.96
570.0  149161.23  16242.27  10.89
571.4  150854.60  16299.80  10.80
572.8  152568.25  16349.83  10.72
574.2  154156.80  16387.41  10.63
575.6  155677.50  16423.39  10.55
577.0  157183.00  16468.83  10.48
578.4  158863.25  16543.69  10.41
579.8  160374.60  16611.65  10.36
581.2  162050.00  16709.12  10.31
582.5  163449.00  16786.49  10.27
583.9  164940.40  16884.56  10.24
585.3  166699.58  17016.98  10.21
586.7  168169.63  17127.15  10.18
588.1  169628.75  17250.64  10.17
589.5  171255.00  17399.32  10.16
590.9  172843.60  17555.09  10.16
592.3  174608.15  17742.12  10.16
593.7  176030.40  17909.17  10.17
595.0  177626.25  18094.24  10.19
596.4  179059.65  18265.54  10.20
597.8  180526.53  18427.91  10.21
599.2  182028.00  18587.36  10.21
600.6  183751.75  18744.85  10.20
602.0  185023.35  18836.04  10.18
603.3  186773.20  18947.16  10.14
604.7  188414.15  19008.51  10.09
606.1  189874.20  19021.26  10.02
607.5  191482.68  19012.27  9.93
608.9  193145.35  18980.35  9.83
610.2  194495.18  18895.68  9.72
611.6  196066.28  18816.10  9.60
613.0  197603.75  18721.15  9.47
614.4  198971.25  18606.95  9.35
615.8  200406.38  18503.13  9.23
617.1  201919.20  18422.74  9.12
618.5  203500.00  18369.90  9.03
619.9  205024.73  18334.58  8.94
621.3  206602.88  18338.95  8.88
622.6  208162.50  18376.10  8.83
624.0  209610.15  18436.41  8.80
625.4  211032.53  18529.49  8.78
626.8  212550.98  18656.97  8.78
628.1  213796.83  18780.36  8.78
629.5  215552.10  18964.88  8.80
630.9  217068.50  19117.91  8.81
632.2  218349.43  19229.60  8.81
633.6  219867.88  19311.62  8.78
635.0  221312.40  19314.78  8.73
636.3  222789.40  19231.34  8.63
637.7  224120.13  19041.51  8.50
639.1  225715.00  18766.67  8.31
640.4  227159.10  18394.96  8.10
641.8  228338.25  17929.06  7.85
643.2  229872.83  17452.49  7.59
644.5  231227.50  16940.69  7.33
645.9  232783.65  16445.10  7.06
647.2  233783.20  15954.51  6.82
648.6  235244.25  15551.81  6.61
650.0  236563.20  15201.05  6.43
651.3  237585.43  14897.98  6.27
652.7  239766.10  14702.61  6.13
654.0  241846.90  14510.31  6.00
655.4  243168.68  14252.81  5.86
656.8  243321.30  13883.75  5.71
658.1  244660.60  13534.82  5.53
659.5  246835.05  13189.82  5.34
660.8  248152.50  12771.64  5.15
662.2  249110.40  12299.52  4.94
663.5  250582.95  11861.22  4.73
664.9  251608.50  11446.54  4.55
666.2  252347.40  11067.65  4.39
667.6  254036.18  10791.91  4.25
668.9  254937.95  10564.44  4.14
670.3  256753.13  10424.62  4.06
671.6  257756.25  10319.31  4.00
673.0  258928.88  10279.91  3.97
674.3  260183.30  10291.44  3.96
675.7  261500.45  10353.38  3.96
677.0  262560.03  10456.84  3.98
678.4  263903.55  10626.12  4.03
679.7  264960.75  10847.84  4.09
681.1  266246.58  11166.17  4.19
682.4  267365.80  11612.60  4.34
683.8  268537.10  12240.24  4.56
685.1  269548.88  13111.06  4.86
686.4  270884.40  14332.74  5.29
687.8  272139.75  15963.21  5.87
689.1  273207.75  18079.29  6.62
690.5  274592.10  20770.18  7.56
691.8  275408.65  24037.55  8.73
693.1  276737.70  27976.20  10.11
694.5  277936.75  32444.97  11.67
695.8  279210.75  37337.30  13.37
697.1  280393.75  42536.87  15.17
698.5  281457.30  47932.67  17.03
699.8  282507.83  53415.18  18.91
701.1  283686.93  58903.60  20.76
702.5  284468.25  64197.70  22.57
703.8  285412.50  69330.00  24.29
705.1  286569.08  74259.00  25.91
706.5  287585.88  78898.51  27.43
707.8  288560.85  83248.85  28.85
709.1  289398.98  87283.95  30.16
710.5  290492.90  91162.97  31.38
711.8  291327.20  94725.94  32.52
713.1  292308.40  98130.41  33.57
714.4  293222.70  101297.86  34.55
715.8  294025.50  104266.09  35.46
717.1  295332.90  107233.17  36.31
718.4  296284.80  109908.27  37.10
719.7  297366.73  112475.39  37.82
721.0  297900.00  114696.00  38.50
722.4  298652.20  116862.05  39.13
723.7  299568.90  118982.17  39.72
725.0  300560.85  121007.38  40.26
726.3  301495.43  122892.63  40.76
727.6  302020.40  124496.03  41.22
729.0  302930.95  126151.47  41.64
730.3  303722.78  127659.81  42.03
731.6  304584.55  129117.47  42.39
732.9  305344.73  130453.27  42.72
734.2  306142.38  131719.68  43.03
735.5  307118.88  132996.01  43.30
736.8  307910.40  134118.30  43.56
738.1  308716.30  135193.42  43.79
739.5  309657.58  136256.75  44.00
740.8  310343.00  137160.00  44.20
742.1  311025.35  138039.46  44.38
743.4  311700.00  138871.91  44.55
744.7  312572.80  139756.02  44.71
746.0  313452.75  140576.13  44.85
747.3  314034.08  141227.64  44.97
748.6  314768.00  141916.10  45.09
749.9  315432.00  142552.06  45.19
751.2  316022.75  143167.76  45.30
752.5  316833.40  143818.03  45.39
753.8  317358.83  144325.62  45.48
755.1  318006.00  144859.87  45.55
756.4  318557.40  145324.43  45.62
757.7  319496.98  145953.20  45.68
759.0  321230.03  146921.69  45.74
760.3  322317.60  147600.64  45.79
761.6  323828.40  148443.45  45.84
762.9  324317.00  148814.84  45.89
764.2  324656.10  149098.76  45.93
765.5  324921.58  149328.31  45.96
766.8  325284.80  149615.02  46.00
768.1  325758.60  149944.28  46.03
769.3  326297.65  150294.87  46.06
770.6  326931.15  150672.59  46.09
771.9  327590.73  151071.94  46.12
773.2  327934.80  151302.76  46.14
774.5  328471.00  151637.47  46.16
775.8  329120.80  151995.26  46.18
777.1  329628.20  152317.08  46.21
778.4  329883.68  152522.95  46.24
779.6  330601.45  152919.84  46.26
780.9  330990.00  153184.86  46.28
782.2  331419.00  153445.57  46.30
783.5  331657.00  153626.47  46.32
784.8  332108.55  153898.36  46.34
786.0  332463.95  154115.37  46.36
787.3  332816.65  154329.42  46.37
788.6  333175.93  154564.33  46.39
789.9  333559.80  154811.16  46.41
791.2  334154.35  155133.63  46.43
792.4  334762.20  155458.91  46.44
793.7  335202.40  155706.66  46.45
795.0  335746.95  156016.36  46.47
796.2  336329.08  156336.87  46.48
797.5  336901.95  156678.54  46.51
798.8  337525.95  157015.61  46.52
800.0  338127.65  157330.83  46.53
801.3  338545.80  157546.93  46.54
802.6  339097.05  157841.87  46.55
803.8  339705.15  158170.77  46.56
805.1  340054.75  158405.19  46.58
806.4  340461.60  158641.14  46.60
807.7  340926.98  158910.91  46.61
808.9  341435.70  159176.04  46.62
810.2  341949.30  159420.78  46.62
811.4  342373.80  159668.65  46.64
812.7  342956.25  159995.95  46.65
814.0  343684.80  160387.81  46.67
815.2  344270.50  160709.67  46.68
816.5  344668.08  160925.63  46.69
817.7  345113.90  161155.18  46.70
819.0  345557.85  161410.96  46.71
820.2  345708.00  161505.98  46.72
821.5  346350.05  161844.34  46.73
822.7  346715.95  162040.95  46.74
824.0  347004.00  162211.47  46.75
825.2  347449.50  162444.73  46.75
826.5  347754.90  162625.10  46.76
827.7  348277.30  162906.75  46.78
829.0  348676.10  163104.85  46.78
830.2  349018.10  163264.12  46.78
831.5  349495.35  163508.10  46.78
832.7  349752.90  163666.65  46.79
834.0  350126.53  163855.44  46.80
835.2  350499.33  164057.09  46.81
836.4  350776.25  164218.41  46.82
837.7  351161.80  164436.61  46.83
838.9  351653.88  164678.97  46.83
840.1  352005.08  164874.64  46.84
841.4  352438.60  165102.12  46.85
842.6  352869.00  165317.91  46.85
843.8  353240.80  165534.40  46.86
845.1  353785.35  165797.90  46.86
846.3  354169.30  166000.78  46.87
847.5  354559.80  166226.26  46.88
848.8  354917.40  166432.11  46.89
850.0  355288.15  166661.53  46.91
851.2  355891.05  166935.14  46.91
852.5  356286.30  167124.27  46.91
853.7  356852.25  167381.16  46.90
854.9  357336.60  167612.60  46.91
856.1  357780.80  167851.94  46.91
857.4  357980.35  167973.46  46.92
858.6  358558.95  168253.31  46.92
859.8  359015.63  168458.36  46.92
861.0  359494.20  168676.56  46.92
862.2  359923.80  168905.34  46.93
863.5  360274.20  169083.57  46.93
864.7  360749.40  169352.29  46.94
865.9  361201.40  169548.41  46.94
867.1  361555.40  169730.06  46.94
868.3  361974.60  169952.27  46.95
869.5  362439.15  170181.52  46.95
870.8  362992.50  170417.23  46.95
872.0  363427.50  170662.90  46.96
873.2  363944.55  170874.60  46.95
874.4  364390.65  171100.47  46.96
875.6  364811.08  171277.68  46.95
876.8  365263.85  171505.68  46.95
878.0  365792.00  171727.06  46.95
879.2  366304.80  171957.66  46.94
880.4  366779.25  172186.26  46.95
881.6  367224.65  172397.68  46.95
882.8  367737.60  172577.75  46.93
884.0  368290.05  172869.66  46.94
885.2  368778.50  173052.15  46.93
886.5  369349.45  173316.73  46.92
887.7  369732.68  173510.76  46.93
888.8  370393.95  173807.60  46.93
890.0  370909.40  174051.65  46.93
891.2  371520.50  174288.25  46.91
892.4  372117.90  174556.40  46.91
893.6  372585.45  174785.32  46.91
894.8  373405.00  175163.35  46.91
896.0  374271.75  175509.92  46.89
897.2  374991.50  175895.11  46.91
898.4  375747.90  176211.26  46.90
899.6  376339.13  176423.28  46.88
900.8  376683.53  176547.72  46.87
902.0  376784.85  176619.27  46.88
903.2  377124.38  176736.58  46.86
904.3  377312.70  176859.40  46.87
905.5  377911.28  177121.86  46.87
906.7  378409.00  177374.56  46.87
907.9  378958.65  177555.82  46.85
909.1  379168.43  177625.90  46.85
910.2  379315.28  177676.98  46.84
911.4  379442.70  177743.70  46.84
912.6  379600.65  177824.18  46.85
913.8  379902.68  177864.14  46.82
915.0  380222.85  178009.72  46.82
916.2  380250.00  178048.74  46.82
917.3  380157.53  177966.02  46.81
918.5  380282.30  177999.10  46.81
919.7  380442.60  178053.55  46.80
920.8  380584.53  178030.53  46.78
922.0  380668.75  178040.68  46.77
923.2  380835.00  178064.90  46.76
924.4  380808.00  178075.45  46.76
925.5  381054.80  178136.90  46.75
926.7  381565.00  178334.86  46.74
927.9  382322.40  178674.65  46.73
929.0  383767.20  179249.72  46.71
930.2  385757.00  180177.18  46.71
931.4  388118.93  181206.81  46.69
932.5  390592.25  182333.04  46.68
933.7  391939.50  182873.24  46.66
934.9  392385.00  183018.96  46.64
936.0  391930.50  182700.82  46.62
937.2  389800.20  181642.04  46.60
938.3  388122.30  180749.64  46.57
939.5  386622.00  179922.45  46.54
940.7  386775.00  179884.35  46.51
941.8  388040.10  180428.79  46.50
943.0  389151.75  180941.78  46.50
944.2  389957.75  181171.40  46.46
945.3  389395.50  180823.41  46.44
946.5  388623.15  180328.07  46.40
947.6  388646.60  180258.72  46.38
948.8  388244.03  180018.24  46.37
949.9  388285.80  179885.92  46.33
951.1  388015.88  179513.80  46.26
952.2  387804.00  179211.09  46.21
953.4  387557.50  178825.17  46.14
954.5  387293.40  178578.77  46.11
955.7  387059.40  178261.32  46.06
956.8  386772.50  177947.52  46.01
958.0  386296.00  177630.34  45.98
959.1  385989.75  177308.06  45.94
960.3  385438.10  176931.82  45.90
961.4  385365.65  176678.70  45.85
962.6  385278.25  176590.72  45.83
963.7  384914.93  176299.89  45.80
964.9  384821.33  176131.10  45.77
966.0  384476.63  175961.58  45.77
967.2  384602.40  175913.84  45.74
968.3  383960.25  175687.50  45.76
969.5  383856.48  175495.89  45.72
970.6  383715.53  175448.56  45.72
971.8  383862.85  175397.46  45.69
972.9  383724.53  175244.46  45.67
974.0  383910.20  175250.40  45.65
975.2  383765.63  175133.58  45.64
976.3  383980.28  175062.64  45.59
977.5  383847.63  175012.19  45.59
978.6  383695.90  174931.34  45.59
979.7  383526.68  174893.67  45.60
980.9  383286.25  174808.59  45.61
982.0  383000.10  174669.80  45.61
983.2  382682.83  174546.58  45.61
984.3  382291.40  174326.74  45.60
985.4  382438.08  174283.32  45.57
986.6  381985.75  174183.40  45.60
987.7  382856.08  174454.66  45.57
988.9  381927.60  174391.94  45.66
990.0  382770.20  174696.51  45.64
993.1  387713.84  176584.10  45.54
996.9  386140.25  176164.73  45.62
1000.7  385980.06  176374.16  45.70
1004.5  385981.08  176657.44  45.77
1008.4  385582.79  176791.94  45.85
1012.2  385409.13  176951.78  45.91
1016.0  384958.20  176977.03  45.97
1019.8  384158.78  176790.08  46.02
1023.7  382717.59  176282.40  46.06
1027.5  380829.82  175541.27  46.09
1031.3  379565.85  175052.60  46.12
1035.1  378386.98  174605.01  46.14
1038.9  377818.28  174448.71  46.17
1042.7  377556.92  174410.93  46.19
1046.5  377443.67  174412.26  46.21
1050.3  377406.82  174443.64  46.22
1054.2  377059.67  174339.08  46.24
1058.0  376735.10  174187.67  46.24
1061.8  376695.33  174191.60  46.24
1065.6  375987.30  173824.35  46.23
1069.4  375043.80  173318.47  46.21
1073.2  373576.37  172577.60  46.20
1077.0  372910.50  172189.09  46.17
1080.8  373254.17  172260.86  46.15
1084.6  373598.87  172325.65  46.13
1088.4  374034.43  172470.65  46.11
1092.2  373639.50  172157.14  46.08
1096.0  372933.63  171694.92  46.04
1099.8  372190.65  171192.05  46.00
1103.6  371192.82  170573.47  45.95
1107.4  369990.83  169813.59  45.90
1111.2  369656.50  169460.69  45.84
1114.9  369083.17  168992.42  45.79
1118.7  368844.30  168569.42  45.70
1122.5  368530.07  168058.68  45.60
1126.3  367645.08  167227.73  45.49
1130.1  367292.83  166452.24  45.32
1133.9  365630.30  164864.60  45.09
1137.7  364091.90  163143.60  44.81
1141.4  362015.98  161049.04  44.49
1145.2  361065.53  159288.67  44.12
1149.0  359776.67  157501.46  43.78
1152.8  357988.10  155625.95  43.47
1156.6  356167.35  154005.13  43.24
1160.3  354390.67  152639.52  43.07
1164.1  352110.33  151250.62  42.96
1167.9  350534.38  150307.74  42.88
1171.7  349224.75  149573.25  42.83
1175.4  347727.23  148784.93  42.79
1179.2  346291.78  147999.15  42.74
1183.0  346006.67  147686.76  42.68
1186.7  346123.63  147587.93  42.64
1190.5  345905.53  147371.07  42.60
1194.3  344993.27  146844.08  42.56
1198.0  343447.78  146112.61  42.54
1201.8  341749.30  145376.35  42.54
1205.6  340695.00  145042.24  42.57
1209.3  340201.53  145045.80  42.64
1213.1  339777.30  145101.74  42.70
1216.8  339183.35  145136.39  42.79
1220.6  338040.27  144903.73  42.87
1224.3  336737.25  144594.26  42.94
1228.1  335212.60  144183.57  43.01
1231.9  333565.33  143665.93  43.07
1235.6  331828.28  143067.31  43.11
1239.4  330277.13  142569.05  43.17
1243.1  328879.78  142083.51  43.20
1246.9  327595.53  141603.94  43.23
1250.6  326548.07  141201.94  43.24
1254.3  325402.83  140742.26  43.25
1258.1  324164.28  140213.57  43.25
1261.8  322714.13  139576.14  43.25
1265.6  321654.82  139084.36  43.24
1269.3  321033.40  138760.82  43.22
1273.1  321404.47  138810.08  43.19
1276.8  320980.80  138462.86  43.14
1280.6  319608.27  137690.43  43.08
1284.3  317536.80  136583.89  43.01
1288.0  316387.67  135861.54  42.94
1291.8  316111.56  135457.82  42.85
1295.5  315503.47  134870.06  42.75
1299.2  314348.67  133991.35  42.63
1302.9  312666.13  132811.31  42.48
1306.7  310829.87  131499.32  42.31
1310.4  309060.35  130096.96  42.09
1314.1  307452.75  128702.56  41.86
1317.9  306037.29  127272.02  41.59
1321.6  304456.19  125689.34  41.28
1325.3  302749.13  123959.78  40.94
1329.0  301479.03  122338.72  40.58
1332.8  299560.80  120375.20  40.18
1336.5  297913.73  118502.05  39.78
1340.2  297767.17  117225.33  39.37
1343.9  297657.50  115957.02  38.96
1347.6  297644.25  114736.11  38.55
1351.4  298964.00  114057.86  38.15
1355.1  300812.23  113592.08  37.76
1358.8  302432.00  112973.71  37.36
1362.5  302682.78  111681.44  36.90
1366.2  300874.50  109404.71  36.36
1369.9  297767.38  106360.23  35.72
1373.6  294825.42  102948.38  34.92
1377.3  293243.70  99395.44  33.90
1381.0  292729.83  95427.21  32.60
1384.8  290923.75  90185.18  31.00
1388.4  287731.97  83969.58  29.18
1392.2  285479.17  77652.63  27.20
1395.9  284043.13  71462.34  25.16
1399.6  282295.03  65481.54  23.20
1403.3  280908.05  60142.81  21.41
1407.0  279287.30  55486.04  19.87
1410.7  277557.23  51637.93  18.60
1414.3  275720.43  48576.10  17.62
1418.1  274087.83  46285.69  16.89
1421.7  272713.47  44596.04  16.35
1425.4  271345.10  43361.36  15.98
1429.1  270061.88  42507.48  15.74
1432.8  268382.35  41873.25  15.60
1436.5  267604.88  41576.14  15.54
1440.2  267077.30  41474.05  15.53
1443.9  266038.39  41395.95  15.56
1447.6  264510.40  41327.00  15.62
1451.2  263293.98  41345.86  15.70
1454.9  261837.45  41374.65  15.80
1458.6  260602.90  41555.98  15.95
1462.3  259385.13  41865.69  16.14
1466.0  258003.62  42316.24  16.40
1469.7  256271.06  42875.45  16.73
1473.3  255207.50  43684.17  17.12
1477.0  253174.50  44430.79  17.55
1480.7  251522.32  45294.82  18.01
1484.4  249502.71  46105.62  18.48
1488.0  247910.67  47025.52  18.97
1491.7  246336.52  47921.12  19.45
1495.4  244696.47  48807.85  19.95
1499.0  243179.50  49672.86  20.43
1502.7  241897.25  50577.79  20.91
1506.4  240487.73  51408.99  21.38
1510.0  239032.60  52192.05  21.83
1513.7  237513.21  52913.88  22.28
1517.4  236141.67  53631.24  22.71
1521.0  234872.13  54333.58  23.13
1524.7  233628.42  54975.30  23.53
1528.3  232328.00  55571.78  23.92
1532.0  231075.72  56135.93  24.29
1535.7  229697.78  56598.60  24.64
1539.3  228430.55  57056.06  24.98
1543.0  227439.30  57558.24  25.31
1546.6  226727.58  58091.74  25.62
1550.3  225713.25  58508.21  25.92
1553.9  224645.60  58873.84  26.21
1557.6  223393.13  59158.94  26.48
1561.2  222111.90  59385.15  26.74
1564.9  220790.97  59584.90  26.99
1568.5  219453.85  59745.93  27.22
1572.2  218280.80  59931.28  27.46
1575.8  217168.00  60114.00  27.68
1579.5  216156.95  60291.03  27.89
1583.1  215078.47  60441.64  28.10
1586.8  213738.00  60482.00  28.30
1590.4  212478.70  60523.76  28.48
1594.0  211157.81  60543.68  28.67
1597.7  210421.38  60715.24  28.85
1601.3  209563.20  60845.18  29.03
1604.9  208641.22  60924.31  29.20
1608.6  207233.00  60833.49  29.36
1612.2  205802.85  60702.20  29.50
1615.8  204328.48  60531.71  29.62
1619.5  203044.17  60400.32  29.75
1623.1  201706.60  60228.26  29.86
1626.7  200471.38  60062.55  29.96
1630.3  199286.67  59881.43  30.05
1634.0  198170.00  59696.00  30.12
1637.6  197158.40  59506.02  30.18
1641.2  196138.00  59248.85  30.21
1644.8  194906.63  58874.08  30.21
1648.5  193816.78  58512.63  30.19
1652.1  192831.60  58142.36  30.15
1655.7  191913.00  57769.66  30.10
1659.3  191080.87  57446.43  30.06
1662.9  189649.17  56966.19  30.04
1666.6  188197.93  56493.74  30.02
1670.2  186764.96  56016.44  29.99
1673.8  185291.64  55488.95  29.95
1677.4  184111.20  54999.73  29.87
1681.0  183284.65  54542.64  29.76
1684.6  182872.08  54122.25  29.60
1688.2  182181.25  53517.32  29.38
1691.8  181508.29  52924.18  29.16
1695.4  181064.20  52412.20  28.95
1699.0  180677.93  51937.43  28.75
1702.6  180327.67  51430.05  28.52
1706.2  179686.33  50787.32  28.26
1709.8  178730.07  50071.32  28.02
1713.4  177973.33  49509.73  27.82
1717.0  177073.75  49026.89  27.69
1720.6  176236.20  48639.30  27.60
1724.2  175503.08  48307.96  27.53
1727.8  174790.70  48005.20  27.46
1731.4  174315.63  47756.11  27.40
1735.0  174154.75  47567.30  27.31
1738.6  173951.55  47292.45  27.19
1742.2  173414.18  46863.97  27.02
1745.8  172802.44  46376.30  26.84
1749.4  171860.70  45775.48  26.64
1753.0  170369.60  45044.45  26.44
1756.6  168712.25  44299.17  26.26
1760.1  167365.93  43682.54  26.10
1763.7  165630.67  42983.72  25.95
1767.3  164163.15  42375.10  25.81
1770.9  162882.94  41809.08  25.67
1774.5  161375.62  41209.01  25.54
1778.0  160196.13  40754.90  25.44
1781.6  159090.15  40396.39  25.39
1785.2  157927.78  40086.70  25.38
1788.8  156738.00  39816.54  25.40
1792.3  155456.17  39528.32  25.43
1795.9  154885.68  39410.80  25.45
1799.5  154708.33  39403.91  25.47
1803.1  155880.43  39775.87  25.52
1806.6  158117.11  40406.83  25.55
1810.2  159826.10  40874.07  25.57
1813.8  160418.45  41029.40  25.58
1817.3  159728.00  40839.37  25.57
1820.9  158305.05  40444.31  25.55
1824.5  156808.48  40018.84  25.52
1828.0  155565.67  39620.56  25.47
1831.6  154965.10  39360.56  25.40
1835.2  154657.50  39120.24  25.29
1838.7  154416.67  38812.30  25.13
1842.3  154260.00  38449.29  24.92
1845.8  153130.75  37722.36  24.63
1849.4  152521.60  36991.88  24.25
1852.9  151712.58  36043.00  23.76
1856.5  150723.07  34848.84  23.12
1860.0  149678.63  33401.78  22.32
1863.6  149542.02  31909.21  21.34
1867.1  150011.05  30257.50  20.17
1870.7  150864.18  28295.22  18.76
1874.2  150016.95  25671.86  17.11
1877.8  147548.67  22658.60  15.36
1881.3  144679.00  19569.55  13.53
1884.9  142760.84  16771.99  11.75
1888.4  141184.14  14227.77  10.08
1891.9  139458.87  12055.06  8.64
1895.5  137937.35  10337.12  7.49
1899.0  137086.13  9107.80  6.64
1901.3  175947.00  8275.78  4.70
1904.1  175794.75  7449.75  4.24
1906.8  174699.00  6749.20  3.86
1909.6  172483.85  6229.07  3.61
1912.4  170422.93  5838.23  3.43
1915.1  168925.35  5569.12  3.30
1917.9  167390.67  5361.22  3.20
1920.6  166106.00  5213.59  3.14
1923.3  164838.33  5108.05  3.10
1926.1  163185.37  5043.60  3.09
1928.8  161670.67  5011.11  3.10
1931.6  160508.22  5010.84  3.12
1934.3  159461.30  5028.88  3.15
1937.0  158433.90  5080.91  3.21
1939.8  157266.92  5135.28  3.27
1942.5  155749.00  5195.67  3.34
1945.2  153792.65  5249.38  3.41
1947.9  152155.50  5331.04  3.50
1950.7  150865.70  5433.52  3.60
1953.4  148980.00  5532.63  3.71
1956.1  147512.08  5646.86  3.83
1958.8  146197.13  5785.65  3.96
1961.5  144642.40  5924.80  4.10
1964.2  143061.10  6063.63  4.24
1966.9  141433.40  6217.35  4.40
1969.6  140157.00  6381.00  4.55
1972.3  138733.20  6547.43  4.72
1975.0  137661.75  6737.80  4.89
1977.7  136517.27  6932.84  5.08
1980.4  135348.57  7130.22  5.27
1983.1  134236.67  7330.72  5.46
1985.8  133301.40  7534.20  5.65
1988.4  132253.33  7750.89  5.86
1991.1  131313.00  7957.06  6.06
1993.8  130421.87  8177.21  6.27
1996.5  129767.00  8401.25  6.47
1999.1  129069.05  8642.52  6.70
2001.8  128369.03  8872.19  6.91
2004.5  127674.00  9091.15  7.12
2007.1  126921.45  9298.75  7.33
2009.8  126167.53  9505.30  7.53
2012.4  125570.68  9722.47  7.74
2015.1  125010.67  9928.33  7.94
2017.8  124207.77  10115.39  8.14
2020.4  123692.25  10319.89  8.34
2023.1  123335.80  10512.52  8.52
2025.7  123084.00  10717.78  8.71
2028.3  122737.33  10902.67  8.88
2031.0  122339.48  11068.35  9.05
2033.6  122061.00  11234.60  9.20
2036.2  121800.00  11391.20  9.35
2038.9  121182.30  11510.10  9.50
2041.5  120821.72  11639.66  9.63
2044.1  120251.40  11742.10  9.76
2046.8  119877.30  11855.20  9.89
2049.4  119233.50  11927.70  10.00
2052.0  118930.53  12040.36  10.12
2054.6  118527.50  12136.25  10.24
2057.2  117943.67  12206.29  10.35
2059.8  117611.80  12305.27  10.46
2062.4  116707.45  12339.90  10.57
2065.0  116162.07  12412.98  10.69
2067.6  115260.48  12441.59  10.79
2070.2  114650.32  12496.79  10.90
2072.8  114014.00  12546.19  11.00
2075.4  113557.50  12608.75  11.10
2078.0  112909.75  12653.86  11.21
2080.6  112340.80  12704.27  11.31
2083.2  111643.50  12740.89  11.41
2085.8  111144.30  12785.61  11.50
2088.4  110469.67  12817.17  11.60
2090.9  109661.70  12828.25  11.70
2093.5  108759.27  12819.79  11.79
2096.1  107964.73  12826.59  11.88
2098.7  107183.02  12829.52  11.97
2101.2  106223.53  12808.89  12.06
2103.8  105524.87  12820.53  12.15
2106.4  104852.40  12835.09  12.24
2108.9  104197.40  12846.73  12.33
2111.5  103332.80  12829.27  12.42
2114.0  102695.27  12832.18  12.50
2116.6  102147.50  12847.92  12.58
2119.1  101579.37  12857.78  12.66
2121.7  101080.00  12868.33  12.73
2124.2  100685.17  12884.08  12.80
2126.8  99866.50  12852.94  12.87
2129.3  99457.60  12865.60  12.94
2131.9  98859.20  12859.73  13.01
2134.4  98429.70  12870.85  13.08
2136.9  98027.58  12886.76  13.15
2139.4  97497.87  12874.40  13.20
2142.0  97036.80  12880.31  13.27
2144.5  96769.70  12910.93  13.34
2147.0  96524.67  12935.46  13.40
2149.5  96015.47  12935.47  13.47
2152.1  95834.20  12971.93  13.54
2154.6  95771.20  13019.73  13.59
2157.1  95220.58  13004.31  13.66
2159.6  94784.58  13007.33  13.72
2162.1  94612.70  13040.30  13.78
2164.6  94365.60  13057.62  13.84
2167.1  94037.33  13061.76  13.89
2169.6  93687.42  13056.94  13.94
2172.1  93210.50  13046.70  14.00
2174.6  92898.33  13050.56  14.05
2177.1  92443.43  13039.99  14.11
2179.5  92011.40  13034.02  14.17
2182.0  91527.15  13015.20  14.22
2184.5  90990.18  12986.53  14.27
2187.0  90361.90  12945.68  14.33
2189.5  89664.92  12909.98  14.40
2191.9  88863.00  12847.17  14.46
2194.4  88232.45  12803.37  14.51
2196.9  87465.60  12736.00  14.56
2199.3  86787.33  12682.67  14.61
2201.8  85877.20  12585.20  14.65
2204.3  85395.18  12552.25  14.70
2206.7  84759.25  12479.95  14.72
2209.2  84285.07  12433.23  14.75
2211.6  83655.00  12368.40  14.79
2214.1  83351.15  12341.32  14.81
2216.5  82764.53  12270.98  14.83
2219.0  82426.80  12227.94  14.83
2221.4  82050.50  12171.06  14.83
2223.9  81574.50  12091.72  14.82
2226.3  81048.92  11995.86  14.80
2228.7  80489.87  11876.47  14.76
2231.1  79883.10  11734.80  14.69
2233.6  79277.93  11592.20  14.62
2236.0  78708.58  11443.83  14.54
2238.4  78192.92  11285.16  14.43
2240.9  77728.33  11128.65  14.32
2243.3  77182.00  10946.53  14.18
2245.7  76595.10  10752.63  14.04
2248.1  76115.43  10561.34  13.88
2250.5  75593.80  10356.04  13.70
2252.9  74939.37  10129.45  13.52
2255.3  74366.30  9910.20  13.33
2257.7  73900.00  9713.33  13.14
2260.1  73383.80  9511.60  12.96
2262.5  72780.00  9300.00  12.78
2264.9  72229.42  9111.46  12.61
2267.3  71610.00  8920.00  12.46
2269.7  71096.20  8742.38  12.30
2272.1  70527.35  8574.27  12.16
2274.5  69953.22  8415.95  12.03
2276.8  69475.60  8270.43  11.90
2279.2  68882.70  8120.40  11.79
2281.6  68453.33  7989.58  11.67
2284.0  67973.00  7861.17  11.57
2286.3  67498.13  7718.22  11.43
2288.7  67077.62  7579.79  11.30
2291.1  66526.90  7436.22  11.18
2293.4  66076.27  7299.60  11.05
2295.8  65466.80  7151.63  10.92
2298.2  64853.10  7000.05  10.79
2300.5  64170.00  6848.25  10.67
2302.9  63415.67  6689.11  10.55
2305.2  62665.20  6547.37  10.45
2307.6  61982.53  6434.16  10.38
2309.9  61204.33  6320.56  10.33
2312.2  60605.00  6217.22  10.26
2314.6  59988.60  6120.30  10.20
2316.9  59284.80  6016.80  10.15
2319.2  58706.43  5909.00  10.07
2321.6  58053.22  5800.82  9.99
2323.9  57479.17  5701.39  9.92
2326.2  56934.70  5599.22  9.83
2328.6  56419.55  5507.15  9.76
2330.9  55923.00  5421.50  9.69
2333.2  55456.67  5337.53  9.62
2335.5  54998.00  5264.40  9.57
2337.8  54531.32  5179.59  9.50
2340.1  53927.45  5093.33  9.44
2342.4  53484.17  5015.83  9.38
2344.8  53065.92  4934.33  9.30
2347.1  52497.43  4836.30  9.21
2349.4  51932.57  4744.51  9.14
2351.6  51348.68  4656.38  9.07
2353.9  50863.67  4586.19  9.02
2356.2  50336.27  4513.37  8.97
2358.5  49716.80  4431.47  8.91
2360.8  49134.40  4353.07  8.86
2363.1  48680.33  4277.29  8.79
2365.4  48183.20  4203.60  8.72
2367.7  47720.40  4130.60  8.66
2369.9  47185.45  4060.93  8.61
2372.2  46554.67  3982.76  8.56
2374.5  45957.45  3888.50  8.46
2376.7  45328.23  3794.78  8.37
2379.0  44718.53  3707.16  8.29
2381.3  44076.67  3624.44  8.22
2383.5  43554.13  3535.65  8.12
2385.8  42948.33  3451.56  8.04
2388.0  42421.00  3370.87  7.95
2390.3  41877.47  3279.16  7.83
2392.5  41376.00  3192.00  7.71
2394.8  40910.10  3121.80  7.63
2397.0  40440.40  3045.47  7.53
2399.3  39973.52  2968.67  7.43
2401.5  39518.50  2907.33  7.36
2403.8  38982.25  2836.94  7.28
2406.0  38454.42  2764.78  7.19
2408.2  38073.20  2696.95  7.08
2410.4  37649.73  2625.66  6.97
2412.7  37222.47  2555.22  6.86
2414.9  36849.45  2492.05  6.76
2417.1  36436.30  2434.17  6.68
2419.3  36006.40  2372.27  6.59
2421.6  35624.17  2316.39  6.50
2423.8  35243.40  2243.23  6.36
2426.0  34873.23  2185.53  6.27
2428.2  34482.93  2125.51  6.16
2430.4  34181.70  2073.22  6.07
2432.6  33920.00  2022.22  5.96
2434.8  33617.17  1969.35  5.86
2437.0  33247.50  1912.01  5.75
2439.2  32886.05  1865.30  5.67
2441.4  32556.40  1799.60  5.53
2443.6  32317.18  1763.93  5.46
2445.7  32028.85  1716.91  5.36
2447.9  31743.92  1679.28  5.29
2450.1  31457.95  1634.48  5.20
2452.3  31084.90  1590.48  5.12
2454.5  30706.92  1536.53  5.00
2456.6  30316.67  1478.98  4.88
2458.8  29944.20  1434.77  4.79
2461.0  29640.67  1393.61  4.70
2463.1  29347.35  1367.70  4.66
2465.3  29047.17  1336.51  4.60
2467.5  28806.75  1312.75  4.56
2469.6  28565.42  1282.83  4.49
2471.8  28261.37  1256.39  4.45
2473.9  27934.33  1216.72  4.36
2476.1  27573.00  1183.00  4.29
2478.2  27221.97  1147.58  4.22
2480.4  26923.90  1125.67  4.18
2482.5  26600.37  1094.15  4.11
2484.6  26257.92  1070.05  4.08
2486.8  25983.50  1046.67  4.03
2488.9  25679.48  1031.18  4.02
2491.1  25307.33  994.31  3.93
2493.2  24923.97  968.64  3.89
2495.3  24514.97  956.66  3.90
2497.4  24198.30  944.53  3.90
2499.5  23854.23  911.66  3.82
2501.7  23696.87  903.83  3.81
2503.8  23620.65  897.13  3.80
2505.9  23575.00  882.64  3.74
2508.0  23577.43  881.67  3.74
2510.1  23570.23  876.28  3.72
2512.2  23671.50  874.68  3.70
2514.3  23843.07  879.56  3.69
2516.4  24112.80  879.93  3.65
