/*** Spectra Vista SIG Data ***/
name= 22_20220926_CECA_03_avg.sig
comm= Averaged Ref/Tar of files: HR.092622.0062_moc.sig,HR.092622.0063_moc.sig,HR.092622.0064_moc.sig
data=
337.3  3126.38  191.88  6.14
338.8  3270.80  185.99  5.69
340.3  3420.05  187.40  5.48
341.8  3612.28  182.90  5.06
343.2  3774.00  171.68  4.55
344.7  3923.80  159.23  4.06
346.2  4085.00  163.40  4.00
347.7  4247.10  167.79  3.95
349.2  4460.40  156.24  3.50
350.6  4664.08  161.59  3.46
352.1  4930.05  147.66  3.00
353.6  5205.00  157.31  3.02
355.1  5522.70  161.64  2.93
356.6  5801.18  166.06  2.86
358.0  6061.00  165.88  2.74
359.5  6334.50  152.44  2.41
361.0  6643.35  151.62  2.28
362.5  6967.45  160.04  2.30
364.0  7340.80  172.05  2.34
365.4  7699.40  179.84  2.34
366.9  8066.50  187.85  2.33
368.4  8400.70  189.11  2.25
369.9  8783.13  190.98  2.17
371.3  9211.50  202.92  2.20
372.8  9611.10  212.40  2.21
374.3  10051.25  207.83  2.07
375.8  10456.60  215.60  2.06
377.2  10867.60  215.20  1.98
378.7  11298.00  215.20  1.90
380.2  11701.50  215.20  1.84
381.7  12188.28  227.01  1.86
383.1  12693.45  226.38  1.78
384.6  13217.75  233.78  1.77
386.1  13674.65  237.82  1.74
387.6  14121.80  237.16  1.68
389.0  14606.00  232.27  1.59
390.5  15133.50  240.72  1.59
392.0  15711.30  246.87  1.57
393.4  16237.95  259.25  1.60
394.9  16808.40  267.96  1.59
396.4  17362.13  269.10  1.55
397.9  17937.50  269.92  1.50
399.3  18487.25  273.51  1.48
400.8  19042.70  282.48  1.48
402.2  19689.10  294.60  1.50
403.7  20295.23  301.74  1.49
405.2  20905.03  315.67  1.51
406.6  21483.20  315.52  1.47
408.1  22080.20  313.39  1.42
409.6  22696.30  321.93  1.42
411.0  23378.25  327.37  1.40
412.5  24052.88  338.75  1.41
414.0  24694.50  347.73  1.41
415.4  25400.25  357.75  1.41
416.9  26079.08  367.51  1.41
418.4  26798.63  378.48  1.41
419.8  27518.40  390.69  1.42
421.3  28252.63  401.66  1.42
422.7  29023.20  419.92  1.45
424.2  29784.38  438.75  1.47
425.7  30562.50  460.75  1.51
427.1  31349.33  472.64  1.51
428.6  32147.00  489.80  1.52
430.0  32914.58  507.86  1.54
431.5  33790.20  527.35  1.56
432.9  34661.90  552.79  1.59
434.4  35554.65  576.82  1.62
435.9  36400.00  599.20  1.65
437.3  37248.75  617.83  1.66
438.8  38118.60  638.93  1.68
440.2  38996.65  655.78  1.68
441.7  39972.20  686.08  1.72
443.1  40876.25  708.43  1.73
444.6  41867.60  738.84  1.76
446.0  42804.53  761.20  1.78
447.5  43776.98  785.84  1.80
448.9  44724.30  808.40  1.81
450.4  45739.40  833.98  1.82
451.8  46631.00  858.00  1.84
453.3  47553.78  883.87  1.86
454.7  48589.40  908.20  1.87
456.2  49461.50  934.57  1.89
457.6  50431.73  950.49  1.88
459.1  51421.18  975.39  1.90
460.5  52363.13  995.10  1.90
462.0  53450.80  1020.69  1.91
463.4  54498.60  1044.85  1.92
464.8  55500.00  1065.60  1.92
466.3  56478.68  1086.47  1.92
467.7  57454.15  1105.36  1.92
469.2  58537.93  1126.00  1.92
470.6  59529.85  1148.35  1.93
472.0  60592.88  1169.16  1.93
473.5  61613.25  1190.27  1.93
474.9  62671.50  1216.00  1.94
476.4  63835.20  1244.16  1.95
477.8  64902.00  1268.27  1.95
479.2  65902.50  1289.53  1.96
480.7  67019.25  1308.54  1.95
482.1  68175.10  1335.18  1.96
483.6  69374.45  1367.93  1.97
485.0  70478.78  1393.46  1.98
486.4  71687.85  1425.90  1.99
487.9  72774.00  1452.75  2.00
489.3  73948.95  1488.21  2.01
490.7  75009.15  1525.51  2.03
492.2  76248.90  1568.00  2.06
493.6  77366.65  1607.59  2.08
495.0  78477.75  1655.55  2.11
496.5  79670.58  1706.21  2.14
497.9  80785.88  1762.96  2.18
499.3  81974.55  1821.66  2.22
500.7  83255.95  1890.83  2.27
502.2  84417.20  1966.13  2.33
503.6  85687.40  2053.73  2.40
505.0  86757.30  2148.67  2.48
506.5  88088.55  2263.53  2.57
507.9  89261.33  2387.81  2.68
509.3  90620.40  2535.73  2.80
510.7  91874.25  2696.85  2.94
512.2  93276.90  2889.21  3.10
513.6  94781.75  3105.34  3.28
515.0  96217.90  3351.41  3.48
516.4  97609.05  3626.91  3.72
517.8  99242.25  3941.82  3.97
519.3  100594.03  4273.17  4.25
520.7  102171.60  4651.49  4.55
522.1  103484.88  5036.59  4.87
523.5  104819.90  5441.39  5.19
524.9  106312.95  5862.72  5.51
526.3  107768.50  6283.39  5.83
527.8  109266.30  6704.28  6.14
529.2  110274.90  7104.32  6.44
530.6  111799.65  7519.78  6.73
532.0  113554.00  7933.33  6.99
533.4  114898.80  8287.99  7.21
534.8  115771.65  8583.91  7.41
536.3  117441.60  8914.76  7.59
537.7  119435.40  9250.08  7.74
539.1  120932.90  9528.05  7.88
540.5  122138.80  9776.57  8.00
541.9  123896.55  10051.14  8.11
543.3  125160.48  10287.86  8.22
544.7  126483.00  10526.00  8.32
546.1  128286.95  10801.45  8.42
547.5  129528.00  11026.77  8.51
549.0  131219.00  11274.27  8.59
550.4  132738.13  11490.58  8.66
551.8  134299.00  11685.56  8.70
553.2  135818.85  11840.94  8.72
554.6  137165.60  11943.36  8.71
556.0  138690.00  12011.52  8.66
557.4  140316.75  12041.70  8.58
558.8  141970.95  12032.22  8.48
560.2  143444.75  11975.52  8.35
561.6  145116.00  11901.18  8.20
563.0  146712.85  11790.66  8.04
564.4  148301.35  11657.05  7.86
565.8  149823.13  11486.33  7.67
567.2  151575.00  11304.70  7.46
568.6  153087.38  11082.35  7.24
570.0  154528.00  10827.20  7.01
571.4  156258.05  10580.01  6.77
572.8  158030.63  10338.83  6.54
574.2  159644.80  10096.43  6.32
575.6  161201.25  9870.00  6.12
577.0  162742.60  9666.77  5.94
578.4  164493.88  9503.43  5.78
579.8  166020.30  9345.24  5.63
581.2  167733.33  9216.79  5.49
582.5  169170.30  9087.00  5.37
583.9  170687.00  8979.01  5.26
585.3  172495.13  8900.82  5.16
586.7  173989.73  8818.33  5.07
588.1  175485.13  8754.25  4.99
589.5  177147.25  8713.83  4.92
590.9  178783.20  8683.31  4.86
592.3  180594.50  8674.56  4.80
593.7  182051.03  8666.32  4.76
595.0  183679.65  8671.41  4.72
596.4  185146.15  8674.77  4.69
597.8  186632.55  8681.80  4.65
599.2  188192.40  8685.60  4.62
600.6  189947.88  8684.35  4.57
602.0  191239.13  8654.65  4.53
603.3  193046.85  8625.03  4.47
604.7  194718.33  8571.49  4.40
606.1  196222.20  8487.92  4.33
607.5  197888.18  8399.56  4.24
608.9  199580.25  8300.74  4.16
610.2  200973.15  8178.03  4.07
611.6  202584.15  8056.38  3.98
613.0  204149.60  7941.72  3.89
614.4  205533.30  7816.26  3.80
615.8  206987.63  7704.45  3.72
617.1  208548.90  7608.72  3.65
618.5  210204.40  7526.29  3.58
619.9  211726.05  7462.50  3.52
621.3  213356.48  7424.94  3.48
622.6  214948.75  7397.27  3.44
624.0  216423.60  7383.04  3.41
625.4  217929.53  7383.97  3.39
626.8  219526.13  7399.82  3.37
628.1  220838.48  7415.91  3.36
629.5  222624.80  7460.49  3.35
630.9  224147.55  7490.60  3.34
632.2  225428.00  7507.48  3.33
633.6  226974.75  7509.88  3.31
635.0  228484.80  7490.03  3.28
636.3  230003.50  7445.92  3.24
637.7  231382.88  7369.32  3.18
639.1  233047.50  7280.00  3.12
640.4  234547.25  7157.20  3.05
641.8  235771.28  7015.92  2.98
643.2  237371.23  6883.15  2.90
644.5  238728.25  6740.33  2.82
645.9  240366.60  6617.40  2.75
647.2  241794.70  6500.76  2.69
648.6  243506.25  6415.20  2.63
650.0  244922.40  6341.76  2.59
651.3  245551.35  6260.14  2.55
652.7  247234.30  6214.28  2.51
654.0  249335.20  6183.00  2.48
655.4  250798.30  6134.07  2.45
656.8  250948.50  6041.23  2.41
658.1  252287.80  5977.67  2.37
659.5  254736.30  5908.63  2.32
660.8  256410.00  5829.00  2.27
662.2  257420.80  5728.43  2.23
663.5  258999.95  5646.77  2.18
664.9  260161.20  5575.09  2.14
666.2  260916.60  5508.56  2.11
667.6  262631.30  5483.02  2.09
668.9  263677.65  5466.07  2.07
670.3  265255.63  5459.50  2.06
671.6  266539.88  5472.25  2.05
673.0  267734.63  5516.50  2.06
674.3  269023.30  5569.20  2.07
675.7  270352.53  5633.54  2.08
677.0  271436.10  5711.82  2.10
678.4  272779.63  5811.66  2.13
679.7  273902.90  5935.00  2.17
681.1  275186.95  6077.98  2.21
682.4  276316.30  6255.77  2.26
683.8  277553.90  6462.04  2.33
685.1  278575.88  6720.10  2.41
686.4  279853.20  7041.84  2.52
687.8  281151.00  7446.33  2.65
689.1  282219.00  7974.40  2.83
690.5  283509.75  8692.66  3.07
691.8  284398.65  9640.28  3.39
693.1  285707.10  10920.32  3.82
694.5  286877.50  12561.03  4.38
695.8  288128.75  14596.40  5.07
697.1  289289.00  17047.33  5.89
698.5  290355.70  19909.41  6.86
699.8  291464.45  23173.85  7.95
701.1  292598.20  26810.92  9.16
702.5  293443.15  30713.10  10.47
703.8  294412.50  34875.00  11.85
705.1  295583.93  39243.75  13.28
706.5  296647.75  43732.68  14.74
707.8  297612.60  48305.80  16.23
709.1  298485.25  52919.18  17.73
710.5  299623.83  57643.15  19.24
711.8  300492.50  62341.88  20.75
713.1  301518.30  67102.19  22.25
714.4  302432.60  71832.76  23.75
715.8  303257.70  76530.63  25.24
717.1  304585.80  81327.18  26.70
718.4  305558.40  85974.19  28.14
719.7  306693.85  90592.23  29.54
721.0  307237.50  94968.00  30.91
722.4  308010.45  99304.19  32.24
723.7  308991.30  103567.88  33.52
725.0  310037.18  107719.53  34.74
726.3  311013.45  111690.33  35.91
727.6  311538.43  115357.55  37.03
729.0  312490.68  118977.69  38.07
730.3  313301.18  122379.41  39.06
731.6  314238.10  125633.51  39.98
732.9  315050.40  128657.99  40.84
734.2  315843.00  131513.98  41.64
735.5  316905.28  134305.79  42.38
736.8  317722.20  136809.04  43.06
738.1  318587.00  139180.85  43.69
739.5  319593.50  141462.43  44.26
740.8  320279.85  143462.66  44.79
742.1  321009.68  145330.15  45.27
743.4  321675.00  147056.67  45.72
744.7  322642.80  148790.96  46.12
746.0  323516.70  150372.82  46.48
747.3  324116.45  151706.99  46.81
748.6  324836.25  153013.37  47.10
749.9  325520.00  154190.40  47.37
751.2  326142.80  155264.75  47.61
752.5  326979.60  156345.62  47.82
753.8  327528.08  157228.77  48.00
755.1  328250.00  158107.73  48.17
756.4  328869.48  158890.81  48.31
757.7  329900.90  159815.41  48.44
759.0  331720.03  161077.45  48.56
760.3  332930.40  161983.36  48.65
761.6  334521.60  163040.27  48.74
762.9  335070.50  163549.50  48.81
764.2  335469.90  163950.12  48.87
765.5  335731.58  164275.97  48.93
766.8  336137.60  164654.29  48.98
768.1  336663.80  165050.29  49.03
769.3  337274.70  165457.60  49.06
770.6  337915.50  165877.66  49.09
771.9  338635.33  166326.42  49.12
773.2  339039.20  166609.55  49.14
774.5  339653.60  166978.24  49.16
775.8  340314.60  167372.31  49.18
777.1  340880.10  167709.67  49.20
778.4  341212.30  167914.74  49.21
779.6  341986.13  168350.51  49.23
780.9  342450.00  168616.00  49.24
782.2  342914.00  168891.80  49.25
783.5  343216.50  169079.80  49.26
784.8  343760.40  169360.77  49.27
786.0  344114.05  169580.60  49.28
787.3  344493.88  169801.33  49.29
788.6  344887.53  170030.37  49.30
789.9  345377.20  170273.60  49.30
791.2  346011.65  170614.82  49.31
792.4  346699.15  170968.78  49.31
793.7  347159.60  171226.21  49.32
795.0  347754.83  171555.89  49.33
796.2  348376.28  171891.64  49.34
797.5  349090.43  172245.26  49.34
798.8  349749.03  172593.11  49.35
800.0  350435.53  172919.10  49.34
801.3  350892.00  173164.48  49.35
802.6  351456.53  173472.75  49.36
803.8  352047.25  173800.56  49.37
805.1  352546.25  174048.23  49.37
806.4  352996.50  174274.48  49.37
807.7  353546.78  174558.51  49.37
808.9  354055.50  174833.57  49.38
810.2  354565.75  175095.76  49.38
811.4  355085.50  175349.28  49.38
812.7  355671.88  175667.92  49.39
814.0  356523.60  176072.62  49.39
815.2  357129.50  176396.53  49.39
816.5  357561.95  176608.04  49.39
817.7  358011.75  176861.95  49.40
819.0  358462.50  177119.58  49.41
820.2  358644.00  177220.27  49.41
821.5  359343.20  177576.03  49.42
822.7  359709.88  177755.69  49.42
824.0  359993.70  177920.64  49.42
825.2  360490.50  178152.48  49.42
826.5  360755.53  178308.69  49.43
827.7  361340.10  178582.56  49.42
829.0  361734.40  178781.77  49.42
830.2  362072.90  178936.47  49.42
831.5  362584.50  179189.29  49.42
832.7  362840.63  179344.27  49.43
834.0  363161.23  179492.65  49.43
835.2  363473.00  179663.51  49.43
836.4  363740.30  179817.95  49.44
837.7  364224.00  180037.95  49.43
838.9  364651.58  180293.52  49.44
840.1  365058.90  180490.14  49.44
841.4  365411.80  180721.99  49.46
842.6  365758.40  180906.29  49.46
843.8  366074.20  181089.63  49.47
845.1  366545.60  181341.95  49.47
846.3  367030.70  181566.11  49.47
847.5  367409.70  181782.44  49.48
848.8  367833.60  182005.12  49.48
850.0  368194.05  182202.91  49.49
851.2  368707.95  182465.28  49.49
852.5  369082.00  182654.87  49.49
853.7  369510.75  182900.10  49.50
854.9  369961.70  183132.25  49.50
856.1  370434.35  183398.37  49.51
857.4  370663.63  183507.32  49.51
858.6  371121.90  183744.01  49.51
859.8  371572.50  183936.25  49.50
861.0  371919.60  184167.36  49.52
862.2  372433.00  184396.98  49.51
863.5  372771.75  184590.25  49.52
864.7  373309.20  184858.96  49.52
865.9  373679.40  185046.29  49.52
867.1  374012.60  185187.15  49.51
868.3  374474.55  185388.48  49.51
869.5  374997.05  185635.01  49.50
870.8  375538.50  185895.00  49.50
872.0  376031.48  186167.67  49.51
873.2  376370.40  186361.70  49.52
874.4  376789.73  186560.01  49.51
875.6  377255.98  186705.41  49.49
876.8  377683.95  186957.45  49.50
878.0  378202.80  187196.23  49.50
879.2  378702.30  187439.18  49.50
880.4  379155.75  187676.80  49.50
881.6  379657.18  187880.54  49.49
882.8  380064.00  188034.67  49.47
884.0  380670.28  188317.94  49.47
885.2  381144.20  188555.00  49.47
886.5  381788.45  188824.02  49.46
887.7  382246.15  189040.50  49.46
888.8  382898.63  189328.69  49.45
890.0  383482.60  189559.48  49.43
891.2  384076.30  189811.21  49.42
892.4  384661.20  190075.34  49.41
893.6  385207.30  190323.37  49.41
894.8  386112.50  190729.80  49.40
896.0  386876.50  191115.80  49.40
897.2  387686.00  191492.17  49.39
898.4  388330.80  191819.32  49.40
899.6  389011.88  192044.10  49.37
900.8  389334.53  192210.86  49.37
902.0  389618.85  192239.06  49.34
903.2  389821.80  192378.65  49.35
904.3  390084.30  192513.52  49.35
905.5  390653.63  192744.81  49.34
906.7  391348.00  193040.80  49.33
907.9  391855.45  193237.05  49.31
909.1  392247.23  193332.69  49.29
910.2  392342.03  193395.92  49.29
911.4  392514.53  193431.03  49.28
912.6  392606.50  193458.98  49.28
913.8  392964.53  193561.83  49.26
915.0  393342.60  193722.48  49.25
916.2  393558.75  193724.70  49.22
917.3  393518.93  193671.78  49.22
918.5  393682.60  193727.57  49.21
919.7  393860.70  193746.84  49.19
920.8  394020.05  193719.87  49.16
922.0  394009.00  193716.60  49.17
923.2  394212.00  193739.00  49.15
924.4  394507.13  193761.90  49.11
925.5  394663.90  193819.77  49.11
926.7  395233.00  194047.63  49.10
927.9  396059.40  194303.84  49.06
929.0  397452.15  194924.70  49.04
930.2  399716.30  195870.49  49.00
931.4  402215.63  197006.49  48.98
932.5  404838.30  198192.30  48.96
933.7  406119.43  198773.87  48.94
934.9  406630.00  198955.17  48.93
936.0  406209.38  198525.60  48.87
937.2  404194.35  197326.70  48.82
938.3  402664.35  196345.53  48.76
939.5  401004.00  195437.28  48.74
940.7  401042.70  195370.08  48.72
941.8  402600.38  195938.03  48.67
943.0  404029.50  196481.90  48.63
944.2  404752.40  196677.52  48.59
945.3  404400.75  196241.50  48.53
946.5  403635.15  195606.36  48.46
947.6  403711.90  195429.36  48.41
948.8  403572.00  195111.54  48.35
949.9  403683.00  194873.28  48.27
951.1  403255.78  194429.04  48.21
952.2  403308.00  193990.40  48.10
953.4  402894.00  193516.23  48.03
954.5  402667.20  193162.32  47.97
955.7  402481.80  192751.44  47.89
956.8  402025.50  192362.12  47.85
958.0  402022.50  191789.47  47.71
959.1  401790.50  191444.90  47.65
960.3  401536.35  191001.90  47.57
961.4  401315.05  190673.51  47.51
962.6  401341.50  190553.30  47.48
963.7  400861.05  190208.65  47.45
964.9  400886.93  190042.66  47.41
966.0  400678.65  189795.15  47.37
967.2  400715.55  189765.36  47.36
968.3  400783.95  189474.66  47.28
969.5  400351.40  189402.74  47.31
970.6  400172.85  189326.61  47.31
971.8  400331.23  189316.45  47.29
972.9  400272.45  189125.09  47.25
974.0  400205.20  189239.27  47.29
975.2  400480.75  189119.70  47.22
976.3  400472.43  189157.79  47.23
977.5  400487.33  189087.50  47.21
978.6  400100.00  188953.89  47.23
979.7  400090.95  189030.94  47.25
980.9  399519.55  188787.27  47.25
982.0  399318.40  188780.33  47.28
983.2  399032.43  188633.51  47.27
984.3  399149.20  188372.32  47.19
985.4  398638.18  188384.02  47.26
986.6  398567.13  188331.67  47.25
987.7  398509.48  188797.40  47.38
988.9  398473.20  188527.92  47.31
990.0  399507.30  188716.87  47.24
993.1  374414.95  175527.39  46.88
996.9  373869.73  175877.53  47.04
1000.7  374188.15  176608.38  47.20
1004.5  374406.83  177200.37  47.33
1008.4  373996.08  177534.20  47.47
1012.2  373781.83  177934.85  47.60
1016.0  373438.80  178284.77  47.74
1019.8  373001.48  178557.23  47.87
1023.7  372321.58  178596.84  47.97
1027.5  371213.08  178442.69  48.07
1031.3  370812.98  178494.90  48.14
1035.1  370241.67  178446.87  48.20
1038.9  369975.10  178536.73  48.26
1042.7  369744.50  178620.46  48.31
1046.5  369627.17  178690.43  48.34
1050.3  369624.26  178800.79  48.37
1054.2  369268.67  178746.92  48.41
1058.0  368833.27  178585.78  48.42
1061.8  368747.54  178613.23  48.44
1065.6  368238.70  178393.71  48.45
1069.4  367896.73  178204.13  48.44
1073.2  367051.53  177742.39  48.42
1077.0  366365.05  177357.67  48.41
1080.8  366094.79  177111.46  48.38
1084.6  365591.45  176732.97  48.34
1088.4  365365.84  176540.18  48.32
1092.2  364776.75  176064.11  48.27
1096.0  364237.24  175599.42  48.21
1099.8  363647.27  175096.78  48.15
1103.6  362871.87  174479.79  48.08
1107.4  361857.63  173719.58  48.01
1111.2  361623.50  173303.07  47.92
1114.9  360995.25  172670.17  47.83
1118.7  360540.68  172027.00  47.71
1122.5  360040.20  171255.81  47.57
1126.3  359061.09  170118.25  47.38
1130.1  358609.97  168997.15  47.13
1133.9  357031.50  166992.10  46.77
1137.7  355559.50  164781.06  46.34
1141.4  353686.23  162080.35  45.83
1145.2  352846.39  159678.86  45.25
1149.0  351620.21  157189.79  44.70
1152.8  349935.70  154721.11  44.21
1156.6  348242.77  152653.60  43.84
1160.3  346531.00  150970.95  43.57
1164.1  344210.27  149367.34  43.39
1167.9  342508.33  148267.86  43.29
1171.7  341192.25  147480.75  43.23
1175.4  339877.07  146739.53  43.17
1179.2  338655.23  146028.10  43.12
1183.0  338267.67  145668.33  43.06
1186.7  337993.13  145349.10  43.00
1190.5  337296.87  144894.83  42.96
1194.3  336286.67  144343.32  42.92
1198.0  334979.70  143738.81  42.91
1201.8  333370.00  143078.80  42.92
1205.6  332253.00  142722.76  42.96
1209.3  331504.95  142642.84  43.03
1213.1  330868.88  142621.50  43.11
1216.8  330156.93  142638.38  43.20
1220.6  329149.33  142504.27  43.29
1224.3  327980.92  142293.29  43.38
1228.1  326637.80  142046.80  43.49
1231.9  325232.38  141703.64  43.57
1235.6  323620.58  141230.53  43.64
1239.4  322193.88  140834.27  43.71
1243.1  320916.19  140438.77  43.76
1246.9  319663.97  140026.45  43.80
1250.6  318621.53  139669.92  43.84
1254.3  317494.65  139243.53  43.86
1258.1  316377.72  138786.62  43.87
1261.8  314993.87  138196.27  43.87
1265.6  313647.38  137567.31  43.86
1269.3  312520.13  136983.70  43.83
1273.1  312718.31  136919.10  43.78
1276.8  312797.20  136757.26  43.72
1280.6  312112.33  136247.82  43.65
1284.3  310370.00  135220.34  43.57
1288.0  308965.23  134272.18  43.46
1291.8  308104.42  133446.17  43.31
1295.5  307098.00  132500.76  43.15
1299.2  305964.98  131421.01  42.95
1302.9  304487.37  130077.62  42.72
1306.7  302854.30  128577.75  42.46
1310.4  301263.73  126940.45  42.14
1314.1  299813.98  125261.43  41.78
1317.9  298539.58  123493.84  41.37
1321.6  297057.85  121531.16  40.91
1325.3  295410.68  119342.25  40.40
1329.0  294112.47  117212.25  39.85
1332.8  292138.00  114679.40  39.26
1336.5  290433.07  112242.71  38.65
1340.2  290183.83  110380.83  38.04
1343.9  289962.08  108537.53  37.43
1347.6  289749.30  106724.19  36.83
1351.4  290609.50  105380.07  36.26
1355.1  291793.70  104183.88  35.70
1358.8  292752.00  102829.71  35.13
1362.5  292654.28  100964.35  34.50
1366.2  290893.80  98245.07  33.77
1369.9  288417.00  94952.91  32.92
1373.6  285988.56  91166.66  31.88
1377.3  284276.10  86911.67  30.57
1381.0  283466.33  82029.67  28.94
1384.8  281563.75  75917.68  26.96
1388.4  278813.27  69089.10  24.78
1392.2  276762.00  62159.78  22.46
1395.9  275245.40  55412.16  20.13
1399.6  273559.00  49132.22  17.96
1403.3  272304.00  43682.10  16.04
1407.0  270919.20  39084.03  14.43
1410.7  269468.93  35378.47  13.13
1414.3  267942.21  32491.46  12.13
1418.1  266549.04  30345.22  11.38
1421.7  265380.15  28770.01  10.84
1425.4  264226.95  27636.84  10.46
1429.1  263127.75  26853.54  10.21
1432.8  261571.87  26277.81  10.05
1436.5  260752.82  25965.58  9.96
1440.2  260056.73  25807.31  9.92
1443.9  258896.73  25700.68  9.93
1447.6  257395.60  25643.20  9.96
1451.2  256279.10  25670.52  10.02
1454.9  254929.05  25720.37  10.09
1458.6  253796.56  25882.21  10.20
1462.3  252635.17  26155.85  10.35
1466.0  251279.96  26545.35  10.56
1469.7  249607.15  27062.72  10.84
1473.3  248591.83  27774.36  11.17
1477.0  246662.40  28497.56  11.55
1480.7  245050.73  29329.60  11.97
1484.4  243104.83  30148.82  12.40
1488.0  241560.00  31053.52  12.86
1491.7  239959.96  31955.75  13.32
1495.4  238290.80  32858.16  13.79
1499.0  236741.50  33753.93  14.26
1502.7  235467.42  34694.74  14.73
1506.4  234083.91  35592.26  15.20
1510.0  232696.90  36466.71  15.67
1513.7  231224.88  37305.34  16.13
1517.4  229892.33  38132.81  16.59
1521.0  228680.40  38954.11  17.03
1524.7  227459.92  39721.03  17.46
1528.3  226183.63  40447.95  17.88
1532.0  224991.43  41148.07  18.29
1535.7  223617.08  41768.73  18.68
1539.3  222370.78  42386.00  19.06
1543.0  221415.72  43027.60  19.43
1546.6  220742.17  43684.49  19.79
1550.3  219756.05  44239.43  20.13
1553.9  218695.47  44748.29  20.46
1557.6  217443.60  45187.79  20.78
1561.2  216183.15  45576.64  21.08
1564.9  214915.03  45942.35  21.38
1568.5  213622.85  46269.18  21.66
1572.2  212492.20  46603.85  21.93
1575.8  211400.00  46942.00  22.21
1579.5  210409.20  47264.11  22.46
1583.1  209389.96  47574.45  22.72
1586.8  208124.00  47798.00  22.97
1590.4  207019.73  48036.10  23.20
1594.0  205694.02  48205.03  23.44
1597.7  204692.40  48451.17  23.67
1601.3  203609.70  48658.73  23.90
1604.9  202525.43  48831.65  24.11
1608.6  201262.12  48925.68  24.31
1612.2  200108.70  49015.37  24.49
1615.8  198850.28  49068.22  24.68
1619.5  197700.17  49119.87  24.85
1623.1  196413.23  49106.80  25.00
1626.7  195202.80  49082.20  25.14
1630.3  194012.25  49040.35  25.28
1634.0  192920.00  48980.00  25.39
1637.6  191939.67  48909.80  25.48
1641.2  190953.55  48761.53  25.54
1644.8  189742.98  48492.36  25.56
1648.5  188673.33  48211.62  25.55
1652.1  187699.20  47919.85  25.53
1655.7  186786.80  47628.83  25.50
1659.3  185969.71  47402.10  25.49
1662.9  184577.50  47063.69  25.50
1666.6  183148.00  46751.57  25.53
1670.2  181718.02  46424.64  25.55
1673.8  180282.63  46052.57  25.54
1677.4  179151.55  45716.69  25.52
1681.0  178344.33  45391.88  25.45
1684.6  177928.83  45086.79  25.34
1688.2  177271.20  44639.21  25.18
1691.8  176615.28  44194.73  25.02
1695.4  176179.40  43782.66  24.85
1699.0  175824.37  43385.23  24.68
1702.6  175483.00  42971.33  24.49
1706.2  174859.53  42467.54  24.29
1709.8  173935.43  41893.21  24.09
1713.4  173211.01  41397.93  23.90
1717.0  172353.75  40910.18  23.74
1720.6  171552.53  40449.73  23.58
1724.2  170816.63  40011.79  23.42
1727.8  170110.15  39581.50  23.27
1731.4  169657.13  39206.16  23.11
1735.0  169483.23  38887.28  22.94
1738.6  169239.30  38516.85  22.76
1742.2  168684.14  38037.51  22.55
1745.8  168046.98  37524.69  22.33
1749.4  167111.18  36930.30  22.10
1753.0  165631.93  36228.17  21.87
1756.6  163997.46  35525.46  21.66
1760.1  162666.91  34920.34  21.47
1763.7  160984.67  34245.90  21.27
1767.3  159565.13  33668.99  21.10
1770.9  158350.44  33132.58  20.92
1774.5  156903.91  32592.58  20.77
1778.0  155790.54  32152.08  20.64
1781.6  154696.65  31778.21  20.54
1785.2  153570.53  31440.89  20.47
1788.8  152419.40  31153.46  20.44
1792.3  151221.30  30877.97  20.42
1795.9  150702.93  30766.45  20.42
1799.5  150321.67  30691.00  20.42
1803.1  150496.15  30740.73  20.43
1806.6  151970.53  31030.61  20.42
1810.2  153577.67  31343.83  20.41
1813.8  154537.75  31526.98  20.40
1817.3  154314.40  31468.94  20.39
1820.9  153268.25  31228.91  20.38
1824.5  151918.43  30920.51  20.35
1828.0  150860.42  30635.39  20.31
1831.6  150165.18  30393.67  20.24
1835.2  149656.67  30132.50  20.13
1838.7  149330.00  29822.40  19.97
1842.3  149025.00  29434.29  19.75
1845.8  148069.21  28792.02  19.44
1849.4  147476.75  28084.92  19.04
1852.9  146717.14  27183.56  18.53
1856.5  145775.25  26037.63  17.86
1860.0  144878.35  24680.27  17.04
1863.6  144715.93  23229.39  16.05
1867.1  144883.20  21596.75  14.91
1870.7  145273.95  19677.49  13.55
1874.2  144445.05  17343.00  12.01
1877.8  142581.13  14863.03  10.42
1881.3  140376.63  12430.86  8.86
1884.9  138873.17  10295.29  7.41
1888.4  137567.64  8424.15  6.12
1891.9  136225.47  6925.69  5.08
1895.5  134875.10  5806.93  4.31
1899.0  134101.13  5070.95  3.78
1901.3  173642.67  3456.50  1.99
1904.1  173472.75  3020.75  1.74
1906.8  172471.20  2688.40  1.56
1909.6  170421.30  2443.58  1.43
1912.4  168484.28  2265.47  1.34
1915.1  167012.45  2129.97  1.28
1917.9  165413.17  2040.28  1.23
1920.6  164060.53  1992.57  1.21
1923.3  162701.23  1949.35  1.20
1926.1  160974.90  1909.51  1.19
1928.8  159338.67  1887.11  1.18
1931.6  158007.40  1883.67  1.19
1934.3  156799.72  1891.24  1.21
1937.0  155632.47  1908.40  1.23
1939.8  154347.92  1934.42  1.25
1942.5  152801.00  1965.33  1.29
1945.2  150898.00  1985.50  1.32
1947.9  149366.23  2016.70  1.35
1950.7  148170.10  2064.02  1.39
1953.4  146382.40  2107.37  1.44
1956.1  144988.42  2165.84  1.49
1958.8  143746.85  2229.79  1.55
1961.5  142268.80  2290.80  1.61
1964.2  140749.70  2347.80  1.67
1966.9  139170.90  2425.40  1.74
1969.6  137943.00  2517.00  1.82
1972.3  136552.70  2604.73  1.91
1975.0  135493.50  2699.25  1.99
1977.7  134383.63  2797.82  2.08
1980.4  133227.03  2910.53  2.18
1983.1  132127.23  3021.78  2.29
1985.8  131204.70  3146.50  2.40
1988.4  130164.67  3267.33  2.51
1991.1  129249.63  3395.78  2.63
1993.8  128388.33  3524.22  2.74
1996.5  127750.70  3662.08  2.87
1999.1  127069.98  3805.69  2.99
2001.8  126383.37  3951.19  3.13
2004.5  125710.45  4088.57  3.25
2007.1  124992.50  4229.85  3.38
2009.8  124250.93  4379.98  3.53
2012.4  123675.02  4520.88  3.66
2015.1  123111.33  4662.00  3.79
2017.8  122325.70  4794.38  3.92
2020.4  121822.43  4925.86  4.04
2023.1  121471.00  5059.13  4.16
2025.7  121238.00  5200.00  4.29
2028.3  120900.00  5338.67  4.42
2031.0  120489.93  5453.13  4.53
2033.6  120225.30  5573.80  4.64
2036.2  119964.30  5689.80  4.74
2038.9  119372.70  5782.60  4.84
2041.5  119008.65  5877.94  4.94
2044.1  118467.90  5956.60  5.03
2046.8  118085.10  6052.30  5.13
2049.4  117458.70  6121.90  5.21
2052.0  117183.87  6200.67  5.29
2054.6  116786.25  6279.58  5.38
2057.2  116205.73  6346.22  5.46
2059.8  115865.13  6419.00  5.54
2062.4  114998.98  6467.77  5.62
2065.0  114467.80  6535.45  5.71
2067.6  113578.17  6581.08  5.79
2070.2  112976.72  6642.10  5.88
2072.8  112331.68  6694.40  5.96
2075.4  111895.00  6760.83  6.04
2078.0  111267.27  6810.01  6.12
2080.6  110712.80  6866.93  6.20
2083.2  110021.67  6905.21  6.28
2085.8  109528.17  6956.40  6.35
2088.4  108862.00  6990.11  6.42
2090.9  108065.88  7018.06  6.49
2093.5  107198.80  7036.71  6.56
2096.1  106445.22  7061.80  6.63
2098.7  105672.28  7088.15  6.71
2101.2  104703.93  7100.20  6.78
2103.8  104022.73  7126.40  6.85
2106.4  103376.47  7155.51  6.92
2108.9  102730.20  7175.89  6.99
2111.5  101883.07  7181.71  7.05
2114.0  101254.27  7202.09  7.11
2116.6  100730.00  7224.58  7.17
2119.1  100185.47  7241.27  7.23
2121.7  99680.00  7268.33  7.29
2124.2  99264.97  7290.94  7.34
2126.8  98461.17  7293.09  7.41
2129.3  98084.80  7315.73  7.46
2131.9  97495.20  7330.40  7.52
2134.4  97066.80  7348.45  7.57
2136.9  96686.20  7382.05  7.64
2139.4  96141.27  7394.80  7.69
2142.0  95697.93  7427.31  7.76
2144.5  95425.80  7476.00  7.83
2147.0  95166.80  7527.82  7.91
2149.5  94648.67  7551.64  7.98
2152.1  94495.68  7602.90  8.05
2154.6  94438.40  7667.38  8.12
2157.1  93903.50  7678.44  8.18
2159.6  93485.67  7708.72  8.25
2162.1  93320.50  7750.17  8.30
2164.6  93050.40  7790.74  8.37
2167.1  92724.12  7818.08  8.43
2169.6  92406.30  7840.31  8.48
2172.1  91936.30  7854.49  8.54
2174.6  91619.53  7885.93  8.61
2177.1  91190.18  7900.12  8.66
2179.5  90781.60  7925.38  8.73
2182.0  90302.30  7931.92  8.78
2184.5  89770.35  7947.68  8.85
2187.0  89154.43  7949.16  8.92
2189.5  88488.98  7947.03  8.98
2191.9  87723.00  7932.50  9.04
2194.4  87076.90  7932.87  9.11
2196.9  86332.80  7926.40  9.18
2199.3  85675.67  7920.22  9.24
2201.8  84796.80  7874.27  9.29
2204.3  84325.17  7876.24  9.34
2206.7  83685.60  7863.58  9.40
2209.2  83207.78  7863.84  9.45
2211.6  82575.90  7837.50  9.49
2214.1  82296.45  7850.55  9.54
2216.5  81711.60  7817.53  9.57
2219.0  81373.87  7807.60  9.59
2221.4  81009.25  7784.58  9.61
2223.9  80543.17  7754.83  9.63
2226.3  80037.42  7698.64  9.62
2228.7  79471.88  7626.64  9.60
2231.1  78873.30  7537.20  9.56
2233.6  78274.67  7450.00  9.52
2236.0  77726.83  7361.47  9.47
2238.4  77231.00  7249.08  9.39
2240.9  76774.73  7142.07  9.30
2243.3  76238.33  7019.56  9.21
2245.7  75659.80  6875.45  9.09
2248.1  75168.60  6737.47  8.96
2250.5  74655.37  6598.98  8.84
2252.9  74032.40  6441.79  8.70
2255.3  73470.80  6291.72  8.56
2257.7  73020.00  6153.33  8.43
2260.1  72520.93  6009.97  8.29
2262.5  71910.00  5850.00  8.14
2264.9  71380.83  5720.45  8.01
2267.3  70760.00  5586.67  7.90
2269.7  70263.43  5471.51  7.79
2272.1  69705.98  5342.22  7.66
2274.5  69134.58  5227.94  7.56
2276.8  68654.23  5125.19  7.47
2279.2  68078.70  5018.30  7.37
2281.6  67658.07  4925.96  7.28
2284.0  67185.20  4824.43  7.18
2286.3  66717.87  4739.02  7.10
2288.7  66303.68  4647.00  7.01
2291.1  65759.40  4553.83  6.92
2293.4  65296.00  4459.15  6.83
2295.8  64694.30  4353.47  6.73
2298.2  64087.20  4253.85  6.64
2300.5  63414.45  4150.35  6.54
2302.9  62661.33  4047.22  6.46
2305.2  61944.20  3944.90  6.37
2307.6  61270.68  3851.55  6.29
2309.9  60501.67  3757.89  6.21
2312.2  59912.67  3692.44  6.16
2314.6  59315.85  3612.15  6.09
2316.9  58612.05  3539.70  6.04
2319.2  58063.70  3469.38  5.98
2321.6  57440.60  3395.35  5.91
2323.9  56885.42  3312.50  5.82
2326.2  56340.00  3248.24  5.77
2328.6  55823.90  3183.77  5.70
2330.9  55314.00  3118.50  5.64
2333.2  54832.25  3055.06  5.57
2335.5  54388.10  2992.43  5.50
2337.8  53927.45  2925.88  5.43
2340.1  53355.93  2868.37  5.38
2342.4  52910.00  2813.05  5.32
2344.8  52498.25  2751.00  5.24
2347.1  51916.20  2679.52  5.16
2349.4  51370.72  2625.64  5.11
2351.6  50786.83  2570.56  5.06
2353.9  50300.97  2515.60  5.00
2356.2  49780.43  2460.49  4.94
2358.5  49201.60  2396.80  4.87
2360.8  48630.40  2340.80  4.81
2363.1  48186.80  2280.72  4.73
2365.4  47719.90  2237.40  4.69
2367.7  47241.60  2185.00  4.63
2369.9  46704.55  2129.70  4.56
2372.2  46096.00  2064.00  4.48
2374.5  45507.00  2002.00  4.40
2376.7  44863.57  1951.60  4.35
2379.0  44264.83  1892.36  4.28
2381.3  43645.00  1839.45  4.21
2383.5  43143.47  1791.29  4.15
2385.8  42524.73  1741.47  4.10
2388.0  42008.00  1667.73  3.97
2390.3  41474.00  1629.69  3.93
2392.5  40992.00  1580.00  3.85
2394.8  40522.90  1536.70  3.79
2397.0  40040.00  1480.27  3.70
2399.3  39583.65  1433.57  3.62
2401.5  39126.50  1392.42  3.56
2403.8  38588.12  1346.62  3.49
2406.0  38081.92  1303.75  3.42
2408.2  37686.73  1271.60  3.37
2410.4  37275.23  1227.53  3.29
2412.7  36870.60  1193.83  3.24
2414.9  36520.55  1146.93  3.14
2417.1  36093.40  1104.90  3.06
2419.3  35673.60  1075.20  3.01
2421.6  35288.33  1046.25  2.96
2423.8  34906.27  1011.40  2.90
2426.0  34548.65  965.09  2.79
2428.2  34169.33  936.44  2.74
2430.4  33864.10  904.28  2.67
2432.6  33600.00  880.00  2.62
2434.8  33283.00  846.55  2.54
2437.0  32925.10  819.43  2.49
2439.2  32575.17  797.48  2.45
2441.4  32256.47  777.10  2.41
2443.6  31999.40  759.92  2.37
2445.7  31737.30  721.93  2.27
2447.9  31479.50  705.11  2.24
2450.1  31162.90  683.77  2.19
2452.3  30788.45  654.07  2.12
2454.5  30437.43  647.71  2.13
2456.6  30045.60  632.49  2.11
2458.8  29686.80  600.60  2.02
2461.0  29381.17  571.86  1.95
2463.1  29100.00  557.75  1.92
2465.3  28813.03  541.44  1.88
2467.5  28556.00  526.08  1.84
2469.6  28296.92  507.17  1.79
2471.8  27991.07  500.55  1.79
2473.9  27677.92  487.69  1.76
2476.1  27330.33  470.17  1.72
2478.2  26978.23  446.84  1.66
2480.4  26678.30  445.15  1.67
2482.5  26352.63  443.86  1.68
2484.6  26008.58  420.75  1.62
2486.8  25748.00  413.43  1.61
2488.9  25411.17  420.89  1.66
2491.1  25069.33  401.95  1.60
2493.2  24700.43  383.20  1.55
2495.3  24306.53  368.77  1.52
2497.4  23940.70  370.30  1.55
2499.5  23611.48  356.03  1.51
2501.7  23499.67  350.58  1.49
2503.8  23386.62  339.91  1.45
2505.9  23335.83  347.36  1.49
2508.0  23332.20  338.65  1.45
2510.1  23319.87  345.75  1.48
2512.2  23432.95  336.42  1.44
2514.3  23596.28  348.03  1.47
2516.4  23817.30  374.30  1.57
