/*** Spectra Vista SIG Data ***/
name= 44_20220926_LIST_63_avg.sig
comm= Averaged Ref/Tar of files: HR.092722.0047_moc.sig,HR.092722.0048_moc.sig,HR.092722.0049_moc.sig
data=
337.3  3027.13  184.32  6.09
338.8  3126.50  187.82  6.01
340.3  3326.35  187.40  5.63
341.8  3520.83  187.26  5.32
343.2  3685.20  186.06  5.05
344.7  3881.15  170.60  4.40
346.2  4085.00  171.18  4.19
347.7  4286.43  161.04  3.76
349.2  4460.40  162.00  3.63
350.6  4664.08  164.39  3.52
352.1  4965.78  163.31  3.29
353.6  5239.70  158.63  3.03
355.1  5556.38  163.56  2.94
356.6  5833.95  165.44  2.84
358.0  6124.80  173.17  2.83
359.5  6396.30  173.63  2.71
361.0  6733.13  176.70  2.62
362.5  7113.83  181.22  2.55
364.0  7484.18  185.71  2.48
365.4  7811.80  187.33  2.40
366.9  8177.00  202.58  2.48
368.4  8537.08  207.81  2.43
369.9  8891.23  208.48  2.34
371.3  9345.00  221.23  2.37
372.8  9796.95  225.04  2.30
374.3  10212.50  227.80  2.23
375.8  10618.30  231.00  2.18
377.2  11029.00  243.38  2.21
378.7  11459.40  245.94  2.15
380.2  11862.90  251.07  2.12
381.7  12377.45  254.81  2.06
383.1  12828.20  251.53  1.96
384.6  13352.63  256.91  1.92
386.1  13836.80  265.10  1.92
387.6  14310.45  269.50  1.88
389.0  14766.80  280.76  1.90
390.5  15266.25  290.78  1.90
392.0  15843.55  292.21  1.84
393.4  16421.88  292.78  1.78
394.9  16938.90  300.77  1.78
396.4  17491.50  308.04  1.76
397.9  18040.00  319.70  1.77
399.3  18588.55  320.78  1.73
400.8  19142.40  332.33  1.74
402.2  19787.30  343.70  1.74
403.7  20415.60  348.51  1.71
405.2  21023.40  353.99  1.68
406.6  21599.20  360.15  1.67
408.1  22193.20  372.36  1.68
409.6  22784.10  380.46  1.67
411.0  23463.65  392.43  1.67
412.5  24136.18  406.58  1.68
414.0  24816.75  415.26  1.67
415.4  25499.63  424.00  1.66
416.9  26156.18  436.90  1.67
418.4  26854.65  455.31  1.70
419.8  27591.20  468.00  1.70
421.3  28341.75  482.12  1.70
422.7  29110.20  492.17  1.69
424.2  29868.75  507.85  1.70
425.7  30644.00  526.26  1.72
427.1  31428.45  541.06  1.72
428.6  32224.50  562.43  1.75
430.0  32975.28  573.76  1.74
431.5  33864.83  591.32  1.75
432.9  34720.50  609.72  1.76
434.4  35626.28  626.21  1.76
435.9  36484.00  645.33  1.77
437.3  37345.00  662.62  1.77
438.8  38200.05  682.63  1.79
440.2  39077.50  699.42  1.79
441.7  40039.20  718.49  1.79
443.1  40955.75  735.69  1.80
444.6  41933.10  756.06  1.80
446.0  42882.38  780.97  1.82
447.5  43854.53  802.58  1.83
448.9  44814.60  825.60  1.84
450.4  45830.05  846.07  1.85
451.8  46709.00  864.19  1.85
453.3  47632.23  884.12  1.86
454.7  48655.28  904.68  1.86
456.2  49527.63  923.23  1.86
457.6  50498.10  946.95  1.88
459.1  51487.80  968.28  1.88
460.5  52443.38  987.20  1.88
462.0  53518.43  1006.00  1.88
463.4  54567.10  1029.46  1.89
464.8  55569.38  1046.57  1.88
466.3  56534.78  1063.23  1.88
467.7  57510.45  1083.11  1.88
469.2  58580.15  1105.89  1.89
470.6  59586.05  1126.67  1.89
472.0  60635.10  1147.45  1.89
473.5  61683.88  1167.67  1.89
474.9  62714.25  1190.21  1.90
476.4  63878.40  1216.46  1.90
477.8  64945.50  1238.71  1.91
479.2  65946.00  1259.43  1.91
480.7  67048.20  1283.45  1.91
482.1  68189.55  1310.13  1.92
483.6  69388.90  1334.90  1.92
485.0  70478.78  1359.27  1.93
486.4  71673.30  1388.49  1.94
487.9  72759.38  1412.35  1.94
489.3  73919.50  1441.64  1.95
490.7  74979.70  1471.10  1.96
492.2  76204.80  1509.20  1.98
493.6  77308.05  1543.13  2.00
495.0  78419.25  1585.07  2.02
496.5  79611.88  1628.23  2.05
497.9  80727.18  1675.75  2.08
499.3  81901.18  1726.06  2.11
500.7  83168.05  1785.90  2.15
502.2  84344.20  1856.29  2.20
503.6  85614.40  1936.94  2.26
505.0  86698.70  2021.70  2.33
506.5  88014.68  2124.79  2.41
507.9  89172.38  2244.93  2.52
509.3  90516.80  2386.32  2.64
510.7  91757.25  2546.14  2.77
512.2  93132.15  2736.46  2.94
513.6  94638.25  2961.57  3.13
515.0  96089.88  3216.21  3.35
516.4  97481.48  3508.65  3.60
517.8  99129.25  3844.69  3.88
519.3  100481.43  4207.75  4.19
520.7  102059.20  4615.09  4.52
522.1  103373.08  5040.32  4.88
523.5  104694.80  5489.84  5.24
524.9  106187.40  5953.33  5.61
526.3  107653.70  6420.60  5.96
527.8  109162.35  6887.57  6.31
529.2  110140.80  7332.22  6.66
530.6  111655.15  7786.49  6.97
532.0  113372.00  8230.67  7.26
533.4  114695.18  8622.06  7.52
534.8  115573.28  8957.73  7.75
536.3  117196.50  9322.40  7.95
537.7  119183.40  9691.20  8.13
539.1  120661.75  9991.46  8.28
540.5  121849.60  10260.86  8.42
541.9  123625.73  10571.71  8.55
543.3  124905.83  10835.30  8.67
544.7  126232.20  11097.08  8.79
546.1  128027.63  11401.71  8.91
547.5  129270.40  11648.00  9.01
549.0  130900.00  11915.62  9.10
550.4  132408.75  12160.06  9.18
551.8  134004.30  12379.40  9.24
553.2  135515.08  12556.03  9.27
554.6  136864.00  12670.17  9.26
556.0  138379.50  12751.20  9.21
557.4  140007.00  12792.18  9.14
558.8  141660.45  12793.59  9.03
560.2  143133.50  12735.56  8.90
561.6  144803.25  12658.93  8.74
563.0  146398.60  12544.06  8.57
564.4  148005.95  12401.78  8.38
565.8  149515.00  12221.79  8.17
567.2  151274.00  12019.52  7.95
568.6  152761.13  11769.86  7.70
570.0  154187.78  11486.12  7.45
571.4  155915.50  11207.86  7.19
572.8  157685.75  10937.47  6.94
574.2  159308.80  10664.53  6.69
575.6  160875.00  10406.79  6.47
577.0  162403.60  10174.30  6.26
578.4  164129.88  9973.17  6.08
579.8  165664.58  9789.82  5.91
581.2  167374.50  9635.91  5.76
582.5  168819.30  9485.91  5.62
583.9  170333.00  9356.84  5.49
585.3  172137.38  9261.75  5.38
586.7  173628.98  9166.48  5.28
588.1  175121.38  9083.36  5.19
589.5  176779.75  9030.00  5.11
590.9  178423.60  8990.59  5.04
592.3  180218.00  8978.63  4.98
593.7  181683.45  8965.45  4.93
595.0  183307.73  8968.95  4.89
596.4  184770.60  8970.03  4.85
597.8  186266.45  8971.94  4.82
599.2  187809.60  8973.49  4.78
600.6  189574.78  8968.36  4.73
602.0  190876.65  8926.98  4.68
603.3  192667.45  8890.09  4.61
604.7  194349.10  8823.63  4.54
606.1  195849.60  8730.80  4.46
607.5  197484.35  8620.24  4.37
608.9  199186.85  8496.90  4.27
610.2  200576.25  8345.70  4.16
611.6  202197.38  8202.08  4.06
613.0  203745.00  8054.84  3.95
614.4  205140.45  7906.89  3.85
615.8  206592.75  7772.14  3.76
617.1  208137.30  7655.20  3.68
618.5  209775.20  7557.87  3.60
619.9  211293.23  7480.98  3.54
621.3  212919.30  7419.77  3.48
622.6  214506.50  7382.45  3.44
624.0  215975.55  7360.09  3.41
625.4  217459.28  7355.31  3.38
626.8  219032.45  7372.52  3.37
628.1  220319.28  7384.69  3.35
629.5  222096.00  7420.51  3.34
630.9  223577.20  7452.90  3.33
632.2  224850.85  7464.15  3.32
633.6  226358.25  7473.03  3.30
635.0  227796.80  7446.78  3.27
636.3  229311.50  7396.16  3.23
637.7  230670.50  7310.74  3.17
639.1  232312.50  7210.00  3.10
640.4  233804.90  7076.73  3.03
641.8  235004.80  6924.59  2.95
643.2  236578.13  6775.68  2.86
644.5  237943.50  6618.67  2.78
645.9  239517.90  6480.35  2.71
647.2  240573.90  6340.17  2.64
648.6  242149.50  6242.78  2.58
650.0  243475.20  6163.20  2.53
651.3  244387.28  6086.66  2.49
652.7  246519.75  6039.10  2.45
654.0  248579.50  5982.35  2.41
655.4  249955.63  5914.99  2.37
656.8  250063.20  5832.82  2.33
658.1  251470.60  5763.64  2.29
659.5  253878.45  5693.20  2.24
660.8  255375.00  5601.43  2.19
662.2  256412.80  5497.60  2.14
663.5  257981.05  5417.26  2.10
664.9  258989.90  5346.10  2.06
666.2  259784.40  5287.83  2.04
667.6  261492.73  5268.70  2.01
668.9  262461.30  5253.69  2.00
670.3  264293.50  5263.45  1.99
671.6  265323.00  5282.61  1.99
673.0  266473.50  5320.54  2.00
674.3  267763.60  5365.04  2.00
675.7  269072.18  5426.25  2.02
677.0  270136.63  5499.96  2.04
678.4  271436.10  5592.25  2.06
679.7  272493.30  5701.33  2.09
681.1  273774.15  5829.90  2.13
682.4  274857.70  5983.84  2.18
683.8  276051.10  6164.85  2.23
685.1  277027.13  6401.50  2.31
686.4  278321.40  6714.97  2.41
687.8  279549.00  7115.76  2.55
689.1  280617.00  7658.24  2.73
690.5  281945.25  8403.60  2.98
691.8  282757.98  9428.80  3.33
693.1  284076.30  10833.17  3.81
694.5  285262.25  12638.17  4.43
695.8  286468.00  14882.83  5.20
697.1  287628.25  17571.67  6.11
698.5  288653.20  20680.78  7.16
699.8  289741.15  24180.19  8.35
701.1  290874.90  28039.26  9.64
702.5  291661.70  32119.79  11.01
703.8  292590.00  36407.14  12.44
705.1  293722.65  40832.72  13.90
706.5  294745.88  45321.10  15.38
707.8  295690.50  49834.11  16.85
709.1  296542.98  54324.17  18.32
710.5  297614.58  58861.46  19.78
711.8  298440.90  63315.01  21.22
713.1  299422.10  67772.89  22.63
714.4  300314.10  72177.67  24.03
715.8  301139.20  76508.11  25.41
717.1  302462.55  80902.74  26.75
718.4  303408.00  85130.67  28.06
719.7  304491.30  89307.09  29.33
721.0  304987.50  93222.86  30.57
722.4  305687.80  97093.86  31.76
723.7  306658.35  100902.51  32.90
725.0  307673.78  104597.77  34.00
726.3  308616.83  108110.07  35.03
727.6  309141.80  111320.79  36.01
729.0  310037.70  114491.82  36.93
730.3  310814.48  117451.62  37.79
731.6  311691.60  120282.99  38.59
732.9  312443.60  122907.52  39.34
734.2  313225.00  125376.82  40.03
735.5  314270.48  127790.04  40.66
736.8  315067.80  129959.51  41.25
738.1  315910.20  132005.39  41.79
739.5  316861.73  133961.73  42.28
740.8  317514.18  135670.75  42.73
742.1  318160.55  137270.02  43.14
743.4  318775.00  138747.62  43.53
744.7  319697.33  140227.15  43.86
746.0  320576.10  141614.76  44.18
747.3  321181.08  142772.26  44.45
748.6  321900.75  143900.81  44.70
749.9  322556.00  144916.57  44.93
751.2  323109.40  145822.36  45.13
752.5  323841.60  146751.31  45.32
753.8  324346.93  147505.03  45.48
755.1  324974.00  148269.33  45.62
756.4  325518.70  148940.65  45.75
757.7  326511.15  149762.38  45.87
759.0  328284.55  150896.15  45.97
760.3  329445.60  151704.46  46.05
761.6  330983.80  152663.73  46.12
762.9  331459.25  153117.00  46.19
764.2  331784.60  153468.34  46.26
765.5  332002.13  153743.94  46.31
766.8  332384.00  154058.21  46.35
768.1  332855.20  154415.96  46.39
769.3  333403.70  154776.80  46.42
770.6  334002.50  155175.74  46.46
771.9  334690.83  155579.67  46.48
773.2  335034.80  155824.04  46.51
774.5  335563.80  156145.11  46.53
775.8  336189.05  156496.14  46.55
777.1  336711.65  156790.91  46.57
778.4  336975.10  156980.98  46.59
779.6  337646.28  157364.15  46.61
780.9  338040.00  157611.43  46.63
782.2  338467.25  157856.02  46.64
783.5  338733.00  158013.24  46.65
784.8  339167.48  158252.62  46.66
786.0  339503.85  158443.73  46.67
787.3  339804.10  158628.00  46.68
788.6  340177.43  158831.00  46.69
789.9  340547.20  159055.73  46.71
791.2  341157.98  159353.79  46.71
792.4  341752.90  159652.39  46.72
793.7  342183.00  159874.67  46.72
795.0  342748.73  160162.99  46.73
796.2  343310.98  160450.06  46.74
797.5  343916.40  160773.44  46.75
798.8  344500.50  161062.12  46.75
800.0  345084.28  161363.12  46.76
801.3  345477.00  161562.97  46.77
802.6  346028.63  161831.06  46.77
803.8  346582.53  162121.94  46.78
805.1  347015.38  162332.17  46.78
806.4  347395.80  162538.23  46.79
807.7  347814.00  162774.90  46.80
808.9  348290.90  163022.44  46.81
810.2  348751.90  163258.63  46.81
811.4  349190.80  163489.61  46.82
812.7  349781.25  163780.65  46.82
814.0  350556.85  164161.07  46.83
815.2  351117.50  164455.24  46.84
816.5  351474.35  164638.98  46.84
817.7  351927.05  164870.48  46.85
819.0  352422.95  165110.00  46.85
820.2  352528.00  165201.14  46.86
821.5  353181.50  165528.18  46.87
822.7  353461.93  165697.87  46.88
824.0  353705.40  165852.00  46.89
825.2  354156.30  166073.14  46.89
826.5  354420.68  166227.90  46.90
827.7  355000.80  166482.09  46.90
829.0  355351.43  166671.99  46.90
830.2  355644.40  166820.75  46.91
831.5  356065.00  167052.04  46.92
832.7  356373.15  167203.75  46.92
834.0  356695.60  167377.17  46.92
835.2  357064.95  167549.75  46.92
836.4  357338.30  167707.00  46.93
837.7  357720.00  167927.09  46.94
838.9  358097.65  168151.84  46.96
840.1  358447.95  168347.12  46.97
841.4  358868.30  168559.48  46.97
842.6  359227.00  168781.51  46.98
843.8  359569.60  168963.33  46.99
845.1  360017.10  169232.29  47.01
846.3  360419.70  169441.93  47.01
847.5  360832.50  169661.60  47.02
848.8  361221.00  169867.60  47.03
850.0  361553.15  170079.83  47.04
851.2  362109.15  170366.27  47.05
852.5  362459.10  170566.47  47.06
853.7  362920.50  170812.07  47.07
854.9  363351.70  171029.03  47.07
856.1  363806.30  171264.48  47.08
857.4  364016.78  171384.08  47.08
858.6  364462.85  171651.15  47.10
859.8  364843.13  171851.79  47.10
861.0  365250.60  172056.86  47.11
862.2  365680.88  172292.57  47.12
863.5  366092.03  172489.45  47.12
864.7  366557.40  172732.69  47.12
865.9  366926.60  172909.43  47.12
867.1  367190.80  173073.16  47.13
868.3  367663.20  173281.32  47.13
869.5  368112.90  173519.49  47.14
870.8  368577.00  173778.86  47.15
872.0  369072.23  174003.34  47.15
873.2  369493.20  174207.51  47.15
874.4  369918.90  174429.45  47.15
875.6  370315.55  174608.48  47.15
876.8  370748.05  174849.20  47.16
878.0  371180.90  175057.60  47.16
879.2  371677.05  175288.85  47.16
880.4  372131.25  175516.93  47.17
881.6  372552.88  175730.74  47.17
882.8  372959.20  175920.23  47.17
884.0  373571.13  176176.00  47.16
885.2  374040.50  176385.58  47.16
886.5  374502.75  176616.88  47.16
887.7  374864.10  176817.67  47.17
888.8  375596.63  177099.58  47.15
890.0  376086.60  177336.71  47.15
891.2  376674.00  177574.89  47.14
892.4  377154.23  177841.55  47.15
893.6  377595.65  178082.33  47.16
894.8  378488.00  178463.57  47.15
896.0  379333.50  178801.24  47.14
897.2  380029.00  179143.09  47.14
898.4  380760.60  179434.20  47.13
899.6  381221.25  179654.29  47.13
900.8  381533.08  179784.77  47.12
902.0  381704.55  179879.72  47.13
903.2  381899.48  179955.12  47.12
904.3  382157.10  180060.69  47.12
905.5  382605.83  180298.40  47.12
906.7  383176.00  180519.05  47.11
907.9  383679.80  180697.77  47.10
909.1  383956.20  180789.94  47.09
910.2  383933.85  180829.33  47.10
911.4  384119.78  180858.32  47.08
912.6  384219.55  180901.13  47.08
913.8  384215.55  180941.24  47.09
915.0  384596.10  181046.60  47.07
916.2  384686.25  181071.43  47.07
917.3  384654.15  181002.92  47.06
918.5  384705.70  181024.86  47.06
919.7  384783.75  181037.86  47.05
920.8  384841.33  180977.34  47.03
922.0  384846.00  180937.17  47.02
923.2  384930.00  180960.00  47.01
924.4  385097.63  180968.14  46.99
925.5  385263.80  180987.00  46.98
926.7  385693.88  181141.68  46.97
927.9  386515.80  181369.71  46.92
929.0  387887.40  181905.43  46.90
930.2  389959.80  182836.09  46.89
931.4  392256.00  183826.22  46.86
932.5  394819.10  184937.73  46.84
933.7  395922.63  185393.60  46.83
934.9  396593.75  185539.58  46.78
936.0  396033.63  185148.63  46.75
937.2  393936.45  184011.92  46.71
938.3  391966.75  182957.61  46.68
939.5  390344.40  182075.31  46.64
940.7  390384.90  181984.80  46.62
941.8  391899.45  182508.83  46.57
943.0  393095.25  182988.64  46.55
944.2  393976.05  183137.07  46.48
945.3  393471.00  182674.14  46.43
946.5  392563.80  182074.12  46.38
947.6  392460.60  181818.83  46.33
948.8  392124.53  181496.53  46.29
949.9  392036.40  181288.40  46.24
951.1  391625.33  180797.16  46.17
952.2  391476.00  180355.43  46.07
953.4  391288.00  179833.79  45.96
954.5  391084.20  179451.26  45.89
955.7  390700.80  178989.60  45.81
956.8  390258.90  178574.24  45.76
958.0  389618.50  178001.62  45.69
959.1  389375.63  177570.33  45.60
960.3  388887.73  177168.36  45.56
961.4  388883.90  176873.04  45.48
962.6  388874.50  176752.83  45.45
963.7  388349.48  176470.45  45.44
964.9  388335.68  176219.55  45.38
966.0  387819.90  176005.67  45.38
967.2  387772.20  175923.90  45.37
968.3  387487.80  175705.59  45.34
969.5  387211.38  175546.47  45.34
970.6  387180.23  175489.80  45.33
971.8  387156.53  175491.57  45.33
972.9  387159.00  175321.77  45.28
974.0  387495.10  175458.35  45.28
975.2  387518.00  175338.25  45.25
976.3  387207.00  175301.65  45.27
977.5  387251.20  175257.10  45.26
978.6  387296.80  175281.91  45.26
979.7  386924.48  175229.40  45.29
980.9  386893.65  175173.62  45.28
982.0  386839.70  175158.90  45.28
983.2  386770.23  174930.99  45.23
984.3  385554.20  174689.27  45.31
985.4  385909.53  174729.65  45.28
986.6  385670.50  174762.43  45.31
987.7  385464.98  175106.88  45.43
988.9  385374.60  174976.29  45.40
990.0  386408.70  175063.83  45.31
993.1  385903.93  173020.50  44.84
996.9  384684.43  173074.82  44.99
1000.7  384718.89  173626.62  45.13
1004.5  384829.42  174173.13  45.26
1008.4  384439.71  174542.89  45.40
1012.2  384317.58  174965.31  45.53
1016.0  384038.40  175287.60  45.64
1019.8  383471.55  175444.50  45.75
1023.7  382338.18  175306.76  45.85
1027.5  380722.17  174910.75  45.94
1031.3  379703.15  174724.06  46.02
1035.1  378689.91  174513.65  46.08
1038.9  378179.27  174504.97  46.14
1042.7  377848.67  174563.75  46.20
1046.5  377701.00  174669.59  46.25
1050.3  377627.38  174772.22  46.28
1054.2  377276.08  174736.58  46.32
1058.0  376826.28  174608.81  46.34
1061.8  376755.32  174662.90  46.36
1065.6  376167.50  174420.73  46.37
1069.4  375368.67  174044.15  46.37
1073.2  374080.56  173416.51  46.36
1077.0  373390.90  173025.50  46.34
1080.8  373495.83  172968.60  46.31
1084.6  373508.22  172856.60  46.28
1088.4  373735.51  172872.05  46.26
1092.2  373259.25  172491.43  46.21
1096.0  372558.04  171996.22  46.17
1099.8  371821.67  171455.61  46.11
1103.6  370884.63  170793.60  46.05
1107.4  369741.00  169999.97  45.98
1111.2  369407.20  169571.49  45.90
1114.9  368836.42  168976.75  45.81
1118.7  368544.83  168421.63  45.70
1122.5  368153.93  167694.06  45.55
1126.3  367218.54  166580.31  45.36
1130.1  366791.38  165438.05  45.10
1133.9  365112.30  163406.80  44.76
1137.7  363577.90  161109.63  44.31
1141.4  361536.39  158319.34  43.79
1145.2  360614.48  155859.25  43.22
1149.0  359305.63  153403.75  42.69
1152.8  357472.55  151031.60  42.25
1156.6  355630.92  149083.18  41.92
1160.3  353806.67  147553.86  41.70
1164.1  351407.57  146113.15  41.58
1167.9  349767.71  145184.08  41.51
1171.7  348468.75  144490.50  41.46
1175.4  347024.23  143793.63  41.44
1179.2  345612.45  143089.94  41.40
1183.0  345273.00  142781.00  41.35
1186.7  345228.10  142618.73  41.31
1190.5  344858.53  142348.79  41.28
1194.3  343910.70  141891.92  41.26
1198.0  342420.65  141290.01  41.26
1201.8  340690.63  140649.32  41.28
1205.6  339600.67  140342.66  41.33
1209.3  338990.62  140327.94  41.40
1213.1  338476.80  140382.78  41.47
1216.8  337818.89  140434.25  41.57
1220.6  336685.07  140272.00  41.66
1224.3  335411.75  140038.22  41.75
1228.1  333854.60  139713.26  41.85
1231.9  332271.63  139298.33  41.92
1235.6  330529.35  138777.90  41.99
1239.4  328936.13  138349.16  42.06
1243.1  327555.58  137934.88  42.11
1246.9  326285.73  137531.60  42.15
1250.6  325221.00  137184.88  42.18
1254.3  324040.57  136756.59  42.20
1258.1  322807.80  136272.47  42.21
1261.8  321386.67  135678.57  42.22
1265.6  320211.42  135127.28  42.20
1269.3  319391.68  134693.98  42.17
1273.1  319710.42  134688.84  42.13
1276.8  319488.40  134398.00  42.07
1280.6  318364.40  133692.29  41.99
1284.3  316388.80  132568.23  41.90
1288.0  315137.06  131668.87  41.78
1291.8  314649.81  130998.32  41.63
1295.5  313890.13  130159.12  41.47
1299.2  312726.02  129073.40  41.27
1302.9  311105.30  127676.17  41.04
1306.7  309324.75  126108.38  40.77
1310.4  307596.56  124420.09  40.45
1314.1  305991.95  122672.42  40.09
1317.9  304562.08  120838.90  39.68
1321.6  303043.37  118822.70  39.21
1325.3  301378.88  116619.15  38.70
1329.0  300103.53  114476.53  38.15
1332.8  298144.00  111973.40  37.56
1336.5  296493.93  109571.05  36.96
1340.2  296326.33  107744.00  36.36
1343.9  296303.96  105984.70  35.77
1347.6  296500.95  104344.89  35.19
1351.4  298003.00  103227.78  34.64
1355.1  300039.67  102323.41  34.10
1358.8  301744.00  101213.71  33.54
1362.5  302003.43  99441.59  32.93
1366.2  300034.70  96613.91  32.20
1369.9  296862.50  93002.55  31.33
1373.6  294019.19  88933.17  30.25
1377.3  292496.40  84492.60  28.89
1381.0  291986.17  79422.21  27.20
1384.8  290030.00  73034.46  25.18
1388.4  286820.92  65878.73  22.97
1392.2  284578.50  58757.01  20.65
1395.9  283081.63  51964.50  18.36
1399.6  281274.77  45716.15  16.25
1403.3  279820.73  40381.85  14.43
1407.0  278125.50  35959.73  12.93
1410.7  276334.58  32451.73  11.74
1414.3  274462.42  29767.22  10.85
1418.1  272757.46  27798.07  10.19
1421.7  271378.74  26374.52  9.72
1425.4  270016.18  25365.23  9.39
1429.1  268785.75  24674.68  9.18
1432.8  267134.28  24186.68  9.05
1436.5  266324.99  23936.49  8.99
1440.2  265691.87  23834.79  8.97
1443.9  264582.18  23770.85  8.98
1447.6  263001.20  23742.40  9.03
1451.2  261772.32  23779.30  9.08
1454.9  260307.30  23854.76  9.16
1458.6  259048.46  24041.02  9.28
1462.3  257836.70  24347.56  9.44
1466.0  256468.06  24786.17  9.66
1469.7  254786.89  25349.57  9.95
1473.3  253724.17  26110.91  10.29
1477.0  251668.30  26873.22  10.68
1480.7  250018.67  27741.71  11.10
1484.4  247999.06  28596.73  11.53
1488.0  246400.00  29540.76  11.99
1491.7  244789.80  30481.99  12.45
1495.4  243095.05  31429.36  12.93
1499.0  241512.00  32370.22  13.40
1502.7  240210.50  33351.93  13.88
1506.4  238779.08  34291.80  14.36
1510.0  237322.97  35214.75  14.84
1513.7  235812.50  36096.67  15.31
1517.4  234436.00  36971.81  15.77
1521.0  233174.40  37837.24  16.23
1524.7  231910.25  38654.73  16.67
1528.3  230618.88  39437.00  17.10
1532.0  229381.72  40194.18  17.52
1535.7  227976.56  40871.84  17.93
1539.3  226703.23  41542.57  18.32
1543.0  225730.28  42229.12  18.71
1546.6  225023.50  42944.11  19.08
1550.3  224041.30  43555.00  19.44
1553.9  222961.60  44118.80  19.79
1557.6  221693.27  44608.56  20.12
1561.2  220423.95  45044.55  20.44
1564.9  219127.97  45449.39  20.74
1568.5  217787.85  45815.00  21.04
1572.2  216636.95  46194.40  21.32
1575.8  215516.00  46558.00  21.60
1579.5  214508.80  46915.88  21.87
1583.1  213437.28  47242.64  22.13
1586.8  212114.00  47480.00  22.38
1590.4  210921.00  47717.34  22.62
1594.0  209596.73  47915.12  22.86
1597.7  208770.17  48209.13  23.09
1601.3  207833.85  48462.30  23.32
1604.9  206823.39  48668.59  23.53
1608.6  205471.10  48751.89  23.73
1612.2  204119.85  48813.01  23.91
1615.8  202693.40  48826.65  24.09
1619.5  201457.67  48859.43  24.25
1623.1  200114.40  48839.44  24.41
1626.7  198906.18  48814.68  24.54
1630.3  197714.08  48764.00  24.66
1634.0  196602.00  48700.00  24.77
1637.6  195611.07  48612.39  24.85
1641.2  194578.45  48444.40  24.90
1644.8  193354.71  48159.80  24.91
1648.5  192280.79  47859.33  24.89
1652.1  191322.90  47547.21  24.85
1655.7  190379.40  47243.40  24.82
1659.3  189537.61  47019.83  24.81
1662.9  188133.33  46701.43  24.82
1666.6  186692.80  46417.99  24.86
1670.2  185288.83  46135.43  24.90
1673.8  183822.52  45808.72  24.92
1677.4  182650.00  45513.97  24.92
1681.0  181820.85  45253.14  24.89
1684.6  181393.33  45036.49  24.83
1688.2  180709.65  44683.68  24.73
1691.8  180037.56  44328.06  24.62
1695.4  179587.40  43979.43  24.49
1699.0  179211.90  43617.03  24.34
1702.6  178865.67  43245.72  24.18
1706.2  178231.08  42807.16  24.02
1709.8  177285.90  42318.21  23.87
1713.4  176527.10  41875.83  23.72
1717.0  175628.25  41396.93  23.57
1720.6  174788.25  40916.20  23.41
1724.2  174085.20  40440.35  23.23
1727.8  173360.95  39964.20  23.05
1731.4  172909.00  39536.75  22.87
1735.0  172724.38  39169.87  22.68
1738.6  172514.70  38759.64  22.47
1742.2  171956.40  38247.98  22.24
1745.8  171336.83  37702.88  22.01
1749.4  170387.25  37082.57  21.76
1753.0  168909.47  36352.44  21.52
1756.6  167259.17  35611.59  21.29
1760.1  165923.66  34955.78  21.07
1763.7  164189.33  34245.91  20.86
1767.3  162736.70  33629.97  20.67
1770.9  161477.87  33074.30  20.48
1774.5  159996.21  32521.12  20.33
1778.0  158844.07  32065.27  20.19
1781.6  157756.95  31663.50  20.07
1785.2  156605.58  31282.05  19.98
1788.8  155439.40  30948.53  19.91
1792.3  154191.80  30627.70  19.86
1795.9  153661.84  30476.53  19.83
1799.5  153455.00  30404.53  19.81
1803.1  154406.35  30587.78  19.81
1806.6  156513.00  30987.78  19.80
1810.2  158260.43  31321.47  19.79
1813.8  159049.90  31457.29  19.78
1817.3  158508.60  31327.29  19.76
1820.9  157242.60  31045.28  19.74
1824.5  155827.85  30703.84  19.70
1828.0  154728.29  30386.65  19.64
1831.6  154254.00  30161.19  19.55
1835.2  154005.83  29911.91  19.42
1838.7  153806.27  29581.56  19.23
1842.3  153570.00  29153.57  18.98
1845.8  152381.46  28420.66  18.65
1849.4  151763.33  27644.98  18.22
1852.9  150922.16  26648.34  17.66
1856.5  149868.88  25399.86  16.95
1860.0  148841.00  23932.38  16.08
1863.6  148826.43  22383.04  15.04
1867.1  149445.10  20687.80  13.84
1870.7  150288.98  18709.41  12.45
1874.2  149315.85  16291.35  10.91
1877.8  146717.67  13733.92  9.36
1881.3  143822.25  11294.73  7.85
1884.9  142006.52  9228.74  6.50
1888.4  140501.03  7505.67  5.34
1891.9  138930.53  6176.97  4.45
1895.5  137551.73  5249.57  3.82
1899.0  136887.13  4676.50  3.42
1901.3  176876.17  3283.06  1.86
1904.1  176794.50  2934.75  1.66
1906.8  175714.20  2697.80  1.54
1909.6  173527.55  2493.28  1.44
1912.4  171470.25  2354.60  1.37
1915.1  169983.55  2265.63  1.33
1917.9  168483.00  2190.94  1.30
1920.6  167181.63  2139.51  1.28
1923.3  165832.33  2092.92  1.26
1926.1  164181.63  2059.99  1.25
1928.8  162594.67  2048.45  1.26
1931.6  161378.67  2040.26  1.26
1934.3  160305.22  2034.05  1.27
1937.0  159265.77  2042.97  1.28
1939.8  158077.75  2046.39  1.29
1942.5  156519.00  2049.67  1.31
1945.2  154534.60  2065.62  1.34
1947.9  152908.00  2080.25  1.36
1950.7  151627.50  2112.85  1.39
1953.4  149734.45  2132.83  1.42
1956.1  148246.58  2172.11  1.47
1958.8  146942.47  2220.47  1.51
1961.5  145387.60  2266.27  1.56
1964.2  143798.20  2308.37  1.61
1966.9  142157.40  2368.08  1.67
1969.6  140859.00  2436.00  1.73
1972.3  139409.60  2506.83  1.80
1975.0  138325.50  2575.35  1.86
1977.7  137187.33  2656.76  1.94
1980.4  136014.83  2746.89  2.02
1983.1  134890.42  2847.44  2.11
1985.8  133962.60  2949.30  2.20
1988.4  132912.00  3050.67  2.30
1991.1  131951.87  3159.80  2.39
1993.8  131050.88  3268.59  2.49
1996.5  130396.02  3392.09  2.60
1999.1  129689.45  3524.22  2.72
2001.8  128982.00  3654.78  2.83
2004.5  128305.45  3791.58  2.96
2007.1  127535.60  3921.33  3.07
2009.8  126763.23  4051.91  3.20
2012.4  126165.23  4184.83  3.32
2015.1  125597.73  4316.66  3.44
2017.8  124786.20  4437.53  3.56
2020.4  124260.95  4575.45  3.68
2023.1  123896.97  4713.80  3.80
2025.7  123656.00  4850.44  3.92
2028.3  123309.33  4974.67  4.03
2031.0  122877.85  5094.22  4.15
2033.6  122600.40  5217.10  4.26
2036.2  122330.70  5338.90  4.36
2038.9  121713.00  5434.60  4.47
2041.5  121370.87  5540.89  4.57
2044.1  120816.90  5628.90  4.66
2046.8  120416.70  5724.60  4.75
2049.4  119755.50  5802.90  4.85
2052.0  119463.27  5897.91  4.94
2054.6  119078.75  5985.00  5.03
2057.2  118493.87  6063.84  5.12
2059.8  118144.53  6154.09  5.21
2062.4  117230.45  6217.89  5.30
2065.0  116686.07  6296.73  5.40
2067.6  115792.20  6354.45  5.49
2070.2  115190.75  6424.18  5.58
2072.8  114528.28  6488.10  5.67
2075.4  114073.75  6565.42  5.76
2078.0  113427.97  6625.56  5.84
2080.6  112851.20  6690.93  5.93
2083.2  112143.20  6744.49  6.01
2085.8  111636.17  6804.16  6.09
2088.4  110955.50  6854.67  6.18
2090.9  110146.62  6897.57  6.26
2093.5  109241.43  6922.74  6.34
2096.1  108447.82  6950.54  6.41
2098.7  107648.53  6985.68  6.49
2101.2  106677.67  7004.13  6.57
2103.8  105987.73  7033.24  6.64
2106.4  105306.53  7065.27  6.71
2108.9  104634.07  7088.56  6.77
2111.5  103760.73  7100.20  6.84
2114.0  103123.20  7126.40  6.91
2116.6  102585.00  7148.75  6.97
2119.1  102017.70  7171.13  7.03
2121.7  101526.25  7189.58  7.08
2124.2  101114.73  7214.97  7.14
2126.8  100305.67  7214.05  7.19
2129.3  99880.00  7242.40  7.25
2131.9  99281.60  7248.27  7.30
2134.4  98854.50  7271.75  7.36
2136.9  98445.10  7299.14  7.41
2139.4  97905.73  7320.91  7.48
2142.0  97444.67  7350.47  7.54
2144.5  97170.20  7395.90  7.61
2147.0  96917.73  7438.49  7.68
2149.5  96399.60  7468.27  7.75
2152.1  96229.47  7519.05  7.81
2154.6  96161.07  7576.71  7.88
2157.1  95620.25  7587.61  7.94
2159.6  95184.25  7614.86  8.00
2162.1  95022.20  7659.17  8.06
2164.6  94776.60  7690.27  8.11
2167.1  94441.40  7714.00  8.17
2169.6  94092.95  7738.93  8.22
2172.1  93626.00  7746.77  8.27
2174.6  93296.80  7768.56  8.33
2177.1  92851.90  7785.62  8.38
2179.5  92421.33  7794.94  8.43
2182.0  91929.20  7807.25  8.49
2184.5  91384.28  7816.32  8.55
2187.0  90767.53  7813.94  8.61
2189.5  90063.22  7811.11  8.67
2191.9  89262.00  7793.17  8.73
2194.4  88604.90  7786.43  8.79
2196.9  87840.00  7766.40  8.84
2199.3  87164.33  7759.11  8.90
2201.8  86266.53  7718.53  8.95
2204.3  85778.03  7715.90  9.00
2206.7  85113.85  7692.85  9.04
2209.2  84630.98  7689.23  9.09
2211.6  84001.50  7659.30  9.12
2214.1  83699.40  7651.55  9.14
2216.5  83122.13  7622.18  9.17
2219.0  82764.53  7615.56  9.20
2221.4  82387.67  7596.16  9.22
2223.9  81901.75  7563.11  9.23
2226.3  81386.08  7503.61  9.22
2228.7  80806.13  7435.56  9.20
2231.1  80199.90  7365.60  9.18
2233.6  79595.80  7281.13  9.15
2236.0  79025.92  7186.28  9.09
2238.4  78510.25  7087.11  9.03
2240.9  78056.13  6996.38  8.96
2243.3  77509.80  6883.80  8.88
2245.7  76913.50  6769.32  8.80
2248.1  76434.37  6657.73  8.71
2250.5  75893.30  6529.10  8.60
2252.9  75248.33  6391.96  8.49
2255.3  74674.75  6258.55  8.38
2257.7  74210.00  6130.00  8.26
2260.1  73704.87  6009.96  8.15
2262.5  73070.00  5876.67  8.04
2264.9  72528.92  5753.73  7.93
2267.3  71900.00  5626.67  7.83
2269.7  71387.17  5504.96  7.71
2272.1  70827.85  5392.31  7.61
2274.5  70242.73  5277.86  7.51
2276.8  69776.10  5178.62  7.42
2279.2  69174.15  5071.90  7.33
2281.6  68725.13  4979.64  7.25
2284.0  68255.80  4881.67  7.15
2286.3  67781.87  4786.31  7.06
2288.7  67362.75  4694.52  6.97
2291.1  66803.20  4598.18  6.88
2293.4  66353.47  4507.07  6.79
2295.8  65693.40  4398.10  6.69
2298.2  65091.15  4295.25  6.60
2300.5  64428.75  4177.95  6.48
2302.9  63663.67  4074.78  6.40
2305.2  62922.70  3975.80  6.32
2307.6  62240.45  3879.07  6.23
2309.9  61442.00  3785.44  6.16
2312.2  60842.67  3713.11  6.10
2314.6  60226.65  3636.30  6.04
2316.9  59512.50  3553.50  5.97
2319.2  58924.13  3472.83  5.89
2321.6  58281.65  3402.27  5.84
2323.9  57729.17  3326.39  5.76
2326.2  57174.67  3255.20  5.69
2328.6  56670.35  3187.25  5.62
2330.9  56143.50  3115.00  5.55
2333.2  55657.75  3040.94  5.46
2335.5  55190.60  2974.60  5.39
2337.8  54725.42  2904.31  5.31
2340.1  54143.12  2832.42  5.23
2342.4  53700.83  2769.72  5.16
2344.8  53262.42  2710.97  5.09
2347.1  52683.87  2646.62  5.02
2349.4  52141.88  2588.92  4.97
2351.6  51546.98  2526.49  4.90
2353.9  51040.20  2464.11  4.83
2356.2  50514.13  2397.49  4.75
2358.5  49907.20  2344.53  4.70
2360.8  49336.00  2292.27  4.65
2363.1  48893.45  2239.60  4.58
2365.4  48409.20  2180.90  4.51
2367.7  47914.20  2120.40  4.43
2369.9  47380.10  2064.82  4.36
2372.2  46761.07  2010.49  4.30
2374.5  46142.25  1948.10  4.22
2376.7  45502.48  1889.64  4.15
2379.0  44869.77  1838.06  4.10
2381.3  44251.67  1781.11  4.02
2383.5  43718.40  1732.62  3.96
2385.8  43124.83  1682.63  3.90
2388.0  42586.20  1620.53  3.81
2390.3  42055.47  1566.40  3.72
2392.5  41568.00  1524.00  3.67
2394.8  41079.50  1480.23  3.60
2397.0  40586.00  1435.78  3.54
2399.3  40107.53  1380.78  3.44
2401.5  39665.50  1339.33  3.38
2403.8  39130.05  1293.25  3.31
2406.0  38615.83  1258.22  3.26
2408.2  38210.33  1213.42  3.18
2410.4  37787.05  1169.27  3.09
2412.7  37360.70  1135.19  3.04
2414.9  36988.60  1100.55  2.98
2417.1  36588.70  1066.80  2.92
2419.3  36160.00  1028.27  2.84
2421.6  35753.33  994.58  2.78
2423.8  35360.10  972.50  2.75
2426.0  35003.07  934.80  2.67
2428.2  34665.87  897.24  2.59
2430.4  34340.50  882.22  2.57
2432.6  34066.67  862.22  2.53
2434.8  33750.83  828.73  2.46
2437.0  33381.83  792.57  2.37
2439.2  33034.73  770.45  2.33
2441.4  32679.10  749.83  2.29
2443.6  32427.72  727.68  2.24
2445.7  32167.68  703.42  2.19
2447.9  31910.92  695.83  2.18
2450.1  31612.50  679.08  2.15
2452.3  31226.07  644.66  2.06
2454.5  30862.93  614.61  1.99
2456.6  30473.60  603.95  1.98
2458.8  30087.20  591.07  1.96
2461.0  29784.83  581.47  1.95
2463.1  29478.30  562.60  1.91
2465.3  29208.13  546.31  1.87
2467.5  28954.25  526.08  1.82
2469.6  28714.58  512.14  1.78
2471.8  28411.53  510.57  1.80
2473.9  28100.25  497.75  1.77
2476.1  27709.50  490.39  1.77
2478.2  27359.07  457.00  1.67
2480.4  27092.75  434.92  1.61
2482.5  26739.72  433.53  1.62
2484.6  26398.17  431.14  1.63
2486.8  26124.80  423.90  1.62
2488.9  25805.75  410.37  1.59
2491.1  25466.00  417.82  1.64
2493.2  25083.63  404.49  1.61
2495.3  24659.27  390.14  1.58
2497.4  24327.10  370.30  1.52
2499.5  23999.88  366.82  1.53
2501.7  23877.63  356.06  1.49
2503.8  23771.10  351.05  1.48
2505.9  23728.75  364.44  1.54
2508.0  23717.57  356.17  1.50
2510.1  23731.18  357.67  1.51
2512.2  23836.65  367.00  1.54
2514.3  24051.88  373.34  1.55
2516.4  24270.40  380.87  1.57
