/*** Spectra Vista SIG Data ***/
name= 41_20220825_LIST_57_avg.sig
comm= Averaged Ref/Tar of files: HR.082522.0041_moc.sig,HR.082522.0042_moc.sig,HR.082522.0043_moc.sig
data=
337.3  3324.88  264.67  7.96
338.8  3463.20  250.12  7.22
340.3  3654.30  256.11  7.01
341.8  3886.63  243.87  6.27
343.2  4040.40  248.64  6.15
344.7  4222.35  250.21  5.93
346.2  4411.80  234.21  5.31
347.7  4601.03  241.19  5.24
349.2  4800.60  226.80  4.72
350.6  5031.33  239.94  4.77
352.1  5358.75  223.88  4.18
353.6  5621.40  235.96  4.20
355.1  5926.80  237.97  4.02
356.6  6227.25  240.35  3.86
358.0  6507.60  246.69  3.79
359.5  6798.00  251.32  3.70
361.0  7152.08  239.40  3.35
362.5  7494.40  249.81  3.33
364.0  7885.63  256.16  3.25
365.4  8205.20  269.76  3.29
366.9  8591.38  276.25  3.22
368.4  8973.48  283.66  3.16
369.9  9350.65  291.87  3.12
371.3  9772.20  299.04  3.06
372.8  10195.20  307.98  3.02
374.3  10642.50  311.75  2.93
375.8  11076.45  323.40  2.92
377.2  11486.30  333.56  2.90
378.7  11943.60  344.32  2.88
380.2  12347.10  347.91  2.82
381.7  12890.93  356.73  2.77
383.1  13394.15  355.74  2.66
384.6  13919.10  363.26  2.61
386.1  14404.33  378.35  2.63
387.6  14849.45  384.49  2.59
389.0  15383.20  400.21  2.60
390.5  15876.90  400.02  2.52
392.0  16451.90  416.15  2.53
393.4  17026.20  423.90  2.49
394.9  17591.40  438.48  2.49
396.4  18190.13  458.85  2.52
397.9  18757.50  468.08  2.50
399.3  19322.98  476.11  2.46
400.8  19890.15  485.21  2.44
402.2  20548.35  497.55  2.42
403.7  21161.93  513.60  2.43
405.2  21828.35  530.32  2.43
406.6  22434.40  547.52  2.44
408.1  23052.00  560.48  2.43
409.6  23662.10  576.55  2.44
411.0  24360.35  592.11  2.43
412.5  25031.65  608.09  2.43
414.0  25692.88  632.98  2.46
415.4  26433.75  651.90  2.47
416.9  27119.93  678.48  2.50
418.4  27844.43  694.71  2.49
419.8  28610.40  711.01  2.49
421.3  29357.78  729.64  2.49
422.7  30136.80  751.68  2.49
424.2  30915.00  778.50  2.52
425.7  31719.80  806.31  2.54
427.1  32520.38  831.34  2.56
428.6  33340.50  851.47  2.55
430.0  34113.40  874.08  2.56
431.5  34999.13  895.50  2.56
432.9  35892.50  923.93  2.57
434.4  36829.58  949.27  2.58
435.9  37702.00  978.13  2.59
437.3  38582.50  999.17  2.59
438.8  39462.53  1020.84  2.59
440.2  40344.15  1047.46  2.60
441.7  41325.60  1075.57  2.60
443.1  42254.25  1102.40  2.61
444.6  43256.20  1128.35  2.61
446.0  44244.75  1159.10  2.62
447.5  45237.50  1189.10  2.63
448.9  46220.70  1219.48  2.64
450.4  47254.55  1251.83  2.65
451.8  48139.00  1275.73  2.65
453.3  49096.63  1304.01  2.66
454.7  50157.23  1333.31  2.66
456.2  51048.50  1361.29  2.67
457.6  52064.55  1387.68  2.67
459.1  53073.48  1416.00  2.67
460.5  54048.38  1444.50  2.67
462.0  55141.43  1475.13  2.68
463.4  56224.80  1507.00  2.68
464.8  57248.25  1533.65  2.68
466.3  58245.83  1559.58  2.68
467.7  59269.83  1585.78  2.68
469.2  60353.60  1617.69  2.68
470.6  61384.45  1642.91  2.68
472.0  62450.78  1670.23  2.67
473.5  63491.88  1698.77  2.68
474.9  64566.75  1729.00  2.68
476.4  65736.00  1762.56  2.68
477.8  66845.00  1792.20  2.68
479.2  67874.50  1823.13  2.69
480.7  69016.80  1856.66  2.69
482.1  70198.10  1890.06  2.69
483.6  71440.80  1922.81  2.69
485.0  72592.13  1958.95  2.70
486.4  73826.70  1998.20  2.71
487.9  74938.50  2035.80  2.72
489.3  76128.25  2073.28  2.72
490.7  77232.63  2112.55  2.74
492.2  78498.00  2159.92  2.75
493.6  79637.40  2203.36  2.77
495.0  80803.13  2250.30  2.78
496.5  82018.58  2301.04  2.81
497.9  83163.23  2353.87  2.83
499.3  84351.90  2416.48  2.86
500.7  85658.55  2480.73  2.90
502.2  86870.00  2554.03  2.94
503.6  88154.80  2629.95  2.98
505.0  89262.45  2715.13  3.04
506.5  90615.08  2815.13  3.11
507.9  91826.05  2927.44  3.19
509.3  93225.20  3050.77  3.27
510.7  94506.75  3184.35  3.37
512.2  95940.30  3342.76  3.48
513.6  97479.55  3520.53  3.61
515.0  98949.10  3719.36  3.76
516.4  100359.00  3942.54  3.93
517.8  102039.00  4196.07  4.11
519.3  103394.95  4460.84  4.31
520.7  105009.70  4754.52  4.53
522.1  106335.78  5053.36  4.75
523.5  107725.00  5376.52  4.99
524.9  109144.80  5699.04  5.22
526.3  110566.75  6015.52  5.44
527.8  112132.35  6345.90  5.66
529.2  113403.90  6659.31  5.87
530.6  115007.55  6970.68  6.06
532.0  116788.00  7266.93  6.22
533.4  118129.65  7520.55  6.37
534.8  119064.68  7719.87  6.48
536.3  120795.60  7951.56  6.58
537.7  122837.40  8181.60  6.66
539.1  124346.93  8366.21  6.73
540.5  125609.20  8528.19  6.79
541.9  127440.83  8722.92  6.84
543.3  128771.88  8877.25  6.89
544.7  130165.20  9036.40  6.94
546.1  132018.98  9228.96  6.99
547.5  133280.00  9376.64  7.04
549.0  135102.00  9553.87  7.07
550.4  136616.25  9701.33  7.10
551.8  138203.78  9835.96  7.12
553.2  139788.88  9940.08  7.11
554.6  141169.60  10003.41  7.09
556.0  142747.20  10042.26  7.03
557.4  144405.45  10051.04  6.96
558.8  146110.95  10036.74  6.87
560.2  147615.50  9982.13  6.76
561.6  149348.55  9921.82  6.64
563.0  151007.60  9832.53  6.51
564.4  152647.95  9731.32  6.38
565.8  154211.25  9606.42  6.23
567.2  156025.50  9474.33  6.07
568.6  157567.88  9309.00  5.91
570.0  159071.65  9131.20  5.74
571.4  160854.85  8963.76  5.57
572.8  162680.88  8805.07  5.41
574.2  164360.00  8653.87  5.27
575.6  165960.00  8509.50  5.13
577.0  167533.80  8381.59  5.00
578.4  169328.25  8281.00  4.89
579.8  170897.18  8183.97  4.79
581.2  172675.85  8113.30  4.70
582.5  174154.50  8041.80  4.62
583.9  175713.80  7987.81  4.55
585.3  177575.18  7956.36  4.48
586.7  179100.35  7922.07  4.42
588.1  180638.25  7892.57  4.37
589.5  182329.00  7882.47  4.32
590.9  184016.00  7883.09  4.28
592.3  185890.60  7901.48  4.25
593.7  187387.20  7917.65  4.23
595.0  189066.15  7948.08  4.20
596.4  190546.30  7970.29  4.18
597.8  192071.75  7994.93  4.16
599.2  193657.20  8018.56  4.14
600.6  195464.43  8039.42  4.11
602.0  196810.50  8037.10  4.08
603.3  198656.55  8046.89  4.05
604.7  200366.10  8042.72  4.01
606.1  201907.80  8009.52  3.97
607.5  203583.50  7974.38  3.92
608.9  205340.75  7929.82  3.86
610.2  206742.38  7871.85  3.81
611.6  208400.10  7817.63  3.75
613.0  210001.85  7762.54  3.70
614.4  211426.05  7709.56  3.65
615.8  212910.75  7661.55  3.60
617.1  214502.40  7620.48  3.55
618.5  216168.80  7597.33  3.51
619.9  217725.90  7579.91  3.48
621.3  219416.63  7581.72  3.46
622.6  221079.25  7588.40  3.43
624.0  222603.60  7603.46  3.42
625.4  224152.50  7628.50  3.40
626.8  225800.58  7660.99  3.39
628.1  227150.00  7690.65  3.39
629.5  229036.50  7740.31  3.38
630.9  230639.48  7781.36  3.37
632.2  232031.28  7808.50  3.37
633.6  233670.63  7843.25  3.36
635.0  235244.40  7859.25  3.34
636.3  236819.70  7856.51  3.32
637.7  238228.63  7834.97  3.29
639.1  239942.50  7812.00  3.26
640.4  241475.85  7777.00  3.22
641.8  242740.85  7726.54  3.18
643.2  244364.93  7683.46  3.14
644.5  245754.50  7640.67  3.11
645.9  247525.20  7608.78  3.07
647.2  249291.18  7584.22  3.04
648.6  251181.00  7581.60  3.02
650.0  252698.40  7571.52  3.00
651.3  253243.38  7544.42  2.98
652.7  254472.00  7538.89  2.96
654.0  256640.30  7560.05  2.95
655.4  258154.63  7567.37  2.93
656.8  258439.50  7530.35  2.91
658.1  259619.90  7509.16  2.89
659.5  262028.03  7509.95  2.87
660.8  263835.00  7497.00  2.84
662.2  264745.60  7457.71  2.82
663.5  266486.65  7466.03  2.80
664.9  267829.90  7463.91  2.79
666.2  268642.20  7471.04  2.78
667.6  270489.70  7507.15  2.78
668.9  271628.98  7556.39  2.78
670.3  272796.00  7601.53  2.79
671.6  274438.50  7684.75  2.80
673.0  275677.50  7785.05  2.82
674.3  276979.30  7897.07  2.85
675.7  278343.68  8017.64  2.88
677.0  279519.28  8140.44  2.91
678.4  280950.90  8299.02  2.95
679.7  282096.20  8451.73  3.00
681.1  283465.08  8629.85  3.04
682.4  284648.00  8828.21  3.10
683.8  285929.80  9028.59  3.16
685.1  286961.25  9236.45  3.22
686.4  288333.60  9489.76  3.29
687.8  289628.25  9781.10  3.38
689.1  290740.75  10116.33  3.48
690.5  292181.55  10567.08  3.62
691.8  293029.05  11135.61  3.80
693.1  294427.35  11916.92  4.05
694.5  295613.50  12906.83  4.37
695.8  296887.50  14183.87  4.78
697.1  298116.00  15758.17  5.29
698.5  299231.40  17669.68  5.91
699.8  300375.73  19938.88  6.64
701.1  301577.50  22557.09  7.48
702.5  302418.05  25460.45  8.42
703.8  303412.50  28662.00  9.45
705.1  304666.05  32127.55  10.55
706.5  305754.38  35802.98  11.71
707.8  306820.80  39657.84  12.93
709.1  307772.45  43655.79  14.18
710.5  308978.00  47835.03  15.48
711.8  309880.80  52101.72  16.81
713.1  310928.90  56508.20  18.17
714.4  311887.80  61006.85  19.56
715.8  312779.80  65573.89  20.96
717.1  314173.95  70333.96  22.39
718.4  315190.40  75048.96  23.81
719.7  316358.10  79837.19  25.24
721.0  316957.50  84471.00  26.65
722.4  317774.60  89150.67  28.05
723.7  318776.10  93831.40  29.43
725.0  319899.83  98478.03  30.78
726.3  320896.68  102992.49  32.10
727.6  321490.13  107265.33  33.37
729.0  322463.05  111510.26  34.58
730.3  323294.03  115554.80  35.74
731.6  324262.05  119478.69  36.85
732.9  325128.48  123193.02  37.89
734.2  326011.13  126751.72  38.88
735.5  327115.13  130203.03  39.80
736.8  327960.60  133377.28  40.67
738.1  328864.00  136382.96  41.47
739.5  329916.23  139260.89  42.21
740.8  330657.25  141840.78  42.90
742.1  331439.95  144269.78  43.53
743.4  332150.00  146536.67  44.12
744.7  333165.95  148760.75  44.65
746.0  334113.00  150798.70  45.13
747.3  334734.85  152534.00  45.57
748.6  335548.25  154221.90  45.96
749.9  336310.00  155767.73  46.32
751.2  337047.35  157171.96  46.63
752.5  337910.30  158559.65  46.92
753.8  338531.73  159728.50  47.18
755.1  339274.00  160863.73  47.41
756.4  339934.83  161848.49  47.61
757.7  341034.93  162972.23  47.79
759.0  342944.33  164409.77  47.94
760.3  344229.60  165499.84  48.08
761.6  345879.80  166721.71  48.20
762.9  346466.00  167383.67  48.31
764.2  346929.30  167909.80  48.40
765.5  347244.23  168362.15  48.49
766.8  347752.00  168843.09  48.55
768.1  348308.80  169342.96  48.62
769.3  348970.65  169852.11  48.67
770.6  349682.45  170379.47  48.72
771.9  350497.00  170920.82  48.77
773.2  350938.80  171270.93  48.80
774.5  351608.40  171729.65  48.84
775.8  352373.90  172203.73  48.87
777.1  352977.35  172622.41  48.90
778.4  353364.83  172913.07  48.93
779.6  354173.38  173419.61  48.96
780.9  354720.00  173764.00  48.99
782.2  355225.75  174102.87  49.01
783.5  355599.50  174358.33  49.03
784.8  356182.88  174732.54  49.06
786.0  356667.50  175017.31  49.07
787.3  357115.35  175307.36  49.09
788.6  357617.53  175623.08  49.11
789.9  358128.40  175940.80  49.13
791.2  358813.63  176356.71  49.15
792.4  359559.40  176776.78  49.16
793.7  360118.80  177095.71  49.18
795.0  360811.28  177500.07  49.19
796.2  361518.68  177915.24  49.21
797.5  362320.65  178356.86  49.23
798.8  363064.08  178764.53  49.24
800.0  363777.98  179174.12  49.25
801.3  364357.30  179479.57  49.26
802.6  364989.60  179873.76  49.28
803.8  365690.48  180264.05  49.29
805.1  366241.75  180574.92  49.30
806.4  366712.50  180888.64  49.33
807.7  367320.83  181227.51  49.34
808.9  367960.65  181579.71  49.35
810.2  368566.45  181919.45  49.36
811.4  369120.50  182235.79  49.37
812.7  369809.38  182628.33  49.38
814.0  370720.35  183122.99  49.40
815.2  371408.00  183516.30  49.41
816.5  371850.90  183789.15  49.43
817.7  372366.50  184095.03  49.44
819.0  372974.80  184430.77  49.45
820.2  373164.00  184577.07  49.46
821.5  373943.75  184999.83  49.47
822.7  374333.70  185253.23  49.49
824.0  374681.70  185484.96  49.50
825.2  375208.20  185803.20  49.52
826.5  375599.88  186011.37  49.52
827.7  376227.85  186343.40  49.53
829.0  376692.98  186590.76  49.53
830.2  377056.25  186808.91  49.54
831.5  377529.20  187119.68  49.56
832.7  377965.35  187336.10  49.56
834.0  378316.65  187575.54  49.58
835.2  378757.78  187801.39  49.58
836.4  379105.10  187998.29  49.59
837.7  379508.40  188276.35  49.61
838.9  380017.50  188569.46  49.62
840.1  380409.75  188849.07  49.64
841.4  380888.60  189150.77  49.66
842.6  381364.40  189391.33  49.66
843.8  381720.40  189629.60  49.68
845.1  382273.35  189967.48  49.69
846.3  382716.80  190236.53  49.71
847.5  383121.90  190503.32  49.72
848.8  383592.60  190780.72  49.74
850.0  383981.85  191024.03  49.75
851.2  384570.45  191373.66  49.76
852.5  385028.40  191631.15  49.77
853.7  385627.50  191956.80  49.78
854.9  386090.10  192245.24  49.79
856.1  386569.30  192521.42  49.80
857.4  386805.98  192704.39  49.82
858.6  387323.30  193016.34  49.83
859.8  387806.25  193278.75  49.84
861.0  388346.40  193574.16  49.85
862.2  388922.40  193854.69  49.84
863.5  389291.50  194071.15  49.85
864.7  389789.40  194393.76  49.87
865.9  390267.80  194666.59  49.88
867.1  390696.35  194895.86  49.88
868.3  391166.10  195178.86  49.90
869.5  391791.35  195469.51  49.89
870.8  392368.50  195789.00  49.90
872.0  392965.65  196116.82  49.91
873.2  393407.10  196385.74  49.92
874.4  393927.30  196668.81  49.93
875.6  394327.83  196916.61  49.94
876.8  394943.05  197205.38  49.93
878.0  395430.95  197495.02  49.94
879.2  396141.45  197820.02  49.94
880.4  396717.00  198102.05  49.94
881.6  397248.78  198390.40  49.94
882.8  397697.60  198649.07  49.95
884.0  398331.58  199007.07  49.96
885.2  399035.00  199312.87  49.95
886.5  399647.30  199675.57  49.96
887.7  400161.13  199963.53  49.97
888.8  401062.35  200330.37  49.95
890.0  401695.25  200653.48  49.95
891.2  402347.80  200992.75  49.95
892.4  403001.03  201326.30  49.96
893.6  403706.50  201666.97  49.95
894.8  404685.00  202147.00  49.95
896.0  405634.75  202615.57  49.95
897.2  406627.00  203098.57  49.95
898.4  407460.90  203536.08  49.95
899.6  408124.88  203830.45  49.94
900.8  408521.88  204074.69  49.95
902.0  408869.85  204217.46  49.95
903.2  409247.78  204388.75  49.94
904.3  409682.10  204624.52  49.95
905.5  410437.80  204950.64  49.93
906.7  411097.00  205268.53  49.93
907.9  411776.40  205565.78  49.92
909.1  412098.98  205773.12  49.93
910.2  412355.85  205917.39  49.94
911.4  412542.00  206031.15  49.94
912.6  412905.35  206148.80  49.93
913.8  413296.65  206311.51  49.92
915.0  413834.40  206534.02  49.91
916.2  414092.25  206670.10  49.91
917.3  414203.40  206656.32  49.89
918.5  414628.70  206806.96  49.88
919.7  414777.15  206936.92  49.89
920.8  415038.00  206986.90  49.87
922.0  415164.75  207047.87  49.87
923.2  415506.00  207134.20  49.85
924.4  415816.88  207230.40  49.84
925.5  416270.10  207344.69  49.81
926.7  417016.38  207639.70  49.79
927.9  417894.00  208031.20  49.78
929.0  419377.50  208737.18  49.77
930.2  421781.00  209859.81  49.76
931.4  424433.25  211041.90  49.72
932.5  427381.50  212344.42  49.68
933.7  428902.90  212985.66  49.66
934.9  429616.25  213243.33  49.64
936.0  429186.88  212924.83  49.61
937.2  427191.90  211776.00  49.57
938.3  425396.75  210809.58  49.56
939.5  424015.20  209920.80  49.51
940.7  424421.10  209901.36  49.46
941.8  425931.90  210603.56  49.45
943.0  427690.50  211252.10  49.39
944.2  428679.55  211508.70  49.34
945.3  428112.75  211135.60  49.32
946.5  427466.70  210568.32  49.26
947.6  427740.10  210431.09  49.20
948.8  427825.13  210167.88  49.12
949.9  427963.20  210007.28  49.07
951.1  427719.83  209535.26  48.99
952.2  427380.00  209168.00  48.94
953.4  427349.50  208797.47  48.86
954.5  427518.00  208437.84  48.76
955.7  427543.20  208059.60  48.66
956.8  427519.80  207644.17  48.57
958.0  427052.00  207146.80  48.51
959.1  426845.98  206794.20  48.45
960.3  426603.63  206425.56  48.39
961.4  426411.90  206247.63  48.37
962.6  426755.00  206280.90  48.34
963.7  426865.50  206073.00  48.28
964.9  426993.53  205940.91  48.23
966.0  426910.50  205808.58  48.21
967.2  426866.40  205720.02  48.19
968.3  426562.20  205683.30  48.22
969.5  426631.45  205506.26  48.17
970.6  427024.28  205610.70  48.15
971.8  427279.48  205764.86  48.16
972.9  427436.03  205777.09  48.14
974.0  427580.80  205881.89  48.15
975.2  427429.63  205766.60  48.14
976.3  427720.33  205697.74  48.09
977.5  427337.75  205878.47  48.18
978.6  428107.00  206024.83  48.12
979.7  428547.53  206246.46  48.13
980.9  428378.75  206162.91  48.13
982.0  428115.40  206122.53  48.15
983.2  427644.23  206004.96  48.17
984.3  427426.80  205991.44  48.19
985.4  428145.50  205972.70  48.11
986.6  428045.13  206182.23  48.17
987.7  429164.05  206711.84  48.17
988.9  428806.80  206636.16  48.19
990.0  430070.70  206957.88  48.12
993.1  370480.37  177528.40  47.92
996.9  371582.00  178709.95  48.09
1000.7  372926.98  179950.47  48.25
1004.5  373658.25  180852.80  48.40
1008.4  373528.46  181401.38  48.56
1012.2  373686.92  182016.27  48.71
1016.0  373964.40  182658.51  48.84
1019.8  374375.93  183356.25  48.98
1023.7  374673.96  183952.04  49.10
1027.5  374765.53  184383.95  49.20
1031.3  375343.88  184977.42  49.28
1035.1  375425.05  185313.17  49.36
1038.9  375521.12  185606.38  49.43
1042.7  375417.42  185793.81  49.49
1046.5  375320.67  185932.52  49.54
1050.3  375453.30  186137.73  49.58
1054.2  375204.67  186189.00  49.62
1058.0  374698.86  186044.76  49.65
1061.8  374535.93  186098.29  49.69
1065.6  374395.53  186065.08  49.70
1069.4  374600.80  186186.57  49.70
1073.2  374466.12  186097.57  49.70
1077.0  374081.48  185893.36  49.69
1080.8  373465.63  185509.38  49.67
1084.6  372148.47  184761.97  49.65
1088.4  371314.28  184277.86  49.63
1092.2  370392.75  183685.82  49.59
1096.0  369842.23  183243.33  49.55
1099.8  369409.08  182825.16  49.49
1103.6  368811.40  182304.45  49.43
1107.4  367992.23  181634.67  49.36
1111.2  367828.30  181284.63  49.29
1114.9  367191.42  180648.42  49.20
1118.7  366557.40  179933.92  49.09
1122.5  365816.53  179054.82  48.95
1126.3  364712.66  177856.79  48.77
1130.1  364178.61  176707.29  48.52
1133.9  362574.10  174684.40  48.18
1137.7  361187.80  172461.69  47.75
1141.4  359416.09  169779.06  47.24
1145.2  358735.10  167400.41  46.66
1149.0  357669.38  164931.88  46.11
1152.8  356073.20  162440.33  45.62
1156.6  354387.37  160358.73  45.25
1160.3  352663.00  158663.76  44.99
1164.1  350171.67  156986.99  44.83
1167.9  348306.25  155852.38  44.75
1171.7  347004.00  155104.88  44.70
1175.4  345899.43  154502.66  44.67
1179.2  344933.13  153945.75  44.63
1183.0  344705.00  153677.81  44.58
1186.7  344073.33  153240.57  44.54
1190.5  342834.33  152576.15  44.50
1194.3  341561.30  151944.32  44.49
1198.0  340389.23  151443.87  44.49
1201.8  338978.73  150882.10  44.51
1205.6  337724.67  150485.19  44.56
1209.3  336700.88  150282.62  44.63
1213.1  335680.73  150074.60  44.71
1216.8  334586.18  149931.48  44.81
1220.6  333481.87  149752.53  44.91
1224.3  332258.67  149497.47  44.99
1228.1  331041.60  149263.60  45.09
1231.9  329836.43  149011.96  45.18
1235.6  328383.30  148604.55  45.25
1239.4  327055.00  148257.66  45.33
1243.1  325789.98  147879.51  45.39
1246.9  324593.91  147482.44  45.44
1250.6  323607.00  147158.37  45.47
1254.3  322554.47  146772.59  45.50
1258.1  321592.25  146384.43  45.52
1261.8  320321.20  145839.18  45.53
1265.6  318836.75  145140.25  45.52
1269.3  317276.05  144348.49  45.50
1273.1  317152.73  144155.59  45.45
1276.8  317520.40  144139.60  45.40
1280.6  317627.90  143972.89  45.33
1284.3  316421.60  143164.97  45.25
1288.0  314925.92  142142.43  45.14
1291.8  313431.68  141033.35  45.00
1295.5  311889.60  139822.99  44.83
1299.2  310578.39  138645.67  44.64
1302.9  309154.26  137306.51  44.41
1306.7  307648.95  135824.03  44.15
1310.4  306209.81  134202.18  43.83
1314.1  304850.70  132528.47  43.47
1317.9  303649.58  130748.21  43.06
1321.6  302283.78  128755.89  42.59
1325.3  300648.08  126508.88  42.08
1329.0  299293.52  124284.07  41.53
1332.8  297143.00  121616.00  40.93
1336.5  295318.40  119045.11  40.31
1340.2  294946.17  117084.50  39.70
1343.9  294570.21  115131.43  39.08
1347.6  294044.40  113164.63  38.49
1351.4  294422.50  111604.43  37.91
1355.1  294978.57  110177.47  37.35
1358.8  295152.00  108550.86  36.78
1362.5  294659.98  106537.79  36.16
1366.2  292718.75  103719.91  35.43
1369.9  290750.63  100540.91  34.58
1373.6  288818.25  96839.59  33.53
1377.3  287042.70  92492.57  32.22
1381.0  285842.83  87387.76  30.57
1384.8  283627.50  80990.00  28.56
1388.4  281194.78  74002.83  26.32
1392.2  279319.25  66835.44  23.93
1395.9  277697.23  59748.07  21.52
1399.6  275982.13  53122.19  19.25
1403.3  274746.54  47385.31  17.25
1407.0  273572.50  42551.48  15.55
1410.7  272321.78  38665.75  14.20
1414.3  271056.57  35658.42  13.16
1418.1  269867.33  33431.95  12.39
1421.7  268954.76  31814.24  11.83
1425.4  268030.43  30656.92  11.44
1429.1  267171.38  29864.84  11.18
1432.8  265670.48  29284.64  11.02
1436.5  264826.59  28966.84  10.94
1440.2  263886.13  28791.66  10.91
1443.9  262537.28  28666.22  10.92
1447.6  260860.60  28593.40  10.96
1451.2  259778.93  28624.72  11.02
1454.9  258489.30  28689.77  11.10
1458.6  257403.47  28863.89  11.21
1462.3  256258.20  29149.63  11.38
1466.0  254902.68  29558.97  11.60
1469.7  253228.52  30098.90  11.89
1473.3  252196.33  30857.57  12.24
1477.0  250309.77  31632.31  12.64
1480.7  248721.40  32524.33  13.08
1484.4  246790.24  33400.41  13.53
1488.0  245241.33  34368.19  14.01
1491.7  243607.88  35324.34  14.50
1495.4  241843.03  36283.53  15.00
1499.0  240236.00  37233.93  15.50
1502.7  238913.00  38235.06  16.00
1506.4  237486.83  39198.25  16.51
1510.0  236073.07  40140.47  17.00
1513.7  234597.71  41045.67  17.50
1517.4  233275.00  41945.48  17.98
1521.0  232061.60  42844.84  18.46
1524.7  230839.92  43688.51  18.93
1528.3  229545.38  44485.68  19.38
1532.0  228337.08  45262.07  19.82
1535.7  226946.65  45948.83  20.25
1539.3  225669.68  46635.53  20.67
1543.0  224679.66  47350.17  21.07
1546.6  223995.42  48088.55  21.47
1550.3  223015.65  48723.39  21.85
1553.9  221965.23  49295.09  22.21
1557.6  220704.00  49789.77  22.56
1561.2  219447.45  50223.98  22.89
1564.9  218116.31  50634.39  23.21
1568.5  216802.13  50997.45  23.52
1572.2  215639.40  51370.81  23.82
1575.8  214578.00  51740.00  24.11
1579.5  213580.85  52097.76  24.39
1583.1  212588.88  52448.32  24.67
1586.8  211386.00  52714.00  24.94
1590.4  210345.63  52997.89  25.20
1594.0  209043.25  53188.34  25.44
1597.7  207836.88  53392.49  25.69
1601.3  206444.70  53530.88  25.93
1604.9  205061.93  53638.92  26.16
1608.6  203723.18  53713.98  26.37
1612.2  202731.38  53843.98  26.56
1615.8  201645.28  53933.52  26.75
1619.5  200567.00  53990.70  26.92
1623.1  199276.40  53963.21  27.08
1626.7  198025.75  53909.56  27.22
1630.3  196795.58  53837.62  27.36
1634.0  195678.00  53762.00  27.47
1637.6  194668.60  53666.34  27.57
1641.2  193651.15  53500.39  27.63
1644.8  192423.56  53204.54  27.65
1648.5  191336.65  52882.00  27.64
1652.1  190364.10  52532.57  27.60
1655.7  189413.80  52172.83  27.54
1659.3  188532.37  51874.11  27.51
1662.9  187070.83  51473.57  27.52
1666.6  185609.67  51118.27  27.54
1670.2  184192.28  50784.73  27.57
1673.8  182717.18  50409.98  27.59
1677.4  181554.10  50082.23  27.59
1681.0  180751.15  49791.32  27.55
1684.6  180379.33  49563.28  27.48
1688.2  179705.00  49171.25  27.36
1691.8  179047.64  48800.87  27.26
1695.4  178621.80  48430.11  27.11
1699.0  178258.27  48047.67  26.95
1702.6  177919.67  47654.24  26.78
1706.2  177323.36  47195.53  26.62
1709.8  176404.96  46681.65  26.46
1713.4  175665.21  46224.94  26.31
1717.0  174817.00  45737.64  26.16
1720.6  174019.95  45247.38  26.00
1724.2  173338.95  44753.68  25.82
1727.8  172623.50  44249.15  25.63
1731.4  172137.63  43789.04  25.44
1735.0  171902.68  43395.76  25.24
1738.6  171618.60  42957.62  25.03
1742.2  170994.88  42410.86  24.80
1745.8  170292.18  41832.44  24.57
1749.4  169274.33  41171.51  24.32
1753.0  167744.47  40384.45  24.07
1756.6  166053.42  39586.59  23.84
1760.1  164714.01  38888.25  23.61
1763.7  163008.67  38125.24  23.39
1767.3  161583.40  37471.41  23.19
1770.9  160344.74  36885.92  23.00
1774.5  158889.65  36286.88  22.84
1778.0  157750.27  35800.25  22.69
1781.6  156651.00  35353.61  22.57
1785.2  155493.73  34933.13  22.47
1788.8  154337.10  34566.06  22.40
1792.3  153140.70  34220.60  22.35
1795.9  152685.87  34066.18  22.31
1799.5  152186.00  33925.05  22.29
1803.1  151365.08  33733.23  22.29
1806.6  151610.73  33767.66  22.27
1810.2  152695.20  33977.00  22.25
1813.8  153778.95  34192.45  22.23
1817.3  153939.20  34204.46  22.22
1820.9  153333.83  34041.50  22.20
1824.5  152219.15  33748.44  22.17
1828.0  151471.83  33500.70  22.12
1831.6  150753.20  33236.11  22.05
1835.2  150095.83  32921.31  21.93
1838.7  149707.87  32571.28  21.76
1842.3  149295.00  32132.14  21.52
1845.8  148466.79  31476.81  21.20
1849.4  147971.95  30753.25  20.78
1852.9  147302.05  29812.26  20.24
1856.5  146387.68  28609.38  19.54
1860.0  145651.55  27200.07  18.67
1863.6  145514.73  25678.09  17.65
1867.1  145466.30  23938.95  16.46
1870.7  145435.73  21849.90  15.02
1874.2  144518.85  19354.05  13.39
1877.8  143172.07  16757.18  11.70
1881.3  141699.00  14224.18  10.04
1884.9  140787.99  11989.07  8.52
1888.4  139817.91  10008.52  7.16
1891.9  138909.40  8417.11  6.06
1895.5  137891.98  7229.50  5.24
1899.0  137484.13  6449.73  4.69
1901.3  168253.50  4720.17  2.81
1904.1  168216.00  4289.25  2.55
1906.8  167508.00  3985.60  2.38
1909.6  165873.75  3744.07  2.26
1912.4  164272.73  3557.90  2.17
1915.1  163166.30  3452.72  2.12
1917.9  161853.67  3358.61  2.08
1920.6  160763.10  3320.94  2.07
1923.3  159686.10  3269.16  2.05
1926.1  158328.57  3217.11  2.03
1928.8  157036.00  3192.44  2.03
1931.6  156017.80  3182.44  2.04
1934.3  155059.95  3180.92  2.05
1937.0  154152.23  3188.82  2.07
1939.8  153178.00  3197.00  2.09
1942.5  151932.00  3212.00  2.11
1945.2  150291.90  3225.57  2.15
1947.9  148964.90  3254.14  2.18
1950.7  147916.17  3294.62  2.23
1953.4  146248.70  3329.77  2.28
1956.1  144922.50  3377.44  2.33
1958.8  143737.53  3428.54  2.39
1961.5  142296.40  3480.67  2.45
1964.2  140813.40  3536.87  2.51
1966.9  139252.35  3604.92  2.59
1969.6  138033.00  3672.00  2.66
1972.3  136650.60  3752.83  2.75
1975.0  135608.55  3846.80  2.84
1977.7  134507.07  3952.81  2.94
1980.4  133367.30  4056.05  3.04
1983.1  132284.13  4166.56  3.15
1985.8  131361.30  4283.30  3.26
1988.4  130329.33  4399.78  3.38
1991.1  129405.03  4523.87  3.50
1993.8  128560.67  4655.87  3.62
1996.5  127923.03  4796.61  3.75
1999.1  127250.93  4945.97  3.89
2001.8  126547.40  5090.79  4.02
2004.5  125883.45  5230.37  4.15
2007.1  125156.85  5374.53  4.29
2009.8  124406.33  5516.70  4.43
2012.4  123821.50  5666.89  4.58
2015.1  123275.37  5818.87  4.72
2017.8  122481.10  5951.25  4.86
2020.4  121960.30  6091.98  5.00
2023.1  121591.87  6236.14  5.13
2025.7  121359.33  6387.33  5.26
2028.3  121030.00  6523.11  5.39
2031.0  120628.87  6657.22  5.52
2033.6  120355.80  6788.90  5.64
2036.2  120103.50  6907.80  5.75
2038.9  119511.90  6994.80  5.85
2041.5  119165.55  7104.08  5.96
2044.1  118607.10  7192.00  6.06
2046.8  118233.00  7287.70  6.16
2049.4  117615.30  7357.30  6.26
2052.0  117341.07  7443.71  6.34
2054.6  116952.50  7536.67  6.44
2057.2  116371.67  7612.56  6.54
2059.8  116048.53  7702.80  6.64
2062.4  115173.32  7757.83  6.74
2065.0  114642.47  7845.44  6.84
2067.6  113752.50  7894.39  6.94
2070.2  113159.77  7964.13  7.04
2072.8  112514.73  8030.96  7.14
2075.4  112061.25  8111.25  7.24
2078.0  111434.15  8171.43  7.33
2080.6  110880.00  8230.93  7.42
2083.2  110179.47  8287.42  7.52
2085.8  109686.27  8347.10  7.61
2088.4  109021.00  8391.67  7.70
2090.9  108224.58  8419.92  7.78
2093.5  107347.83  8430.61  7.85
2096.1  106576.97  8458.35  7.94
2098.7  105795.25  8481.77  8.02
2101.2  104834.93  8491.71  8.10
2103.8  104162.47  8512.09  8.17
2106.4  103490.00  8535.38  8.25
2108.9  102843.73  8549.93  8.31
2111.5  101996.60  8544.11  8.38
2114.0  101367.80  8555.76  8.44
2116.6  100852.50  8575.00  8.50
2119.1  100290.67  8582.56  8.56
2121.7  99811.25  8598.33  8.61
2124.2  99396.47  8620.55  8.67
2126.8  98592.92  8593.03  8.72
2129.3  98190.40  8609.33  8.77
2131.9  97600.80  8609.33  8.82
2134.4  97173.00  8619.90  8.87
2136.9  96801.68  8637.56  8.92
2139.4  96274.27  8647.95  8.98
2142.0  95813.20  8665.69  9.04
2144.5  95541.50  8698.27  9.10
2147.0  95309.73  8739.78  9.17
2149.5  94809.47  8760.62  9.24
2152.1  94639.42  8800.67  9.30
2154.6  94583.47  8852.09  9.36
2157.1  94048.83  8859.28  9.42
2159.6  93631.00  8868.36  9.47
2162.1  93475.20  8899.80  9.52
2164.6  93223.93  8926.31  9.58
2167.1  92898.60  8932.32  9.62
2169.6  92581.42  8949.38  9.67
2172.1  92120.97  8968.64  9.74
2174.6  91795.60  8985.58  9.79
2177.1  91357.28  8992.46  9.84
2179.5  90949.30  9003.01  9.90
2182.0  90461.25  9016.52  9.97
2184.5  89939.25  9023.64  10.03
2187.0  89324.23  9011.98  10.09
2189.5  88640.72  9002.85  10.16
2191.9  87875.00  8980.67  10.22
2194.4  87248.80  8973.82  10.29
2196.9  86496.00  8953.60  10.35
2199.3  85840.00  8938.44  10.41
2201.8  84952.53  8899.51  10.48
2204.3  84492.05  8893.90  10.53
2206.7  83853.05  8874.85  10.58
2209.2  83365.92  8862.06  10.63
2211.6  82744.20  8830.80  10.67
2214.1  82445.70  8832.28  10.71
2216.5  81870.53  8804.25  10.75
2219.0  81522.87  8787.69  10.78
2221.4  81138.17  8759.72  10.80
2223.9  80672.08  8710.14  10.80
2226.3  80166.33  8653.94  10.79
2228.7  79620.13  8595.21  10.80
2231.1  79031.70  8517.30  10.78
2233.6  78443.53  8423.47  10.74
2236.0  77885.50  8320.08  10.68
2238.4  77399.58  8217.61  10.62
2240.9  76953.53  8105.60  10.53
2243.3  76417.13  7989.71  10.46
2245.7  75838.90  7860.50  10.36
2248.1  75338.03  7727.49  10.26
2250.5  74825.08  7597.32  10.15
2252.9  74211.80  7438.46  10.02
2255.3  73679.75  7293.35  9.90
2257.7  73220.00  7143.33  9.76
2260.1  72731.63  7009.96  9.64
2262.5  72120.00  6866.67  9.52
2264.9  71580.50  6725.44  9.40
2267.3  70960.00  6576.67  9.27
2269.7  70474.13  6451.43  9.15
2272.1  69926.35  6327.19  9.05
2274.5  69374.18  6209.63  8.95
2276.8  68884.62  6090.14  8.84
2279.2  68309.85  5973.05  8.74
2281.6  67879.53  5865.51  8.64
2284.0  67407.40  5763.73  8.55
2286.3  66950.93  5664.53  8.46
2288.7  66558.27  5577.07  8.38
2291.1  66015.23  5464.60  8.28
2293.4  65552.67  5355.78  8.17
2295.8  64941.50  5242.70  8.07
2298.2  64356.30  5126.70  7.97
2300.5  63693.90  5012.85  7.87
2302.9  62950.67  4891.11  7.77
2305.2  62222.30  4775.77  7.68
2307.6  61549.23  4676.89  7.60
2309.9  60770.33  4584.55  7.54
2312.2  60171.00  4495.00  7.47
2314.6  59574.60  4412.55  7.41
2316.9  58881.15  4315.95  7.33
2319.2  58302.13  4233.06  7.26
2321.6  57658.65  4153.33  7.20
2323.9  57114.58  4062.50  7.11
2326.2  56579.97  3982.06  7.04
2328.6  56064.25  3911.78  6.98
2330.9  55555.50  3832.50  6.90
2333.2  55065.08  3746.50  6.80
2335.5  54623.50  3673.67  6.73
2337.8  54186.25  3601.63  6.65
2340.1  53603.95  3526.15  6.58
2342.4  53159.17  3455.83  6.50
2344.8  52716.58  3384.17  6.42
2347.1  52157.47  3308.28  6.34
2349.4  51613.08  3246.24  6.29
2351.6  51018.18  3176.47  6.23
2353.9  50532.67  3115.08  6.16
2356.2  50013.88  3034.85  6.07
2358.5  49425.60  2964.27  6.00
2360.8  48843.20  2897.07  5.93
2363.1  48377.48  2845.29  5.88
2365.4  47923.30  2783.57  5.81
2367.7  47458.20  2720.80  5.73
2369.9  46910.65  2656.40  5.66
2372.2  46290.93  2595.29  5.61
2374.5  45703.35  2529.45  5.53
2376.7  45072.67  2451.12  5.44
2379.0  44450.97  2380.96  5.36
2381.3  43831.67  2321.67  5.30
2383.5  43319.47  2256.71  5.21
2385.8  42689.47  2196.44  5.15
2388.0  42161.40  2131.87  5.06
2390.3  41652.00  2076.67  4.99
2392.5  41172.00  2016.00  4.90
2394.8  40704.40  1960.20  4.82
2397.0  40209.87  1900.89  4.73
2399.3  39742.03  1851.87  4.66
2401.5  39298.00  1796.67  4.57
2403.8  38760.55  1740.76  4.49
2406.0  38243.33  1701.08  4.45
2408.2  37848.80  1658.07  4.38
2410.4  37437.52  1602.03  4.28
2412.7  37021.40  1545.70  4.18
2414.9  36634.40  1509.57  4.12
2417.1  36207.70  1473.20  4.07
2419.3  35801.60  1429.33  3.99
2421.6  35430.42  1390.69  3.93
2423.8  35061.87  1339.89  3.82
2426.0  34678.48  1294.00  3.73
2428.2  34313.07  1263.11  3.68
2430.4  34009.67  1243.93  3.66
2432.6  33746.67  1204.44  3.57
2434.8  33430.03  1171.81  3.51
2437.0  33046.00  1150.79  3.48
2439.2  32683.30  1121.88  3.43
2441.4  32365.53  1081.58  3.34
2443.6  32109.93  1059.28  3.30
2445.7  31834.48  1036.62  3.26
2447.9  31563.00  1011.28  3.20
2450.1  31275.30  983.50  3.14
2452.3  30887.27  945.82  3.06
2454.5  30522.53  931.37  3.05
2456.6  30116.93  898.80  2.98
2458.8  29772.60  858.00  2.88
2461.0  29467.67  840.97  2.85
2463.1  29172.75  819.65  2.81
2465.3  28886.20  804.83  2.79
2467.5  28644.50  776.83  2.71
2469.6  28401.33  765.72  2.70
2471.8  28081.17  755.84  2.69
2473.9  27738.25  739.08  2.66
2476.1  27360.67  717.89  2.62
2478.2  27039.17  710.89  2.63
2480.4  26770.40  685.63  2.56
2482.5  26399.08  670.94  2.54
2484.6  26039.75  659.69  2.53
2486.8  25763.70  638.47  2.48
2488.9  25458.52  631.34  2.48
2491.1  25101.07  618.80  2.47
2493.2  24716.40  617.38  2.50
2495.3  24290.50  577.20  2.38
2497.4  23972.90  574.23  2.40
2499.5  23643.85  566.42  2.40
2501.7  23499.67  558.73  2.38
2503.8  23386.62  557.22  2.38
2505.9  23301.67  552.36  2.37
2508.0  23297.17  560.53  2.41
2510.1  23301.98  548.42  2.35
2512.2  23396.25  550.50  2.35
2514.3  23539.33  544.19  2.31
2516.4  23738.50  591.00  2.49
