/*** Spectra Vista SIG Data ***/
name= 30_20220825_ACRU_13_avg.sig
comm= Averaged Ref/Tar of files: HR.082522.0010_moc.sig,HR.082522.0011_moc.sig,HR.082522.0012_moc.sig
data=
337.3  3374.50  317.60  9.41
338.8  3511.30  314.25  8.95
340.3  3701.15  306.09  8.27
341.8  3840.90  292.64  7.62
343.2  4084.80  296.00  7.25
344.7  4265.00  295.71  6.93
346.2  4452.65  283.23  6.36
347.7  4601.03  283.14  6.15
349.2  4762.80  277.20  5.82
350.6  5031.33  288.90  5.74
352.1  5358.75  285.80  5.33
353.6  5621.40  282.23  5.02
355.1  5926.80  291.85  4.92
356.6  6227.25  297.16  4.77
358.0  6507.60  297.73  4.58
359.5  6798.00  300.76  4.42
361.0  7122.15  303.24  4.26
362.5  7494.40  316.17  4.22
364.0  7856.95  317.34  4.04
365.4  8233.30  329.71  4.00
366.9  8591.38  342.55  3.99
368.4  8946.20  352.76  3.94
369.9  9323.63  367.54  3.94
371.3  9745.50  388.04  3.98
372.8  10168.65  403.56  3.97
374.3  10588.75  401.33  3.79
375.8  11022.55  416.83  3.78
377.2  11459.40  416.05  3.63
378.7  11889.80  423.23  3.56
380.2  12293.30  423.23  3.44
381.7  12809.85  439.61  3.43
383.1  13286.35  445.57  3.35
384.6  13811.20  460.37  3.33
386.1  14296.23  472.04  3.30
387.6  14795.55  474.32  3.21
389.0  15302.80  485.97  3.18
390.5  15797.25  499.14  3.16
392.0  16372.55  514.89  3.14
393.4  16947.38  522.00  3.08
394.9  17513.10  539.40  3.08
396.4  18060.75  541.65  3.00
397.9  18603.75  556.92  2.99
399.3  19196.35  577.41  3.01
400.8  19765.53  584.91  2.96
402.2  20450.15  602.29  2.95
403.7  21017.48  609.90  2.90
405.2  21662.63  621.86  2.87
406.6  22272.00  637.23  2.86
408.1  22871.20  653.89  2.86
409.6  23508.45  673.13  2.86
411.0  24168.20  694.59  2.87
412.5  24844.23  705.27  2.84
414.0  25509.50  725.35  2.84
415.4  26235.00  747.30  2.85
416.9  26907.90  760.72  2.83
418.4  27620.33  781.86  2.83
419.8  28373.80  800.80  2.82
421.3  29108.23  824.70  2.83
422.7  29910.60  844.48  2.82
424.2  30712.50  870.75  2.84
425.7  31475.30  895.41  2.84
427.1  32267.18  919.96  2.85
428.6  33077.00  946.53  2.86
430.0  33840.25  971.20  2.87
431.5  34730.48  1002.96  2.89
432.9  35614.15  1029.41  2.89
434.4  36528.75  1058.14  2.90
435.9  37394.00  1084.53  2.90
437.3  38266.25  1112.83  2.91
438.8  39123.15  1140.30  2.91
440.2  40007.28  1169.63  2.92
441.7  40990.60  1202.43  2.93
443.1  41909.75  1236.67  2.95
444.6  42902.50  1269.83  2.96
446.0  43868.48  1304.42  2.97
447.5  44862.68  1337.31  2.98
448.9  45820.80  1370.84  2.99
450.4  46840.15  1410.69  3.01
451.8  47710.00  1443.87  3.03
453.3  48652.08  1483.58  3.05
454.7  49709.28  1519.52  3.06
456.2  50598.85  1551.73  3.07
457.6  51613.20  1584.15  3.07
459.1  52607.10  1614.99  3.07
460.5  53566.88  1646.02  3.07
462.0  54641.00  1684.31  3.08
463.4  55690.50  1722.55  3.09
464.8  56721.00  1759.35  3.10
466.3  57754.95  1789.59  3.10
467.7  58763.13  1824.12  3.10
469.2  59860.98  1863.53  3.11
470.6  60864.60  1895.81  3.11
472.0  61915.93  1931.09  3.12
473.5  62941.00  1971.85  3.13
474.9  64011.00  2008.30  3.14
476.4  65203.20  2048.64  3.14
477.8  66308.50  2088.00  3.15
479.2  67352.50  2126.67  3.16
480.7  68481.23  2169.32  3.17
482.1  69649.00  2209.89  3.17
483.6  70877.25  2259.98  3.19
485.0  71998.65  2304.42  3.20
486.4  73230.15  2353.22  3.21
487.9  74353.50  2404.35  3.23
489.3  75553.98  2458.09  3.25
490.7  76658.35  2516.99  3.28
492.2  77924.70  2585.24  3.32
493.6  79051.40  2656.53  3.36
495.0  80203.50  2728.05  3.40
496.5  81416.90  2811.73  3.45
497.9  82561.55  2901.74  3.51
499.3  83764.90  3005.44  3.59
500.7  85057.90  3129.24  3.68
502.2  86227.60  3262.61  3.78
503.6  87512.40  3412.51  3.90
505.0  88603.20  3574.60  4.03
506.5  89964.98  3766.64  4.19
507.9  91188.58  3990.89  4.38
509.3  92618.40  4260.43  4.60
510.7  93907.13  4549.35  4.84
512.2  95346.83  4892.55  5.13
513.6  96848.15  5278.89  5.45
515.0  98308.98  5707.07  5.81
516.4  99721.13  6185.97  6.20
517.8  101361.00  6731.03  6.64
519.3  102719.35  7302.11  7.11
520.7  104321.25  7927.95  7.60
522.1  105651.00  8565.74  8.11
523.5  107043.90  9233.31  8.63
524.9  108475.20  9908.22  9.13
526.3  109892.30  10576.91  9.62
527.8  111464.10  11256.30  10.10
529.2  112748.30  11908.08  10.56
530.6  114299.50  12575.35  11.00
532.0  116074.00  13230.93  11.40
533.4  117396.60  13794.01  11.75
534.8  118297.63  14267.13  12.06
536.3  120008.70  14805.76  12.34
537.7  122043.60  15356.88  12.58
539.1  123570.45  15820.37  12.80
540.5  124813.90  16235.37  13.01
541.9  126628.35  16714.22  13.20
543.3  127926.90  17114.02  13.38
544.7  129298.80  17525.60  13.55
546.1  131116.98  17991.89  13.72
547.5  132361.60  18359.04  13.87
549.0  134178.00  18785.07  14.00
550.4  135691.88  19139.17  14.10
551.8  137277.58  19467.04  14.18
553.2  138846.13  19744.68  14.22
554.6  140233.60  19941.65  14.22
556.0  141795.00  20103.84  14.18
557.4  143424.58  20217.73  14.10
558.8  145096.65  20287.38  13.98
560.2  146578.00  20275.52  13.83
561.6  148285.20  20239.79  13.65
563.0  149907.73  20146.92  13.44
564.4  151529.65  20015.46  13.21
565.8  153085.00  19836.17  12.96
567.2  154875.25  19646.70  12.69
568.6  156426.00  19387.95  12.39
570.0  157897.33  19077.48  12.08
571.4  159661.45  18771.74  11.76
572.8  161446.00  18471.95  11.44
574.2  163128.00  18166.40  11.14
575.6  164711.25  17875.50  10.85
577.0  166268.20  17603.89  10.59
578.4  168031.50  17388.58  10.35
579.8  169566.08  17172.72  10.13
581.2  171333.15  17009.08  9.93
582.5  172785.60  16835.52  9.74
583.9  174345.00  16691.49  9.57
585.3  176179.95  16598.01  9.42
586.7  177693.43  16490.28  9.28
588.1  179231.75  16405.93  9.15
589.5  180908.00  16359.47  9.04
590.9  182565.20  16334.93  8.95
592.3  184422.25  16351.81  8.87
593.7  185904.23  16355.82  8.80
595.0  187578.45  16390.35  8.74
596.4  189057.05  16410.24  8.68
597.8  190568.13  16432.66  8.62
599.2  192152.40  16445.44  8.56
600.6  193945.38  16460.82  8.49
602.0  195280.05  16412.51  8.40
603.3  197111.85  16377.43  8.31
604.7  198820.83  16293.31  8.19
606.1  200348.40  16160.72  8.07
607.5  202023.90  16004.47  7.92
608.9  203753.10  15833.41  7.77
610.2  205183.13  15617.07  7.61
611.6  206824.35  15413.70  7.45
613.0  208397.90  15197.55  7.29
614.4  209811.00  14982.62  7.14
615.8  211302.00  14777.10  6.99
617.1  212870.70  14605.92  6.86
618.5  214540.80  14468.48  6.74
619.9  216099.08  14347.90  6.64
621.3  217758.38  14271.00  6.55
622.6  219371.25  14225.20  6.48
624.0  220873.20  14207.82  6.43
625.4  222381.23  14209.91  6.39
626.8  224001.05  14245.44  6.36
628.1  225349.03  14282.33  6.34
629.5  227235.28  14361.33  6.32
630.9  228878.10  14428.74  6.30
632.2  230299.83  14471.75  6.28
633.6  231975.25  14492.32  6.25
635.0  233558.80  14459.47  6.19
636.3  235124.30  14354.39  6.11
637.7  236508.50  14189.58  6.00
639.1  238227.50  13986.00  5.87
640.4  239726.03  13725.23  5.73
641.8  240958.35  13418.66  5.57
643.2  242580.45  13110.18  5.40
644.5  243984.25  12787.17  5.24
645.9  245754.00  12484.50  5.08
647.2  247517.20  12220.72  4.94
648.6  249459.75  12012.30  4.82
650.0  251013.60  11822.40  4.71
651.3  251508.68  11613.36  4.62
652.7  252766.30  11448.17  4.53
654.0  254922.80  11324.81  4.44
655.4  256446.50  11168.86  4.36
656.8  256668.90  10947.45  4.27
658.1  257803.90  10750.72  4.17
659.5  260244.60  10565.10  4.06
660.8  262080.00  10353.00  3.95
662.2  263065.60  10106.88  3.84
663.5  264781.10  9905.48  3.74
664.9  266128.20  9721.05  3.65
666.2  266932.80  9566.72  3.58
667.6  268770.68  9483.66  3.53
668.9  269962.13  9421.46  3.49
670.3  271140.25  9394.52  3.46
671.6  272779.13  9416.40  3.45
673.0  273951.75  9463.60  3.45
674.3  275233.40  9544.25  3.47
675.7  276599.75  9657.08  3.49
677.0  277757.28  9787.91  3.52
678.4  279188.90  9964.11  3.57
679.7  280356.23  10172.61  3.63
681.1  281699.08  10425.29  3.70
682.4  282924.20  10728.81  3.79
683.8  284206.00  11120.72  3.91
685.1  285213.38  11611.20  4.07
686.4  286557.60  12269.20  4.28
687.8  287892.75  13151.23  4.57
689.1  288983.00  14302.30  4.95
690.5  290438.25  15844.66  5.46
691.8  291298.48  17833.16  6.12
693.1  292683.30  20412.18  6.97
694.5  293907.25  23565.97  8.02
695.8  295204.00  27296.97  9.25
697.1  296432.50  31540.60  10.64
698.5  297551.60  36277.63  12.19
699.8  298697.78  41407.57  13.86
701.1  299876.88  46837.48  15.62
702.5  300704.25  52370.12  17.42
703.8  301747.50  57972.00  19.21
705.1  302961.75  63576.37  20.98
706.5  304053.88  69061.18  22.71
707.8  305099.85  74410.60  24.39
709.1  306053.43  79584.16  26.00
710.5  307258.98  84665.33  27.56
711.8  308163.70  89521.12  29.05
713.1  309234.10  94272.51  30.49
714.4  310193.00  98845.49  31.87
715.8  311085.00  103249.00  33.19
717.1  312453.00  107685.28  34.46
718.4  313465.60  111844.69  35.68
719.7  314627.53  115926.05  36.85
721.0  315225.00  119646.00  37.96
722.4  316060.80  123300.39  39.01
723.7  317077.35  126885.30  40.02
725.0  318172.73  130341.51  40.97
726.3  319184.80  133602.33  41.86
727.6  319755.43  136536.11  42.70
729.0  320743.68  139460.42  43.48
730.3  321567.15  142174.77  44.21
731.6  322548.95  144792.45  44.89
732.9  323382.85  147209.72  45.52
734.2  324258.00  149506.50  46.11
735.5  325350.75  151758.21  46.64
736.8  326183.10  153756.12  47.14
738.1  327071.50  155652.73  47.59
739.5  328103.10  157495.29  48.00
740.8  328846.10  159100.55  48.38
742.1  329656.15  160631.19  48.73
743.4  330450.00  162070.00  49.05
744.7  331479.23  163526.73  49.33
746.0  332414.55  164829.08  49.59
747.3  333024.68  165878.47  49.81
748.6  333797.25  166945.83  50.01
749.9  334620.00  167946.13  50.19
751.2  335426.05  168890.65  50.35
752.5  336367.45  169873.89  50.50
753.8  337071.53  170662.61  50.63
755.1  337818.00  171430.13  50.75
756.4  338454.25  172093.03  50.85
757.7  339496.50  172918.97  50.93
759.0  341397.05  174130.50  51.01
760.3  342672.00  175003.84  51.07
761.6  344310.40  176028.16  51.12
762.9  344914.50  176500.07  51.17
764.2  345369.10  176854.95  51.21
765.5  345703.80  177147.07  51.24
766.8  346174.40  177489.07  51.27
768.1  346747.00  177866.19  51.30
769.3  347449.90  178268.77  51.31
770.6  348173.15  178701.12  51.33
771.9  348947.38  179159.19  51.34
773.2  349405.20  179431.20  51.35
774.5  350092.60  179810.11  51.36
775.8  350873.70  180216.33  51.36
777.1  351490.70  180566.76  51.37
778.4  351864.15  180783.28  51.38
779.6  352716.85  181235.31  51.38
780.9  353250.00  181520.00  51.39
782.2  353804.00  181806.53  51.39
783.5  354166.00  182011.80  51.39
784.8  354764.93  182327.82  51.39
786.0  355234.60  182563.92  51.39
787.3  355698.98  182794.21  51.39
788.6  356185.40  183061.64  51.40
789.9  356711.60  183338.21  51.40
791.2  357445.48  183701.28  51.39
792.4  358174.45  184084.04  51.40
793.7  358749.40  184359.09  51.39
795.0  359458.28  184716.07  51.39
796.2  360183.90  185084.24  51.39
797.5  361001.10  185482.43  51.38
798.8  361725.53  185870.58  51.38
800.0  362458.00  186247.28  51.38
801.3  363021.60  186526.29  51.38
802.6  363742.65  186871.35  51.37
803.8  364426.53  187223.21  51.37
805.1  364962.50  187507.95  51.38
806.4  365493.30  187777.12  51.38
807.7  366089.63  188086.32  51.38
808.9  366714.25  188398.55  51.37
810.2  367340.40  188700.96  51.37
811.4  367917.50  188977.93  51.36
812.7  368590.63  189334.17  51.37
814.0  369444.70  189800.26  51.37
815.2  370155.50  190168.47  51.38
816.5  370624.93  190400.96  51.37
817.7  371166.70  190659.65  51.37
819.0  371801.65  190948.27  51.36
820.2  371976.00  191053.87  51.36
821.5  372738.20  191459.20  51.37
822.7  373156.55  191670.20  51.36
824.0  373488.30  191855.88  51.37
825.2  374043.83  192124.98  51.36
826.5  374418.00  192295.79  51.36
827.7  374979.20  192599.46  51.36
829.0  375474.85  192814.57  51.35
830.2  375820.00  192993.46  51.35
831.5  376375.75  193258.04  51.35
832.7  376743.15  193413.15  51.34
834.0  377075.25  193603.23  51.34
835.2  377497.18  193782.23  51.33
836.4  377771.35  193966.37  51.34
837.7  378261.80  194194.99  51.34
838.9  378750.78  194436.78  51.34
840.1  379177.20  194660.73  51.34
841.4  379693.70  194901.47  51.33
842.6  380092.80  195101.97  51.33
843.8  380372.60  195302.08  51.34
845.1  380908.30  195601.77  51.35
846.3  381334.50  195829.84  51.35
847.5  381843.00  196065.52  51.35
848.8  382294.80  196285.04  51.34
850.0  382666.20  196478.75  51.34
851.2  383301.45  196779.60  51.34
852.5  383678.10  196998.05  51.34
853.7  384192.00  197246.40  51.34
854.9  384702.00  197515.61  51.34
856.1  385230.30  197734.59  51.33
857.4  385449.48  197850.05  51.33
858.6  385950.30  198114.75  51.33
859.8  386349.38  198338.50  51.34
861.0  386872.20  198581.76  51.33
862.2  387358.75  198829.94  51.33
863.5  387783.18  199022.29  51.32
864.7  388337.40  199301.52  51.32
865.9  388799.80  199520.77  51.32
867.1  389213.35  199690.89  51.31
868.3  389669.10  199909.38  51.30
869.5  390202.70  200169.90  51.30
870.8  390838.50  200450.40  51.29
872.0  391419.15  200715.08  51.28
873.2  391922.25  200949.70  51.27
874.4  392347.80  201154.59  51.27
875.6  392732.33  201362.74  51.27
876.8  393330.05  201581.99  51.25
878.0  393797.95  201838.80  51.25
879.2  394405.80  202117.82  51.25
880.4  395044.50  202383.65  51.23
881.6  395472.70  202607.87  51.23
882.8  395985.60  202826.35  51.22
884.0  396600.08  203116.49  51.21
885.2  397193.30  203358.76  51.20
886.5  397870.30  203715.28  51.20
887.7  398450.65  203948.64  51.19
888.8  399236.85  204285.62  51.17
890.0  399846.25  204561.03  51.16
891.2  400567.50  204840.69  51.14
892.4  401195.55  205127.30  51.13
893.6  401779.50  205405.35  51.12
894.8  402827.75  205848.47  51.10
896.0  403749.00  206307.67  51.10
897.2  404813.50  206765.87  51.08
898.4  405517.20  207123.40  51.08
899.6  406151.25  207431.45  51.07
900.8  406518.80  207602.91  51.07
902.0  406837.80  207725.42  51.06
903.2  407294.33  207847.08  51.03
904.3  407810.40  208030.28  51.01
905.5  408537.63  208363.50  51.00
906.7  409054.00  208628.13  51.00
907.9  409703.70  208928.16  50.99
909.1  410113.80  209073.96  50.98
910.2  410342.63  209185.92  50.98
911.4  410743.13  209293.11  50.95
912.6  411082.10  209373.93  50.93
913.8  411448.28  209482.50  50.91
915.0  411835.20  209732.74  50.93
916.2  412064.25  209847.30  50.93
917.3  412147.80  209859.63  50.92
918.5  412417.00  209929.36  50.90
919.7  412935.45  210041.50  50.87
920.8  413175.65  210037.61  50.83
922.0  413278.25  210048.30  50.82
923.2  413595.00  210155.40  50.81
924.4  413741.25  210256.20  50.82
925.5  414165.60  210337.76  50.79
926.7  414880.75  210639.07  50.77
927.9  415869.60  211038.88  50.75
929.0  417464.55  211739.04  50.72
930.2  419979.80  212841.80  50.68
931.4  422441.33  214065.54  50.67
932.5  425189.80  215412.80  50.66
933.7  426672.35  216065.94  50.64
934.9  427673.75  216372.92  50.59
936.0  427381.50  216076.03  50.56
937.2  425371.95  214952.64  50.53
938.3  423558.10  213996.57  50.52
939.5  422154.00  213079.20  50.47
940.7  422358.30  213064.32  50.45
941.8  424002.23  213807.99  50.43
943.0  425539.50  214430.80  50.39
944.2  426670.40  214772.05  50.34
945.3  426445.50  214445.40  50.29
946.5  425590.20  213946.02  50.27
947.6  425833.10  213914.55  50.23
948.8  425884.88  213660.33  50.17
949.9  425989.20  213560.48  50.13
951.1  425514.05  213198.18  50.10
952.2  425544.00  212867.20  50.02
953.4  425277.00  212472.70  49.96
954.5  425622.60  212228.64  49.86
955.7  425615.40  212000.88  49.81
956.8  425558.70  211711.64  49.75
958.0  425058.50  211281.47  49.71
959.1  424814.45  211098.02  49.69
960.3  424763.83  210687.76  49.60
961.4  424770.05  210469.53  49.55
962.6  425076.75  210468.53  49.51
963.7  424902.90  210259.88  49.48
964.9  424734.30  210225.07  49.50
966.0  424595.93  210060.54  49.47
967.2  424753.20  210087.30  49.46
968.3  424662.75  209880.18  49.42
969.5  424674.43  209718.53  49.38
970.6  424714.48  209768.34  49.39
971.8  425183.50  209677.35  49.31
972.9  424938.23  209731.94  49.36
974.0  425299.50  209705.79  49.31
975.2  425041.75  209587.20  49.31
976.3  424852.13  209522.01  49.32
977.5  425068.70  209458.53  49.28
978.6  425306.30  209385.67  49.23
979.7  425149.73  209417.74  49.26
980.9  425673.20  209289.32  49.17
982.0  425715.65  209066.22  49.11
983.2  425089.60  209070.51  49.18
984.3  424707.80  208891.71  49.18
985.4  425252.63  208749.86  49.09
986.6  424974.50  208802.50  49.13
987.7  425902.93  209233.78  49.13
988.9  426049.20  209118.00  49.08
990.0  427159.90  209577.60  49.06
993.1  369221.30  180631.10  48.92
996.9  369779.55  181205.65  49.00
1000.7  370909.12  182013.38  49.07
1004.5  371527.67  182555.62  49.14
1008.4  371346.21  182744.88  49.21
1012.2  371408.92  182992.55  49.27
1016.0  371555.40  183215.40  49.31
1019.8  371748.30  183465.98  49.35
1023.7  371752.45  183578.05  49.38
1027.5  371500.15  183579.13  49.42
1031.3  371774.08  183810.38  49.44
1035.1  371655.32  183861.05  49.47
1038.9  371714.38  183965.55  49.49
1042.7  371592.25  184010.90  49.52
1046.5  371492.83  184007.12  49.53
1050.3  371577.78  184067.18  49.54
1054.2  371340.08  183967.42  49.54
1058.0  370869.51  183704.60  49.53
1061.8  370756.98  183664.68  49.54
1065.6  370521.23  183477.92  49.52
1069.4  370554.73  183439.97  49.50
1073.2  370195.32  183148.68  49.47
1077.0  369697.83  182783.62  49.44
1080.8  369266.67  182384.97  49.39
1084.6  368250.52  181723.03  49.35
1088.4  367607.72  181305.77  49.32
1092.2  366795.00  180748.29  49.28
1096.0  366230.77  180308.77  49.23
1099.8  365747.63  179877.35  49.18
1103.6  365113.20  179354.70  49.12
1107.4  364217.09  178668.50  49.06
1111.2  364005.70  178316.77  48.99
1114.9  363353.08  177734.42  48.92
1118.7  362718.68  177090.85  48.82
1122.5  362082.07  176356.64  48.71
1126.3  361007.15  175373.75  48.58
1130.1  360536.56  174494.16  48.40
1133.9  358948.10  172838.10  48.15
1137.7  357564.10  171059.20  47.84
1141.4  355806.53  168910.02  47.47
1145.2  355101.64  167096.13  47.06
1149.0  354025.00  165179.79  46.66
1152.8  352415.25  163204.89  46.31
1156.6  350778.63  161518.68  46.05
1160.3  349110.33  160102.91  45.86
1164.1  346706.30  158596.78  45.74
1167.9  344904.17  157529.46  45.67
1171.7  343672.88  156762.00  45.61
1175.4  342501.60  156102.82  45.58
1179.2  341466.23  155488.46  45.54
1183.0  341178.67  155192.47  45.49
1186.7  340679.73  154802.70  45.44
1190.5  339646.80  154214.79  45.40
1194.3  338474.83  153579.69  45.37
1198.0  337262.20  152960.11  45.35
1201.8  335802.70  152252.91  45.34
1205.6  334575.67  151745.43  45.35
1209.3  333662.58  151487.25  45.40
1213.1  332711.25  151245.05  45.46
1216.8  331773.29  151074.03  45.54
1220.6  330689.33  150832.00  45.61
1224.3  329467.08  150518.84  45.69
1228.1  328189.80  150192.03  45.76
1231.9  326944.63  149830.03  45.83
1235.6  325503.08  149314.52  45.87
1239.4  324149.50  148866.96  45.93
1243.1  322939.28  148402.36  45.95
1246.9  321756.01  147919.04  45.97
1250.6  320773.53  147499.10  45.98
1254.3  319723.80  147032.91  45.99
1258.1  318755.97  146575.70  45.98
1261.8  317474.13  145956.46  45.97
1265.6  316070.23  145228.62  45.95
1269.3  314652.68  144457.29  45.91
1273.1  314611.66  144302.69  45.87
1276.8  314880.00  144254.40  45.81
1280.6  314731.00  143975.23  45.75
1284.3  313354.80  143099.37  45.67
1288.0  311921.21  142142.43  45.57
1291.8  310638.12  141193.45  45.45
1295.5  309243.73  140198.67  45.34
1299.2  307985.33  139213.82  45.20
1302.9  306563.28  138064.63  45.04
1306.7  305011.12  136783.85  44.85
1310.4  303513.35  135412.83  44.62
1314.1  302157.35  134028.40  44.36
1317.9  300912.08  132584.08  44.06
1321.6  299518.90  130960.85  43.72
1325.3  297892.35  129123.23  43.35
1329.0  296557.80  127364.75  42.95
1332.8  294448.00  125171.20  42.51
1336.5  292662.00  123097.31  42.06
1340.2  292292.00  121628.00  41.61
1343.9  291817.50  120104.55  41.16
1347.6  291139.80  118494.88  40.70
1351.4  291307.00  117275.21  40.26
1355.1  291620.27  116137.27  39.82
1358.8  291744.00  114861.71  39.37
1362.5  291263.23  113225.00  38.87
1366.2  289569.50  110897.43  38.30
1369.9  287702.63  108213.07  37.61
1373.6  285704.01  105037.35  36.76
1377.3  283815.00  101303.44  35.69
1381.0  282641.83  96995.38  34.32
1384.8  280637.50  91517.68  32.61
1388.4  278269.83  85394.38  30.69
1392.2  276424.25  79005.93  28.58
1395.9  274860.80  72561.20  26.40
1399.6  273240.17  66403.87  24.30
1403.3  272067.63  60935.22  22.40
1407.0  270950.60  56237.40  20.76
1410.7  269782.43  52390.33  19.42
1414.3  268586.56  49378.25  18.38
1418.1  267435.96  47133.29  17.62
1421.7  266530.78  45516.54  17.08
1425.4  265616.98  44373.88  16.71
1429.1  264742.13  43603.50  16.47
1432.8  263235.97  43020.07  16.34
1436.5  262454.13  42742.31  16.29
1440.2  261628.97  42617.08  16.29
1443.9  260321.97  42520.20  16.33
1447.6  258735.40  42462.20  16.41
1451.2  257663.82  42519.72  16.50
1454.9  256383.45  42595.31  16.61
1458.6  255290.63  42812.90  16.77
1462.3  254123.47  43143.52  16.98
1466.0  252785.70  43611.13  17.25
1469.7  251121.00  44215.45  17.61
1473.3  250104.83  45074.26  18.02
1477.0  248227.67  45894.80  18.49
1480.7  246657.57  46838.49  18.99
1484.4  244741.15  47718.77  19.50
1488.0  243232.00  48712.19  20.03
1491.7  241638.00  49670.03  20.56
1495.4  239921.33  50602.69  21.09
1499.0  238336.50  51518.50  21.62
1502.7  237024.42  52486.96  22.14
1506.4  235620.25  53386.34  22.66
1510.0  234205.40  54254.69  23.17
1513.7  232739.79  55067.83  23.66
1517.4  231411.67  55869.29  24.14
1521.0  230206.93  56663.12  24.61
1524.7  228995.00  57387.57  25.06
1528.3  227709.13  58063.84  25.50
1532.0  226501.92  58707.18  25.92
1535.7  225126.68  59246.94  26.32
1539.3  223857.41  59782.55  26.71
1543.0  222886.59  60359.91  27.08
1546.6  222206.83  60980.84  27.44
1550.3  221245.35  61468.75  27.78
1553.9  220183.00  61895.02  28.11
1557.6  218948.40  62234.23  28.42
1561.2  217675.80  62499.99  28.71
1564.9  216370.16  62736.68  29.00
1568.5  215052.83  62925.22  29.26
1572.2  213911.25  63136.69  29.52
1575.8  212842.00  63354.00  29.77
1579.5  211849.60  63553.69  30.00
1583.1  210850.33  63739.90  30.23
1586.8  209622.00  63822.00  30.45
1590.4  208577.43  63929.85  30.65
1594.0  207255.10  63937.51  30.85
1597.7  206128.23  63986.89  31.04
1601.3  204828.75  63977.85  31.23
1604.9  203540.03  63941.95  31.41
1608.6  202226.97  63869.87  31.58
1612.2  201174.60  63849.81  31.74
1615.8  200010.20  63773.91  31.89
1619.5  198924.83  63682.67  32.01
1623.1  197642.30  63508.43  32.13
1626.7  196418.63  63312.74  32.23
1630.3  195223.00  63106.12  32.33
1634.0  194110.00  62886.00  32.40
1637.6  193107.20  62652.93  32.44
1641.2  192091.60  62345.87  32.46
1644.8  190885.75  61907.36  32.43
1648.5  189800.66  61489.99  32.40
1652.1  188827.20  61083.21  32.35
1655.7  187894.40  60715.14  32.31
1659.3  187045.74  60429.79  32.31
1662.9  185625.83  60003.93  32.33
1666.6  184174.87  59586.40  32.35
1670.2  182758.33  59151.44  32.37
1673.8  181304.02  58649.07  32.35
1677.4  180135.05  58181.05  32.30
1681.0  179329.58  57759.78  32.21
1684.6  178956.92  57399.64  32.07
1688.2  178290.00  56844.59  31.88
1691.8  177647.62  56326.26  31.71
1695.4  177216.00  55852.66  31.52
1699.0  176863.40  55412.40  31.33
1702.6  176515.00  54956.05  31.13
1706.2  175925.75  54362.64  30.90
1709.8  175018.56  53659.05  30.66
1713.4  174292.03  53063.73  30.45
1717.0  173430.50  52497.36  30.27
1720.6  172645.88  52003.78  30.12
1724.2  171950.93  51555.22  29.98
1727.8  171253.95  51142.05  29.86
1731.4  170776.38  50811.36  29.75
1735.0  170563.62  50591.07  29.66
1738.6  170274.45  50309.61  29.55
1742.2  169661.17  49861.51  29.39
1745.8  168966.89  49340.94  29.20
1749.4  167988.98  48691.03  28.98
1753.0  166470.73  47882.61  28.76
1756.6  164801.29  47044.13  28.55
1760.1  163473.34  46332.25  28.34
1763.7  161751.33  45531.24  28.15
1767.3  160339.05  44842.13  27.97
1770.9  159120.97  44226.41  27.79
1774.5  157676.98  43578.04  27.64
1778.0  156534.93  43048.84  27.50
1781.6  155423.85  42590.98  27.40
1785.2  154276.70  42173.03  27.34
1788.8  153114.00  41798.96  27.30
1792.3  151906.80  41425.96  27.27
1795.9  151415.55  41256.52  27.25
1799.5  150901.33  41093.67  27.23
1803.1  150278.92  40924.10  27.23
1806.6  150756.20  41066.46  27.24
1810.2  151841.20  41384.43  27.26
1813.8  152735.60  41623.67  27.25
1817.3  152719.80  41593.60  27.24
1820.9  151930.35  41330.62  27.20
1824.5  150728.60  40943.43  27.16
1828.0  149863.54  40615.54  27.10
1831.6  149098.53  40278.74  27.01
1835.2  148410.00  39895.36  26.88
1838.7  148036.53  39518.21  26.69
1842.3  147690.00  39079.28  26.46
1845.8  146922.33  38419.22  26.15
1849.4  146408.98  37686.05  25.74
1852.9  145768.64  36752.12  25.21
1856.5  144904.95  35544.16  24.53
1860.0  144137.37  34124.35  23.67
1863.6  143867.21  32584.38  22.65
1867.1  143699.85  30794.05  21.43
1870.7  143656.20  28634.18  19.93
1874.2  142950.60  25972.33  18.17
1877.8  141731.67  23091.25  16.29
1881.3  140246.25  20133.63  14.36
1884.9  139260.00  17379.87  12.48
1888.4  138250.76  14796.08  10.70
1891.9  137197.60  12583.39  9.17
1895.5  136077.32  10800.51  7.94
1899.0  135469.25  9512.91  7.02
1901.3  168327.83  7978.45  4.74
1904.1  168183.75  7191.75  4.28
1906.8  167451.60  6580.00  3.93
1909.6  165774.35  6104.82  3.68
1912.4  164161.32  5749.10  3.50
1915.1  162962.80  5508.07  3.38
1917.9  161627.67  5336.11  3.30
1920.6  160533.87  5225.34  3.25
1923.3  159470.73  5135.67  3.22
1926.1  158079.50  5085.11  3.22
1928.8  156786.67  5069.78  3.23
1931.6  155769.10  5075.32  3.26
1934.3  154813.27  5098.12  3.29
1937.0  153907.57  5158.39  3.35
1939.8  152900.00  5224.08  3.42
1942.5  151635.00  5302.00  3.50
1945.2  149978.40  5371.30  3.58
1947.9  148663.90  5454.79  3.67
1950.7  147593.87  5576.77  3.78
1953.4  145914.45  5694.98  3.90
1956.1  144583.50  5828.92  4.03
1958.8  143402.13  5971.98  4.16
1961.5  141965.20  6111.87  4.31
1964.2  140494.90  6266.87  4.46
1966.9  138944.65  6419.47  4.62
1969.6  137709.00  6597.00  4.79
1972.3  136339.10  6781.80  4.97
1975.0  135298.80  6985.60  5.16
1977.7  134198.48  7188.52  5.36
1980.4  133078.00  7387.38  5.55
1983.1  131996.48  7600.93  5.76
1985.8  131082.90  7827.10  5.97
1988.4  130060.67  8051.33  6.19
1991.1  129146.03  8276.49  6.41
1993.8  128276.32  8513.27  6.64
1996.5  127638.68  8766.02  6.87
1999.1  126975.20  9007.29  7.09
2001.8  126288.40  9252.05  7.33
2004.5  125615.30  9494.82  7.56
2007.1  124888.70  9725.48  7.79
2009.8  124147.33  9954.23  8.02
2012.4  123563.00  10184.90  8.24
2015.1  123007.73  10414.68  8.47
2017.8  122222.10  10616.12  8.69
2020.4  121710.42  10836.89  8.90
2023.1  121358.77  11067.94  9.12
2025.7  121108.00  11286.89  9.32
2028.3  120770.00  11492.00  9.52
2031.0  120377.05  11681.98  9.70
2033.6  120112.20  11872.60  9.88
2036.2  119851.20  12052.40  10.06
2038.9  119259.60  12180.00  10.21
2041.5  118921.48  12325.37  10.36
2044.1  118372.20  12446.80  10.51
2046.8  117998.10  12583.10  10.66
2049.4  117380.40  12675.90  10.80
2052.0  117105.27  12800.16  10.93
2054.6  116725.00  12915.00  11.06
2057.2  116153.33  13012.67  11.20
2059.8  115821.47  13134.93  11.34
2062.4  114946.68  13197.03  11.48
2065.0  114424.13  13306.69  11.63
2067.6  113525.87  13365.56  11.77
2070.2  112924.42  13449.82  11.91
2072.8  112279.38  13525.36  12.05
2075.4  111851.25  13623.75  12.18
2078.0  111223.35  13699.07  12.32
2080.6  110651.20  13777.87  12.45
2083.2  109977.83  13830.88  12.58
2085.8  109484.25  13904.02  12.70
2088.4  108817.83  13947.83  12.82
2090.9  108021.80  13977.36  12.94
2093.5  107128.67  13985.76  13.06
2096.1  106357.38  14000.63  13.16
2098.7  105593.23  14012.35  13.27
2101.2  104642.80  13996.62  13.38
2103.8  103961.60  14025.74  13.49
2106.4  103289.13  14037.38  13.59
2108.9  102651.60  14040.29  13.68
2111.5  101813.20  14011.18  13.76
2114.0  101184.40  14011.18  13.85
2116.6  100668.75  14011.67  13.92
2119.1  100097.80  14012.05  14.00
2121.7  99618.75  14011.67  14.07
2124.2  99212.37  14032.51  14.14
2126.8  98417.25  13983.07  14.21
2129.3  98014.40  13983.20  14.27
2131.9  97433.60  13962.67  14.33
2134.4  97013.70  13968.25  14.40
2136.9  96624.02  13976.45  14.46
2139.4  96105.80  13967.95  14.53
2142.0  95653.60  13970.91  14.61
2144.5  95390.20  13996.73  14.67
2147.0  95148.93  14028.31  14.74
2149.5  94657.60  14007.47  14.80
2152.1  94486.70  14034.96  14.85
2154.6  94420.27  14074.49  14.91
2157.1  93903.50  14036.78  14.95
2159.6  93494.75  14009.53  14.98
2162.1  93338.70  14023.10  15.02
2164.6  93068.67  14028.80  15.07
2167.1  92742.48  14016.83  15.11
2169.6  92424.73  14003.19  15.15
2172.1  91982.47  13970.03  15.19
2174.6  91656.60  13964.87  15.24
2177.1  91208.75  13937.38  15.28
2179.5  90790.92  13916.00  15.33
2182.0  90311.65  13894.10  15.38
2184.5  89779.73  13859.18  15.44
2187.0  89173.30  13813.54  15.49
2189.5  88498.47  13753.99  15.54
2191.9  87723.00  13680.00  15.59
2194.4  87096.00  13627.85  15.65
2196.9  86361.60  13564.80  15.71
2199.3  85695.00  13501.11  15.75
2201.8  84816.27  13399.56  15.80
2204.3  84364.43  13353.94  15.83
2206.7  83725.00  13290.93  15.87
2209.2  83267.08  13243.67  15.91
2211.6  82645.20  13170.30  15.94
2214.1  82336.25  13143.95  15.96
2216.5  81761.27  13075.58  15.99
2219.0  81423.53  13032.53  16.01
2221.4  81048.92  12974.31  16.01
2223.9  80582.83  12898.28  16.01
2226.3  80077.08  12799.11  15.98
2228.7  79521.30  12686.91  15.95
2231.1  78942.60  12543.30  15.89
2233.6  78344.20  12383.56  15.81
2236.0  77796.25  12233.86  15.73
2238.4  77300.42  12071.89  15.62
2240.9  76864.13  11903.45  15.49
2243.3  76327.73  11724.64  15.36
2245.7  75759.30  11525.42  15.21
2248.1  75258.30  11338.75  15.07
2250.5  74755.20  11151.38  14.92
2252.9  74152.00  10943.40  14.76
2255.3  73590.20  10746.00  14.60
2257.7  73130.00  10560.00  14.44
2260.1  72641.33  10384.50  14.30
2262.5  72050.00  10193.33  14.15
2264.9  71520.60  10009.96  14.00
2267.3  70920.00  9820.00  13.85
2269.7  70413.93  9648.72  13.70
2272.1  69866.25  9489.12  13.58
2274.5  69294.32  9334.42  13.47
2276.8  68824.52  9188.62  13.35
2279.2  68259.60  9031.60  13.23
2281.6  67829.20  8898.93  13.12
2284.0  67367.00  8760.07  13.00
2286.3  66900.27  8603.20  12.86
2288.7  66486.98  8465.74  12.73
2291.1  65943.60  8302.64  12.59
2293.4  65501.33  8162.00  12.46
2295.8  64890.00  7996.23  12.32
2298.2  64304.55  7824.60  12.17
2300.5  63631.80  7655.55  12.03
2302.9  62878.33  7474.44  11.89
2305.2  62170.80  7309.57  11.76
2307.6  61497.65  7159.77  11.64
2309.9  60718.67  7012.89  11.55
2312.2  60119.33  6895.78  11.47
2314.6  59522.85  6786.15  11.40
2316.9  58808.70  6668.85  11.34
2319.2  58239.93  6569.01  11.28
2321.6  57606.73  6454.97  11.21
2323.9  57041.67  6343.75  11.12
2326.2  56517.37  6235.65  11.03
2328.6  55980.65  6120.22  10.93
2330.9  55471.50  6013.00  10.84
2333.2  55012.17  5923.14  10.77
2335.5  54570.00  5827.93  10.68
2337.8  54099.98  5733.14  10.60
2340.1  53528.47  5621.71  10.50
2342.4  53083.33  5532.22  10.42
2344.8  52662.00  5429.22  10.31
2347.1  52091.67  5326.14  10.22
2349.4  51546.98  5229.25  10.14
2351.6  50974.12  5126.42  10.06
2353.9  50488.53  5045.91  9.99
2356.2  49958.30  4972.86  9.95
2358.5  49369.60  4883.20  9.89
2360.8  48787.20  4774.93  9.79
2363.1  48332.62  4696.04  9.72
2365.4  47866.80  4617.93  9.65
2367.7  47401.20  4537.20  9.57
2369.9  46853.40  4442.60  9.48
2372.2  46256.53  4342.04  9.39
2374.5  45668.70  4242.70  9.29
2376.7  45037.82  4147.15  9.21
2379.0  44404.43  4036.76  9.09
2381.3  43785.00  3931.67  8.98
2383.5  43284.27  3848.53  8.89
2385.8  42677.70  3749.64  8.79
2388.0  42149.60  3654.07  8.67
2390.3  41616.40  3556.04  8.54
2392.5  41136.00  3476.00  8.45
2394.8  40680.20  3396.07  8.35
2397.0  40197.73  3304.31  8.22
2399.3  39742.03  3228.58  8.12
2401.5  39273.50  3148.25  8.02
2403.8  38735.92  3062.74  7.91
2406.0  38230.92  2984.14  7.81
2408.2  37823.87  2917.20  7.71
2410.4  37400.07  2842.04  7.60
2412.7  36971.13  2768.86  7.49
2414.9  36609.10  2707.10  7.39
2417.1  36207.70  2637.37  7.28
2419.3  35788.80  2560.00  7.15
2421.6  35404.58  2484.30  7.02
2423.8  35022.97  2420.44  6.91
2426.0  34665.50  2362.96  6.82
2428.2  34273.87  2312.80  6.75
2430.4  33969.97  2240.85  6.60
2432.6  33693.33  2182.22  6.48
2434.8  33403.30  2125.30  6.36
2437.0  33019.13  2064.26  6.25
2439.2  32669.78  2009.48  6.15
2441.4  32351.90  1963.20  6.07
2443.6  32082.30  1920.52  5.99
2445.7  31820.60  1855.74  5.83
2447.9  31549.08  1799.89  5.71
2450.1  31261.25  1756.25  5.62
2452.3  30887.27  1708.12  5.53
2454.5  30522.53  1659.45  5.44
2456.6  30145.47  1612.13  5.35
2458.8  29772.60  1553.93  5.22
2461.0  29467.67  1513.75  5.14
2463.1  29187.30  1464.70  5.02
2465.3  28886.20  1438.95  4.98
2467.5  28629.75  1406.17  4.91
2469.6  28371.50  1367.36  4.82
2471.8  28051.13  1331.48  4.75
2473.9  27738.25  1312.25  4.73
2476.1  27375.83  1274.00  4.65
2478.2  27008.70  1244.06  4.61
2480.4  26709.00  1197.30  4.48
2482.5  26368.12  1171.57  4.44
2484.6  26039.75  1153.17  4.43
2486.8  25763.70  1119.93  4.35
2488.9  25458.52  1089.05  4.28
2491.1  25116.93  1073.64  4.27
2493.2  24716.40  1048.48  4.24
2495.3  24290.50  1020.79  4.20
2497.4  23956.80  992.83  4.14
2499.5  23627.67  971.00  4.11
2501.7  23483.23  964.09  4.11
2503.8  23386.62  936.13  4.00
2505.9  23318.75  928.20  3.98
2508.0  23297.17  922.54  3.96
2510.1  23284.10  929.94  3.99
2512.2  23377.90  929.73  3.98
2514.3  23539.33  942.84  4.01
2516.4  23758.20  971.87  4.09
