/*** Spectra Vista SIG Data ***/
name= 15_20220926_TITO_35_avg.sig
comm= Averaged Ref/Tar of files: HR.092622.0041_moc.sig,HR.092622.0042_moc.sig,HR.092622.0043_moc.sig
data=
337.3  6317.33  548.17  8.68
338.8  6445.40  551.55  8.56
340.3  6900.33  529.34  7.67
341.8  7076.55  508.06  7.18
343.2  7372.48  509.26  6.91
344.7  7814.63  515.25  6.59
346.2  8142.75  537.37  6.60
347.7  8548.20  517.11  6.05
349.2  8920.80  524.16  5.88
350.6  9350.40  516.22  5.52
352.1  9834.25  499.97  5.08
353.6  10320.00  495.36  4.80
355.1  10777.05  505.59  4.69
356.6  11453.20  529.28  4.62
358.0  11968.43  540.37  4.51
359.5  12499.88  544.71  4.36
361.0  13164.60  561.37  4.26
362.5  13784.33  576.75  4.18
364.0  14483.20  588.38  4.06
365.4  15159.05  612.26  4.04
366.9  15819.10  635.65  4.02
368.4  16516.05  641.40  3.88
369.9  17225.00  664.27  3.86
371.3  18068.60  700.33  3.88
372.8  18857.85  734.23  3.89
374.3  19672.40  736.40  3.74
375.8  20496.10  760.68  3.71
377.2  21323.25  772.20  3.62
378.7  22176.18  786.61  3.55
380.2  22935.38  794.39  3.46
381.7  23895.75  815.87  3.41
383.1  24886.20  829.54  3.33
384.6  25761.75  862.23  3.35
386.1  26784.30  892.81  3.33
387.6  27707.03  897.28  3.24
389.0  28728.90  929.67  3.24
390.5  29758.30  950.32  3.19
392.0  30791.25  979.80  3.18
393.4  31955.25  1013.80  3.17
394.9  32932.30  1024.79  3.11
396.4  34155.00  1032.24  3.02
397.9  35270.40  1068.80  3.03
399.3  36204.55  1104.88  3.05
400.8  37431.08  1142.24  3.05
402.2  38614.95  1173.92  3.04
403.7  39813.60  1195.66  3.00
405.2  40982.90  1217.04  2.97
406.6  42264.90  1250.28  2.96
408.1  43364.63  1285.53  2.96
409.6  44571.55  1317.47  2.96
411.0  45802.08  1350.95  2.95
412.5  47159.65  1384.11  2.93
414.0  48543.95  1419.51  2.92
415.4  49845.60  1455.12  2.92
416.9  51184.10  1511.01  2.95
418.4  52525.95  1540.18  2.93
419.8  53838.05  1588.39  2.95
421.3  55336.05  1635.48  2.96
422.7  56851.60  1676.48  2.95
424.2  58372.28  1726.15  2.96
425.7  59802.88  1779.43  2.98
427.1  61277.20  1825.63  2.98
428.6  62782.28  1873.56  2.98
430.0  64323.05  1918.51  2.98
431.5  66006.85  1974.61  2.99
432.9  67674.38  2020.30  2.99
434.4  69367.95  2081.22  3.00
435.9  71056.20  2135.48  3.01
437.3  72712.88  2193.90  3.02
438.8  74358.25  2249.14  3.02
440.2  76060.78  2305.03  3.03
441.7  77930.55  2371.27  3.04
443.1  79745.85  2435.04  3.05
444.6  81546.50  2488.60  3.05
446.0  83349.30  2564.34  3.08
447.5  85350.00  2633.33  3.09
448.9  87087.95  2701.87  3.10
450.4  89000.00  2770.00  3.11
451.8  90801.75  2834.10  3.12
453.3  92607.60  2901.57  3.13
454.7  94453.88  2976.42  3.15
456.2  96221.30  3045.56  3.17
457.6  98136.90  3115.62  3.17
459.1  99993.08  3179.61  3.18
460.5  101879.63  3240.18  3.18
462.0  103878.00  3306.00  3.18
463.4  105858.55  3368.31  3.18
464.8  107849.70  3441.48  3.19
466.3  109789.13  3516.14  3.20
467.7  111819.20  3586.77  3.21
469.2  113704.20  3648.96  3.21
470.6  115742.38  3710.70  3.21
472.0  117776.45  3782.76  3.21
473.5  119764.53  3847.59  3.21
474.9  121936.30  3930.47  3.22
476.4  124015.80  4014.32  3.24
477.8  126112.00  4095.47  3.25
479.2  128214.38  4162.65  3.25
480.7  130363.50  4241.01  3.25
482.1  132587.90  4315.34  3.25
483.6  134784.90  4404.48  3.27
485.0  137021.55  4494.65  3.28
486.4  139111.63  4593.07  3.30
487.9  141391.25  4681.97  3.31
489.3  143546.25  4775.40  3.33
490.7  145777.80  4870.64  3.34
492.2  148032.38  4978.87  3.36
493.6  150301.30  5105.32  3.40
495.0  152600.18  5236.53  3.43
496.5  154791.00  5363.82  3.47
497.9  157084.00  5508.53  3.51
499.3  159354.00  5659.87  3.55
500.7  161649.60  5833.57  3.61
502.2  164015.48  6032.62  3.68
503.6  166323.60  6256.64  3.76
505.0  168618.73  6499.64  3.85
506.5  171071.60  6791.09  3.97
507.9  173541.10  7103.75  4.09
509.3  175879.13  7471.41  4.25
510.7  178500.08  7890.61  4.42
512.2  181138.13  8366.39  4.62
513.6  184010.83  8931.15  4.85
515.0  186747.58  9542.98  5.11
516.4  189580.60  10232.99  5.40
517.8  192385.00  10990.83  5.71
519.3  195323.20  11826.56  6.05
520.7  197965.50  12708.09  6.42
522.1  200667.03  13624.17  6.79
523.5  203226.20  14574.92  7.17
524.9  206110.88  15548.29  7.54
526.3  208752.53  16486.92  7.90
527.8  211567.38  17430.72  8.24
529.2  214185.60  18362.88  8.57
530.6  216922.50  19280.76  8.89
532.0  219846.25  20137.74  9.16
533.4  222379.60  20860.73  9.38
534.8  224932.13  21534.15  9.57
536.3  228038.83  22206.51  9.74
537.7  231054.00  22843.50  9.89
539.1  233952.23  23418.16  10.01
540.5  236824.50  23966.10  10.12
541.9  239765.45  24498.07  10.22
543.3  242289.50  24990.87  10.31
544.7  245278.00  25514.13  10.40
546.1  248096.10  26025.53  10.49
547.5  251035.20  26536.32  10.57
549.0  254188.00  27045.55  10.64
550.4  257084.10  27491.10  10.69
551.8  259986.33  27895.70  10.73
553.2  262920.60  28220.79  10.73
554.6  265822.90  28468.33  10.71
556.0  268766.40  28634.90  10.65
557.4  271893.70  28738.25  10.57
558.8  274785.68  28726.54  10.45
560.2  278000.00  28672.00  10.31
561.6  280929.55  28514.53  10.15
563.0  283732.15  28252.99  9.96
564.4  286899.90  27962.57  9.75
565.8  289940.10  27582.96  9.51
567.2  293130.15  27166.95  9.27
568.6  296193.38  26697.51  9.01
570.0  299087.75  26172.47  8.75
571.4  302530.50  25680.34  8.49
572.8  305677.60  25177.81  8.24
574.2  308560.88  24684.87  8.00
575.6  311637.88  24243.07  7.78
577.0  314686.63  23859.84  7.58
578.4  318128.13  23552.08  7.40
579.8  321213.33  23249.39  7.24
581.2  324316.00  22991.67  7.09
582.5  327217.50  22761.00  6.96
583.9  330262.30  22578.93  6.84
585.3  333195.00  22405.36  6.72
586.7  336174.30  22265.32  6.62
588.1  339178.10  22156.75  6.53
589.5  342581.85  22099.32  6.45
590.9  345533.98  22055.60  6.38
592.3  348485.63  22033.44  6.32
593.7  351447.60  22041.69  6.27
595.0  354412.20  22064.56  6.23
596.4  357752.25  22122.17  6.18
597.8  360436.00  22128.16  6.14
599.2  363595.05  22159.28  6.09
600.6  366771.08  22171.82  6.05
602.0  369739.80  22150.16  5.99
603.3  372632.00  22096.53  5.93
604.7  375646.90  22001.03  5.86
606.1  378698.40  21875.41  5.78
607.5  382033.88  21743.46  5.69
608.9  385142.45  21563.59  5.60
610.2  388310.18  21391.59  5.51
611.6  391215.00  21193.33  5.42
613.0  394055.43  20974.89  5.32
614.4  396814.25  20776.20  5.24
615.8  400115.90  20606.67  5.15
617.1  402827.20  20434.90  5.07
618.5  406079.55  20329.56  5.01
619.9  408806.85  20223.08  4.95
621.3  411747.38  20170.37  4.90
622.6  414677.25  20147.40  4.86
624.0  417416.25  20137.10  4.82
625.4  420508.65  20194.36  4.80
626.8  423484.10  20264.83  4.79
628.1  426318.90  20355.49  4.77
629.5  429132.90  20445.16  4.76
630.9  432063.85  20545.99  4.76
632.2  435202.00  20617.80  4.74
633.6  437688.55  20640.36  4.72
635.0  440644.93  20624.76  4.68
636.3  443682.45  20564.08  4.63
637.7  446421.70  20403.79  4.57
639.1  449435.80  20206.05  4.50
640.4  452163.50  19959.15  4.41
641.8  454996.80  19685.52  4.33
643.2  457580.20  19398.67  4.24
644.5  460460.00  19142.67  4.16
645.9  463155.70  18872.19  4.07
647.2  466258.10  18672.76  4.00
648.6  469247.20  18505.01  3.94
650.0  472084.20  18381.60  3.89
651.3  474369.30  18305.91  3.86
652.7  477324.75  18278.20  3.83
654.0  480201.35  18247.45  3.80
655.4  482593.13  18191.11  3.77
656.8  484379.70  18086.53  3.73
658.1  486950.63  18005.19  3.70
659.5  490147.20  17948.16  3.66
660.8  493353.00  17880.10  3.62
662.2  496041.30  17770.95  3.58
663.5  498833.15  17699.71  3.55
664.9  500958.70  17618.49  3.52
666.2  503108.78  17591.99  3.50
667.6  505689.75  17613.00  3.48
668.9  508464.00  17700.48  3.48
670.3  511070.00  17807.42  3.48
671.6  513506.40  17949.33  3.50
673.0  515753.60  18124.59  3.51
674.3  518194.60  18340.37  3.54
675.7  520713.00  18595.08  3.57
677.0  523083.30  18883.02  3.61
678.4  525347.80  19215.07  3.66
679.7  527770.28  19592.40  3.71
681.1  530332.25  20016.90  3.77
682.4  532526.63  20464.30  3.84
683.8  534899.63  21006.70  3.93
685.1  537119.85  21609.88  4.02
686.4  539340.10  22343.36  4.14
687.8  541887.15  23266.41  4.29
689.1  544296.90  24441.48  4.49
690.5  546251.80  25978.53  4.76
691.8  549013.30  28127.07  5.12
693.1  551406.00  30972.00  5.62
694.5  553722.70  34610.40  6.25
695.8  556126.20  39126.07  7.04
697.1  558398.60  44539.04  7.98
698.5  560755.75  50872.57  9.07
699.8  563181.20  58069.39  10.31
701.1  565037.03  65995.79  11.68
702.5  567128.13  74593.43  13.15
703.8  569550.45  83738.56  14.70
705.1  571435.45  93163.73  16.30
706.5  573672.85  102943.51  17.94
707.8  575545.43  112834.50  19.60
709.1  577825.75  122885.14  21.27
710.5  580063.05  132987.41  22.93
711.8  581962.00  143081.07  24.59
713.1  583940.00  153183.20  26.23
714.4  586043.53  163271.27  27.86
715.8  588318.35  173356.77  29.47
717.1  590550.90  183335.72  31.04
718.4  592780.95  193185.37  32.59
719.7  595052.78  202870.02  34.09
721.0  596771.28  212222.10  35.56
722.4  598659.75  221369.52  36.98
723.7  600613.45  230294.35  38.34
725.0  602369.55  238813.57  39.65
726.3  604700.20  247248.91  40.89
727.6  606402.00  255145.50  42.08
729.0  608298.25  262735.06  43.19
730.3  610305.18  270027.61  44.24
731.6  611852.30  276733.67  45.23
732.9  613837.90  283289.41  46.15
734.2  615511.88  289353.35  47.01
735.5  617324.95  295148.55  47.81
736.8  619266.38  300696.67  48.56
738.1  621166.50  305810.76  49.23
739.5  622885.65  310614.94  49.87
740.8  624850.05  315193.89  50.44
742.1  626467.70  319355.29  50.98
743.4  628217.45  323334.39  51.47
744.7  630189.00  327143.60  51.91
746.0  631754.60  330451.19  52.31
747.3  633376.80  333566.52  52.66
748.6  634999.30  336459.69  52.99
749.9  636832.73  339299.53  53.28
751.2  638207.00  341729.60  53.55
752.5  639838.20  344149.22  53.79
753.8  641218.50  346302.06  54.01
755.1  642736.48  348433.41  54.21
756.4  643876.55  350157.49  54.38
757.7  645909.00  352238.15  54.53
759.0  649513.10  355086.27  54.67
760.3  652262.15  357351.47  54.79
761.6  655189.65  359611.78  54.89
762.9  656625.75  361019.63  54.98
764.2  657453.05  361985.42  55.06
765.5  658305.15  362971.14  55.14
766.8  658900.55  363716.08  55.20
768.1  660003.75  364696.92  55.26
769.3  661301.75  365731.13  55.30
770.6  662685.90  366825.37  55.35
771.9  663929.13  367776.16  55.39
773.2  665455.05  368840.16  55.43
774.5  666476.40  369605.70  55.46
775.8  667507.75  370441.41  55.50
777.1  668789.20  371301.18  55.52
778.4  670063.50  372234.45  55.55
779.6  671453.40  373178.40  55.58
780.9  672166.35  373765.05  55.61
782.2  673210.58  374499.42  55.63
783.5  674159.25  375190.17  55.65
784.8  674992.50  375814.25  55.68
786.0  675851.88  376451.02  55.70
787.3  676759.78  377089.17  55.72
788.6  677704.38  377767.95  55.74
789.9  678451.20  378322.36  55.76
791.2  679874.80  379243.46  55.78
792.4  681082.88  380020.85  55.80
793.7  682704.98  381049.72  55.81
795.0  683736.75  381795.59  55.84
796.2  685198.60  382692.33  55.85
797.5  686495.63  383525.58  55.87
798.8  687932.00  384464.03  55.89
800.0  689150.00  385242.67  55.90
801.3  690464.25  386098.65  55.92
802.6  691560.00  386832.00  55.94
803.8  692605.73  387594.55  55.96
805.1  693760.13  388326.40  55.97
806.4  694750.13  389010.19  55.99
807.7  695894.60  389775.54  56.01
808.9  697142.75  390583.60  56.03
810.2  698056.80  391224.68  56.04
811.4  699192.40  391961.71  56.06
812.7  700524.05  392840.71  56.08
814.0  701939.70  393717.94  56.09
815.2  703250.55  394627.68  56.11
816.5  704401.25  395386.83  56.13
817.7  705341.00  395975.00  56.14
819.0  706087.20  396506.51  56.16
820.2  706853.85  397102.94  56.18
821.5  708107.00  397886.19  56.19
822.7  709126.08  398592.81  56.21
824.0  710060.65  399262.67  56.23
825.2  710837.40  399765.08  56.24
826.5  711646.40  400276.29  56.25
827.7  712623.98  400962.45  56.27
829.0  713586.08  401606.00  56.28
830.2  714526.40  402262.00  56.30
831.5  715427.33  402870.30  56.31
832.7  716499.00  403540.80  56.32
834.0  717042.38  403976.34  56.34
835.2  718222.80  404659.59  56.34
836.4  719042.00  405160.27  56.35
837.7  719910.00  405754.50  56.36
838.9  721001.40  406553.81  56.39
840.1  721891.50  407177.76  56.40
841.4  722875.10  407873.60  56.42
842.6  723850.40  408538.85  56.44
843.8  724629.10  409099.77  56.46
845.1  725509.95  409665.74  56.47
846.3  726493.95  410307.52  56.48
847.5  727392.25  410966.40  56.50
848.8  728394.40  411633.97  56.51
850.0  729429.60  412419.07  56.54
851.2  730414.45  413053.32  56.55
852.5  731714.70  413854.55  56.56
853.7  732422.93  414296.19  56.57
854.9  733599.75  415031.50  56.57
856.1  734674.85  415755.47  56.59
857.4  735413.18  416371.86  56.62
858.6  736443.40  417032.75  56.63
859.8  737712.90  417758.13  56.63
861.0  738797.15  418461.82  56.64
862.2  739800.60  419117.16  56.65
863.5  740707.80  419734.42  56.67
864.7  741606.25  420440.00  56.69
865.9  742720.88  421102.92  56.70
867.1  743481.25  421511.67  56.69
868.3  744739.83  422271.39  56.70
869.5  746151.20  423018.95  56.69
870.8  747179.55  423750.54  56.71
872.0  748135.28  424387.82  56.73
873.2  749062.38  424969.60  56.73
874.4  750031.05  425482.03  56.73
875.6  751094.08  426237.05  56.75
876.8  752715.15  427077.42  56.74
878.0  753694.55  427725.57  56.75
879.2  754794.05  428432.98  56.76
880.4  755964.00  429076.80  56.76
881.6  756893.20  429622.52  56.76
882.8  758252.95  430430.56  56.77
884.0  759392.73  430981.59  56.75
885.2  760775.50  431814.73  56.76
886.5  762097.70  432632.29  56.77
887.7  763294.05  433284.78  56.77
888.8  764811.75  434076.79  56.76
890.0  765686.25  434630.00  56.76
891.2  766688.33  435245.07  56.77
892.4  768169.05  436089.28  56.77
893.6  770159.33  437235.25  56.77
894.8  771871.28  438165.14  56.77
896.0  773313.73  439073.20  56.78
897.2  775036.35  440136.18  56.79
898.4  777115.50  441268.52  56.78
899.6  778564.70  441965.99  56.77
900.8  779334.40  442378.65  56.76
902.0  780189.10  442746.31  56.75
903.2  780337.10  442947.37  56.76
904.3  781413.75  443605.50  56.77
905.5  782520.75  444312.00  56.78
906.7  784095.85  445059.98  56.76
907.9  785205.03  445706.95  56.76
909.1  786354.80  446346.41  56.76
910.2  786948.75  446638.50  56.76
911.4  787124.93  446683.23  56.75
912.6  787640.00  447073.00  56.76
913.8  788836.30  447679.77  56.75
915.0  789351.00  447922.40  56.75
916.2  789534.98  448069.32  56.75
917.3  790302.33  448531.01  56.75
918.5  790767.90  448777.68  56.75
919.7  791140.25  448777.00  56.73
920.8  791477.95  448911.69  56.72
922.0  791521.50  449031.40  56.73
923.2  792138.60  449314.98  56.72
924.4  792807.25  449681.60  56.72
925.5  793817.40  450007.57  56.69
926.7  794527.93  450393.81  56.69
927.9  796401.63  451188.26  56.65
929.0  799318.80  452908.08  56.66
930.2  803935.60  455303.33  56.63
931.4  809358.00  458063.93  56.60
932.5  813982.95  460495.49  56.57
933.7  816698.10  461903.72  56.56
934.9  818116.25  462574.00  56.54
936.0  817076.48  462036.12  56.55
937.2  814434.08  460264.09  56.51
938.3  810764.50  457759.47  56.46
939.5  808551.90  456426.36  56.45
940.7  808372.95  456125.41  56.43
941.8  811608.20  457660.75  56.39
943.0  813909.68  458594.60  56.34
944.2  815814.00  459403.20  56.31
945.3  815594.40  458802.80  56.25
946.5  813828.75  457620.33  56.23
947.6  814492.00  457922.10  56.22
948.8  813555.83  456722.17  56.14
949.9  814227.40  456643.23  56.08
951.1  815216.60  456209.82  55.96
952.2  814632.70  455451.25  55.91
953.4  814355.25  454928.14  55.86
954.5  812707.88  453504.80  55.80
955.7  811986.65  452718.02  55.75
956.8  812603.20  452360.79  55.67
958.0  811771.20  451399.38  55.61
959.1  811944.00  450696.96  55.51
960.3  811687.50  450413.33  55.49
961.4  812356.00  450385.28  55.44
962.6  811879.20  449918.40  55.42
963.7  812464.80  449985.57  55.39
964.9  812756.45  450069.37  55.38
966.0  813351.35  450327.78  55.37
967.2  813968.40  450474.08  55.34
968.3  815784.75  451126.22  55.30
969.5  815796.00  451256.05  55.31
970.6  815977.90  451343.87  55.31
971.8  816045.13  451322.50  55.31
972.9  817215.00  451727.73  55.28
974.0  818306.43  452130.29  55.25
975.2  817796.25  451379.25  55.19
976.3  818524.90  451984.98  55.22
977.5  817680.38  451349.33  55.20
978.6  817651.65  451469.42  55.22
979.7  818417.60  450977.71  55.10
980.9  818590.78  451492.99  55.15
982.0  818822.05  451149.15  55.10
983.2  818637.40  451446.80  55.15
984.3  816486.30  450210.69  55.14
985.4  816629.80  449970.08  55.10
986.6  818170.35  450369.00  55.05
987.7  818618.25  449666.03  54.93
988.9  818371.68  450502.14  55.05
990.0  818246.45  450800.03  55.09
993.1  836280.60  461260.13  55.16
996.9  837843.50  463035.58  55.27
1000.7  838579.50  464403.01  55.38
1004.5  838054.00  465042.02  55.49
1008.4  839304.08  466590.47  55.59
1012.2  840933.38  468238.79  55.68
1016.0  841533.75  469202.91  55.76
1019.8  841257.31  469596.25  55.82
1023.7  841278.70  470090.61  55.88
1027.5  840285.53  470140.83  55.95
1031.3  839854.37  470506.94  56.02
1035.1  839523.75  470909.93  56.09
1038.9  839350.98  471378.40  56.16
1042.7  838865.60  471682.90  56.23
1046.5  838165.13  471642.89  56.27
1050.3  836620.18  471132.40  56.31
1054.2  834691.28  470373.38  56.35
1058.0  833659.20  470060.00  56.39
1061.8  832461.00  469594.54  56.41
1065.6  830816.83  468805.44  56.43
1069.4  829337.07  468004.52  56.43
1073.2  828282.00  467322.56  56.42
1077.0  827141.33  466464.53  56.39
1080.8  826074.33  465653.22  56.37
1084.6  824649.83  464658.33  56.35
1088.4  823098.70  463680.87  56.33
1092.2  821419.20  462536.41  56.31
1096.0  820140.30  461512.87  56.27
1099.8  818726.50  460418.78  56.24
1103.6  817056.38  459161.92  56.20
1107.4  815740.70  457980.10  56.14
1111.2  814287.38  456764.55  56.09
1114.9  813030.00  455564.67  56.03
1118.7  812164.00  454405.70  55.95
1122.5  811836.78  453300.01  55.84
1126.3  809231.85  450550.80  55.68
1130.1  808570.28  448263.89  55.44
1133.9  805198.09  443782.58  55.11
1137.7  802668.60  438946.04  54.69
1141.4  799243.63  432968.62  54.17
1145.2  798509.71  428156.62  53.62
1149.0  796616.10  423031.73  53.10
1152.8  793434.05  417969.78  52.68
1156.6  790033.07  413765.61  52.37
1160.3  786829.65  410538.43  52.18
1164.1  782124.33  407171.63  52.06
1167.9  778922.54  405027.90  52.00
1171.7  776395.27  403452.23  51.96
1175.4  774311.09  402176.28  51.94
1179.2  772657.50  401079.00  51.91
1183.0  772944.63  400865.92  51.86
1186.7  772585.33  400424.89  51.83
1190.5  770543.75  399211.69  51.81
1194.3  767520.60  397519.66  51.79
1198.0  764803.33  396014.67  51.78
1201.8  762454.00  394981.48  51.80
1205.6  760706.00  394576.04  51.87
1209.3  759126.75  394540.67  51.97
1213.1  757256.54  394534.62  52.10
1216.8  754905.20  394400.06  52.24
1220.6  752564.83  394263.81  52.39
1224.3  750154.17  394034.26  52.53
1228.1  748176.94  394000.34  52.66
1231.9  746055.05  393740.39  52.78
1235.6  743818.90  393266.68  52.87
1239.4  741649.08  392798.54  52.96
1243.1  739573.20  392243.20  53.04
1246.9  737628.47  391649.85  53.10
1250.6  735643.25  390929.12  53.14
1254.3  733828.80  390220.27  53.18
1258.1  732000.00  389414.96  53.20
1261.8  729748.60  388246.60  53.20
1265.6  727312.24  386880.71  53.19
1269.3  724475.40  385211.14  53.17
1273.1  724604.32  385085.48  53.14
1276.8  725247.40  385057.05  53.09
1280.6  725444.67  384610.46  53.02
1284.3  723416.22  382801.45  52.92
1288.0  721345.19  380847.54  52.80
1291.8  719182.80  378680.40  52.65
1295.5  716838.35  376434.66  52.51
1299.2  714361.05  373900.37  52.34
1302.9  711639.04  370944.30  52.13
1306.7  708669.68  367603.25  51.87
1310.4  705818.62  363968.42  51.57
1314.1  703522.50  360342.92  51.22
1317.9  701178.51  356321.62  50.82
1321.6  698576.67  351814.93  50.36
1325.3  695787.98  346938.00  49.86
1329.0  693118.07  341885.70  49.33
1332.8  689221.25  336013.33  48.75
1336.5  685545.63  330177.41  48.16
1340.2  683553.10  325167.61  47.57
1343.9  682454.68  320659.66  46.99
1347.6  681498.43  316213.21  46.40
1351.4  680630.00  311935.28  45.83
1355.1  681021.64  308247.21  45.26
1358.8  679527.80  303488.44  44.66
1362.5  679050.87  298816.39  44.01
1366.2  676613.46  292482.95  43.23
1369.9  672734.00  284554.67  42.30
1373.6  668865.82  275182.58  41.14
1377.3  666216.03  264406.31  39.69
1381.0  663493.42  251220.32  37.86
1384.8  659710.90  235233.56  35.66
1388.4  655472.80  217731.59  33.22
1392.2  651346.50  199455.43  30.62
1395.9  649382.15  181956.14  28.02
1399.6  645486.51  165186.14  25.59
1403.3  643299.60  150800.53  23.44
1407.0  641185.88  138806.25  21.65
1410.7  639957.01  129418.73  20.22
1414.3  638093.00  122161.44  19.14
1418.1  636125.00  116836.80  18.37
1421.7  634416.07  113042.33  17.82
1425.4  633190.33  110503.66  17.45
1429.1  629895.00  108535.00  17.23
1432.8  628648.95  107638.33  17.12
1436.5  625358.50  106917.42  17.10
1440.2  621761.17  106577.48  17.14
1443.9  619473.92  106690.26  17.22
1447.6  615848.00  106769.06  17.34
1451.2  612933.70  107070.95  17.47
1454.9  611192.75  107753.44  17.63
1458.6  607494.93  108355.20  17.84
1462.3  606605.27  109835.02  18.11
1466.0  606581.13  111974.25  18.46
1469.7  604865.80  114299.94  18.90
1473.3  602745.73  116943.04  19.40
1477.0  598679.53  119512.30  19.96
1480.7  595573.33  122431.36  20.56
1484.4  591949.37  125336.83  21.17
1488.0  588896.40  128476.82  21.82
1491.7  585432.40  131494.72  22.46
1495.4  581940.58  134560.81  23.12
1499.0  578879.93  137661.55  23.78
1502.7  576095.53  140786.54  24.44
1506.4  573371.43  143854.37  25.09
1510.0  570691.88  146850.05  25.73
1513.7  567999.17  149743.46  26.36
1517.4  565495.00  152599.48  26.99
1521.0  563067.45  155381.68  27.60
1524.7  560582.64  157993.56  28.18
1528.3  558163.50  160511.69  28.76
1532.0  555613.55  162873.41  29.31
1535.7  552908.25  165036.25  29.85
1539.3  550408.70  167132.36  30.37
1543.0  548773.46  169368.95  30.86
1546.6  547388.58  171619.29  31.35
1550.3  545845.23  173682.96  31.82
1553.9  543501.60  175356.09  32.26
1557.6  541311.43  176965.79  32.69
1561.2  538823.68  178341.15  33.10
1564.9  536129.00  179569.99  33.49
1568.5  533485.33  180667.26  33.87
1572.2  531174.70  181779.48  34.22
1575.8  529360.15  183015.52  34.57
1579.5  527519.75  184144.92  34.91
1583.1  525273.23  185098.72  35.24
1586.8  523140.98  185963.46  35.55
1590.4  521097.42  186785.93  35.84
1594.0  518822.55  187433.10  36.13
1597.7  516558.32  188061.08  36.41
1601.3  513979.43  188558.10  36.69
1604.9  511164.13  188898.52  36.95
1608.6  508326.75  189122.20  37.20
1612.2  505742.21  189339.62  37.44
1615.8  503565.00  189610.27  37.65
1619.5  501378.33  189809.75  37.86
1623.1  498672.08  189728.18  38.05
1626.7  495848.18  189540.61  38.23
1630.3  493334.40  189366.40  38.38
1634.0  490928.32  189201.81  38.54
1637.6  488695.00  189032.78  38.68
1641.2  486533.60  188722.00  38.79
1644.8  483988.01  188227.56  38.89
1648.5  481381.48  187581.64  38.97
1652.1  479201.75  186998.53  39.02
1655.7  477345.66  186406.98  39.05
1659.3  475453.13  185721.55  39.06
1662.9  472227.95  184381.80  39.05
1666.6  468685.25  182798.86  39.00
1670.2  465370.95  181197.75  38.94
1673.8  462105.21  179498.21  38.84
1677.4  459631.58  177945.95  38.71
1681.0  458011.68  176517.92  38.54
1684.6  457130.21  175192.01  38.32
1688.2  455655.20  173401.51  38.06
1691.8  453991.23  171486.78  37.77
1695.4  453177.10  169866.26  37.48
1699.0  452334.30  168256.08  37.20
1702.6  451768.53  166659.61  36.89
1706.2  450278.80  164558.43  36.55
1709.8  448166.22  162282.63  36.21
1713.4  446594.20  160434.45  35.92
1717.0  444935.85  158861.80  35.70
1720.6  443313.33  157469.65  35.52
1724.2  441906.10  156266.90  35.36
1727.8  440560.12  155175.15  35.22
1731.4  439820.60  154341.84  35.09
1735.0  439741.47  153728.62  34.96
1738.6  439128.00  152760.33  34.79
1742.2  438131.13  151389.01  34.55
1745.8  436381.87  149568.00  34.27
1749.4  433994.73  147409.30  33.97
1753.0  430260.00  144802.58  33.65
1756.6  426448.75  142279.28  33.36
1760.1  423190.00  140053.33  33.09
1763.7  419407.36  137753.14  32.84
1767.3  416372.84  135772.51  32.61
1770.9  413803.54  133984.74  32.38
1774.5  410809.61  132163.12  32.17
1778.0  408621.43  130766.31  32.00
1781.6  406435.43  129566.15  31.88
1785.2  403856.97  128450.98  31.81
1788.8  401100.00  127448.29  31.77
1792.3  398875.40  126680.77  31.76
1795.9  398394.88  126513.63  31.76
1799.5  398607.83  126563.30  31.75
1803.1  398896.67  126729.36  31.77
1806.6  399236.88  126997.79  31.81
1810.2  400333.50  127497.07  31.85
1813.8  400100.33  127445.90  31.85
1817.3  399926.18  127328.79  31.84
1820.9  399437.50  126981.25  31.79
1824.5  398620.19  126438.78  31.72
1828.0  399266.30  126237.11  31.62
1831.6  400019.26  125900.13  31.47
1835.2  399406.39  124916.60  31.28
1838.7  399705.25  123937.59  31.01
1842.3  398072.50  122046.95  30.66
1845.8  396807.49  119807.34  30.19
1849.4  396323.90  117345.77  29.61
1852.9  394795.83  113917.36  28.85
1856.5  393361.58  109776.45  27.91
1860.0  393194.67  105124.96  26.74
1863.6  392551.40  99497.10  25.35
1867.1  392162.06  93007.32  23.72
1870.7  392553.34  85522.12  21.79
1874.2  391595.38  76726.33  19.59
1877.8  388634.36  67400.77  17.34
1881.3  385912.68  58191.14  15.08
1884.9  383852.58  49809.25  12.98
1888.4  382015.14  42266.14  11.06
1891.9  380716.78  36095.49  9.48
1895.5  379517.72  31369.44  8.27
1899.0  379004.33  28058.79  7.40
1901.3  386401.87  19583.56  5.07
1904.1  386465.33  17815.78  4.61
1906.8  385128.20  16465.07  4.28
1909.6  382144.00  15448.78  4.04
1912.4  378978.97  14670.48  3.87
1915.1  375631.50  14129.90  3.76
1917.9  372427.65  13707.32  3.68
1920.6  370045.87  13410.39  3.62
1923.3  368218.87  13221.82  3.59
1926.1  365741.70  13109.15  3.58
1928.8  362876.80  13035.53  3.59
1931.6  362428.67  13084.15  3.61
1934.3  359359.53  13107.28  3.65
1937.0  356194.20  13150.60  3.69
1939.8  353554.17  13261.61  3.75
1942.5  349643.22  13374.88  3.83
1945.2  346486.92  13534.83  3.91
1947.9  343994.30  13763.17  4.00
1950.7  340082.90  13947.16  4.10
1953.4  336757.47  14189.47  4.21
1956.1  334183.63  14503.86  4.34
1958.8  332038.00  14856.53  4.47
1961.5  329195.65  15215.43  4.62
1964.2  325897.13  15561.18  4.77
1966.9  322973.07  15940.44  4.94
1969.6  320307.77  16354.00  5.11
1972.3  317839.52  16820.64  5.29
1975.0  315414.67  17304.89  5.49
1977.7  313270.25  17805.93  5.68
1980.4  311121.07  18329.42  5.89
1983.1  308808.97  18873.59  6.11
1985.8  306754.80  19427.60  6.33
1988.4  304781.95  19990.48  6.56
1991.1  302997.80  20577.43  6.79
1993.8  301515.90  21220.27  7.04
1996.5  300013.70  21836.03  7.28
1999.1  298655.00  22470.23  7.52
2001.8  297453.98  23114.70  7.77
2004.5  296238.70  23776.53  8.03
2007.1  294740.47  24416.73  8.28
2009.8  292795.42  24990.00  8.53
2012.4  291481.67  25628.64  8.79
2015.1  290316.80  26270.46  9.05
2017.8  289142.73  26887.79  9.30
2020.4  288017.80  27484.80  9.54
2023.1  287561.60  28148.87  9.79
2025.7  287252.02  28787.74  10.02
2028.3  286468.58  29365.01  10.25
2031.0  285885.03  29970.15  10.48
2033.6  285582.25  30564.75  10.70
2036.2  285167.87  31136.16  10.92
2038.9  284211.20  31595.20  11.12
2041.5  283270.83  32076.39  11.32
2044.1  282500.00  32548.61  11.52
2046.8  281378.88  32952.78  11.71
2049.4  280531.47  33358.84  11.89
2052.0  280337.33  33846.12  12.07
2054.6  279954.93  34296.53  12.25
2057.2  278891.45  34697.42  12.44
2059.8  277410.00  35056.00  12.64
2062.4  276053.92  35413.08  12.83
2065.0  274702.50  35785.00  13.03
2067.6  272865.43  36079.18  13.22
2070.2  271435.17  36408.70  13.41
2072.8  270520.25  36811.50  13.61
2075.4  269494.00  37189.83  13.80
2078.0  268824.48  37609.70  13.99
2080.6  267553.40  37932.96  14.18
2083.2  266245.17  38249.20  14.37
2085.8  264974.85  38565.22  14.55
2088.4  263923.43  38909.31  14.74
2090.9  262257.00  39144.33  14.93
2093.5  260373.80  39333.20  15.11
2096.1  258622.65  39532.35  15.29
2098.7  257155.50  39787.13  15.47
2101.2  255259.20  39953.80  15.65
2103.8  253787.50  40184.81  15.83
2106.4  252356.07  40401.83  16.01
2108.9  251312.03  40689.44  16.19
2111.5  250388.25  40993.94  16.37
2114.0  249795.00  41311.11  16.54
2116.6  247680.03  41391.78  16.71
2119.1  246555.40  41613.37  16.88
2121.7  246006.40  41913.16  17.04
2124.2  245865.17  42276.61  17.20
2126.8  244720.55  42451.30  17.35
2129.3  243641.28  42611.03  17.49
2131.9  243820.80  42968.18  17.62
2134.4  242999.75  43125.68  17.75
2136.9  242706.23  43371.11  17.87
2139.4  241674.08  43443.50  17.98
2142.0  241268.65  43625.16  18.08
2144.5  240760.92  43766.50  18.18
2147.0  240329.92  43892.25  18.26
2149.5  239937.90  44023.14  18.35
2152.1  240254.30  44279.73  18.43
2154.6  240305.60  44443.47  18.49
2157.1  240209.33  44568.02  18.55
2159.6  239134.47  44513.50  18.61
2162.1  238926.27  44601.44  18.67
2164.6  238270.87  44611.12  18.72
2167.1  237325.93  44564.59  18.78
2169.6  237475.98  44719.76  18.83
2172.1  236657.80  44677.07  18.88
2174.6  236295.73  44750.07  18.94
2177.1  235221.92  44666.56  18.99
2179.5  234724.07  44702.42  19.04
2182.0  234400.00  44788.31  19.11
2184.5  233470.50  44746.47  19.17
2187.0  232658.07  44769.88  19.24
2189.5  231670.45  44711.84  19.30
2191.9  230470.53  44607.20  19.35
2194.4  228866.00  44406.33  19.40
2196.9  227770.03  44307.02  19.45
2199.3  226339.90  44118.33  19.49
2201.8  225174.25  43976.84  19.53
2204.3  224496.80  43903.47  19.56
2206.7  223290.90  43721.85  19.58
2209.2  222117.30  43550.85  19.61
2211.6  220184.53  43215.11  19.63
2214.1  219530.85  43085.08  19.63
2216.5  219172.62  43022.87  19.63
2219.0  217853.90  42746.37  19.62
2221.4  217860.90  42718.35  19.61
2223.9  216733.40  42431.42  19.58
2226.3  215496.80  42063.45  19.52
2228.7  214557.20  41741.84  19.45
2231.1  213914.77  41406.06  19.36
2233.6  212894.40  40990.40  19.25
2236.0  211908.97  40561.91  19.14
2238.4  211063.87  40106.50  19.00
2240.9  210295.00  39629.53  18.84
2243.3  209395.52  39108.78  18.68
2245.7  208631.67  38585.35  18.49
2248.1  207667.20  37966.93  18.28
2250.5  206882.13  37397.07  18.08
2252.9  206226.20  36813.45  17.85
2255.3  205484.33  36200.38  17.62
2257.7  204606.97  35574.00  17.39
2260.1  203713.20  34922.53  17.14
2262.5  202662.40  34278.80  16.91
2264.9  201762.93  33646.11  16.68
2267.3  200829.20  33042.53  16.45
2269.7  199899.57  32496.75  16.26
2272.1  199123.00  31995.39  16.07
2274.5  198371.73  31474.29  15.87
2276.8  197711.47  31033.51  15.70
2279.2  196896.00  30589.20  15.54
2281.6  196284.25  30156.80  15.36
2284.0  195930.90  29759.40  15.19
2286.3  195434.73  29324.69  15.00
2288.7  194893.78  28915.63  14.84
2291.1  194407.00  28487.00  14.65
2293.4  193655.60  28049.57  14.48
2295.8  192933.22  27616.48  14.31
2298.2  192150.70  27147.53  14.13
2300.5  191058.75  26638.15  13.94
2302.9  189647.05  26123.40  13.77
2305.2  188268.25  25677.25  13.64
2307.6  186814.13  25270.31  13.53
2309.9  185792.72  24940.98  13.42
2312.2  184797.50  24650.39  13.34
2314.6  183777.93  24382.89  13.27
2316.9  182796.70  24121.05  13.20
2319.2  182099.68  23857.72  13.10
2321.6  181479.33  23568.03  12.99
2323.9  180660.60  23268.67  12.88
2326.2  179849.17  22971.39  12.77
2328.6  179168.05  22690.78  12.66
2330.9  178872.00  22444.67  12.55
2333.2  178371.75  22216.83  12.46
2335.5  177819.42  21931.65  12.33
2337.8  177389.00  21659.00  12.21
2340.1  176834.87  21387.54  12.09
2342.4  176381.55  21128.85  11.98
2344.8  175601.55  20826.79  11.86
2347.1  174862.40  20552.30  11.75
2349.4  174252.53  20262.80  11.63
2351.6  173470.00  19988.00  11.52
2353.9  172473.00  19711.20  11.43
2356.2  171747.13  19448.67  11.32
2358.5  170921.78  19209.55  11.24
2360.8  170247.92  18973.61  11.14
2363.1  169805.50  18747.53  11.04
2365.4  169371.00  18522.00  10.94
2367.7  168811.20  18276.91  10.83
2369.9  168089.72  18033.89  10.73
2372.2  166961.00  17744.85  10.63
2374.5  165792.50  17467.50  10.54
2376.7  164771.30  17168.17  10.42
2379.0  163545.80  16844.12  10.30
2381.3  162165.48  16489.67  10.17
2383.5  161196.00  16226.00  10.07
2385.8  160622.00  15975.36  9.95
2388.0  159736.03  15696.87  9.83
2390.3  159010.37  15419.74  9.70
2392.5  158531.42  15216.64  9.60
2394.8  157691.17  14909.45  9.45
2397.0  157155.33  14648.58  9.32
2399.3  156624.08  14371.42  9.18
2401.5  155886.60  14116.23  9.06
2403.8  155153.37  13875.91  8.94
2406.0  154734.80  13642.08  8.82
2408.2  153835.50  13411.30  8.72
2410.4  153014.62  13161.43  8.60
2412.7  152540.00  12887.00  8.45
2414.9  151969.80  12641.96  8.32
2417.1  152035.47  12471.38  8.20
2419.3  151598.07  12275.89  8.10
2421.6  150681.53  12045.60  7.99
2423.8  150104.43  11799.42  7.86
2426.0  149703.90  11569.67  7.73
2428.2  149341.50  11338.25  7.59
2430.4  149371.18  11173.82  7.48
2432.6  149151.00  11061.53  7.42
2434.8  148642.05  10842.88  7.29
2437.0  148167.50  10590.67  7.15
2439.2  147728.53  10348.43  7.01
2441.4  146826.40  10152.67  6.91
2443.6  146712.67  9930.33  6.77
2445.7  146824.67  9809.97  6.68
2447.9  146727.75  9606.78  6.55
2450.1  145950.67  9432.64  6.46
2452.3  145062.87  9262.67  6.39
2454.5  144647.07  9061.73  6.26
2456.6  143969.67  8888.72  6.17
2458.8  142751.93  8645.31  6.06
2461.0  142396.80  8452.46  5.94
2463.1  142014.50  8332.67  5.87
2465.3  141336.67  8211.34  5.81
2467.5  140850.67  8054.22  5.72
2469.6  140543.67  7891.22  5.61
2471.8  140205.47  7780.75  5.55
2473.9  139449.92  7691.67  5.52
2476.1  138691.67  7583.89  5.47
2478.2  138028.40  7405.64  5.37
2480.4  137204.85  7289.92  5.31
2482.5  136189.02  7129.46  5.23
2484.6  135218.00  6997.33  5.17
2486.8  134514.00  6891.77  5.12
2488.9  133878.00  6820.20  5.09
2491.1  132632.97  6627.40  5.00
2493.2  131458.93  6509.85  4.95
2495.3  129964.55  6453.37  4.97
2497.4  128649.50  6301.20  4.90
2499.5  127632.00  6204.33  4.86
2501.7  127695.50  6184.17  4.84
2503.8  128019.27  6144.68  4.80
2505.9  128722.50  6102.40  4.74
2508.0  129417.92  6101.83  4.71
2510.1  130419.00  6099.70  4.68
2512.2  131142.83  6096.44  4.65
2514.3  132127.45  6137.95  4.65
2516.4  133596.12  6308.39  4.72
