/*** Spectra Vista SIG Data ***/
name= 22_20220824_BENI_47_avg.sig
comm= Averaged Ref/Tar of files: HR.082422.0062_moc.sig,HR.082422.0063_moc.sig,HR.082422.0064_moc.sig
data=
337.3  3523.38  370.53  10.52
338.8  3703.70  352.73  9.52
340.3  3841.70  331.07  8.62
341.8  4023.80  341.41  8.48
343.2  4173.60  319.68  7.66
344.7  4350.30  301.39  6.93
346.2  4534.35  305.01  6.73
347.7  4758.33  293.63  6.17
349.2  4951.80  287.28  5.80
350.6  5178.23  284.01  5.48
352.1  5465.93  285.80  5.23
353.6  5794.90  282.23  4.87
355.1  6061.50  287.36  4.74
356.6  6391.13  297.16  4.65
358.0  6635.20  293.48  4.42
359.5  6921.60  288.40  4.17
361.0  7241.85  291.27  4.02
362.5  7640.78  296.65  3.88
364.0  8000.33  302.04  3.78
365.4  8373.80  307.23  3.67
366.9  8757.13  316.77  3.62
368.4  9109.85  316.39  3.47
369.9  9485.78  327.90  3.46
371.3  9905.70  345.32  3.49
372.8  10301.40  357.54  3.47
374.3  10750.00  361.92  3.37
375.8  11184.25  362.93  3.24
377.2  11620.80  369.43  3.18
378.7  12024.30  365.84  3.04
380.2  12481.60  373.01  2.99
381.7  12972.00  371.14  2.86
383.1  13475.00  395.27  2.93
384.6  14000.03  406.42  2.90
386.1  14485.40  417.99  2.89
387.6  14957.25  424.01  2.83
389.0  15463.60  432.37  2.80
390.5  15956.55  435.42  2.73
392.0  16531.25  444.36  2.69
393.4  17131.30  458.94  2.68
394.9  17669.70  476.76  2.70
396.4  18241.88  483.00  2.65
397.9  18783.13  498.83  2.66
399.3  19373.63  506.50  2.61
400.8  19940.00  521.76  2.62
402.2  20622.00  530.28  2.57
403.7  21210.08  552.12  2.60
405.2  21828.35  571.36  2.62
406.6  22411.20  587.73  2.62
408.1  23006.80  602.67  2.62
409.6  23640.15  623.38  2.64
411.0  24317.65  634.81  2.61
412.5  24990.00  655.29  2.62
414.0  25672.50  673.73  2.62
415.4  26374.13  699.60  2.65
416.9  27062.10  722.17  2.67
418.4  27788.40  742.02  2.67
419.8  28519.40  769.25  2.70
421.3  29250.83  789.05  2.70
422.7  30067.20  821.28  2.73
424.2  30864.38  846.00  2.74
425.7  31638.30  869.33  2.75
427.1  32409.60  896.75  2.77
428.6  33216.50  925.87  2.79
430.0  33976.83  952.99  2.80
431.5  34894.65  983.06  2.82
432.9  35789.95  1015.73  2.84
434.4  36700.65  1046.68  2.85
435.9  37548.00  1075.20  2.86
437.3  38403.75  1103.67  2.87
438.8  39258.90  1133.06  2.89
440.2  40142.03  1160.65  2.89
441.7  41138.00  1198.85  2.91
443.1  42068.75  1231.37  2.93
444.6  43072.80  1269.83  2.95
446.0  44024.18  1307.88  2.97
447.5  45017.78  1345.92  2.99
448.9  45975.60  1381.16  3.00
450.4  47021.45  1415.87  3.01
451.8  47892.00  1450.80  3.03
453.3  48835.13  1490.55  3.05
454.7  49880.55  1530.06  3.07
456.2  50784.00  1565.84  3.08
457.6  51785.78  1601.85  3.09
459.1  52793.65  1636.31  3.10
460.5  53767.50  1672.77  3.11
462.0  54843.88  1709.56  3.12
463.4  55909.70  1748.12  3.13
464.8  56929.13  1783.40  3.13
466.3  57951.30  1823.25  3.15
467.7  58974.25  1859.78  3.15
469.2  60072.10  1897.31  3.16
470.6  61061.30  1931.41  3.16
472.0  62112.98  1970.50  3.17
473.5  63152.88  2009.52  3.18
474.9  64210.50  2048.20  3.19
476.4  65390.40  2090.88  3.20
477.8  66526.00  2134.40  3.21
479.2  67570.00  2176.93  3.22
480.7  68698.35  2227.22  3.24
482.1  69865.75  2273.47  3.25
483.6  71094.00  2325.49  3.27
485.0  72230.25  2373.90  3.29
486.4  73477.50  2425.00  3.30
487.9  74602.13  2480.40  3.32
489.3  75833.75  2534.66  3.34
490.7  76938.13  2595.53  3.37
492.2  78204.00  2667.56  3.41
493.6  79344.40  2736.62  3.45
495.0  80496.00  2815.80  3.50
496.5  81725.08  2897.82  3.55
497.9  82869.73  2983.92  3.60
499.3  84087.75  3081.75  3.66
500.7  85380.20  3201.51  3.75
502.2  86578.00  3321.01  3.84
503.6  87848.20  3461.17  3.94
505.0  88969.45  3619.53  4.07
506.5  90304.80  3806.04  4.21
507.9  91574.03  4016.59  4.39
509.3  92988.40  4260.43  4.58
510.7  94287.38  4525.95  4.80
512.2  95723.18  4838.51  5.05
513.6  97235.60  5188.96  5.34
515.0  98693.05  5578.10  5.65
516.4  100103.85  6002.64  6.00
517.8  101770.63  6484.32  6.37
519.3  103127.53  6981.20  6.77
520.7  104714.65  7525.18  7.19
522.1  106056.28  8066.37  7.61
523.5  107433.10  8623.56  8.03
524.9  108851.85  9179.10  8.43
526.3  110236.70  9713.99  8.81
527.8  111775.95  10250.46  9.17
529.2  113135.70  10757.80  9.51
530.6  114805.25  11272.93  9.82
532.0  116606.00  11756.27  10.08
533.4  117898.88  12157.77  10.31
534.8  118813.40  12479.11  10.50
536.3  120602.10  12863.88  10.67
537.7  122724.00  13258.56  10.80
539.1  124236.00  13569.00  10.92
540.5  125476.65  13836.61  11.03
541.9  127264.20  14166.11  11.13
543.3  128575.10  14437.88  11.23
544.7  129914.40  14712.08  11.32
546.1  131737.10  15040.85  11.42
547.5  133044.80  15293.23  11.49
549.0  134948.00  15600.93  11.56
550.4  136478.13  15844.00  11.61
551.8  138024.85  16055.54  11.63
553.2  139610.80  16236.25  11.63
554.6  141003.20  16351.57  11.60
556.0  142602.30  16441.32  11.53
557.4  144250.58  16495.22  11.44
558.8  145935.00  16508.94  11.31
560.2  147418.38  16454.75  11.16
561.6  149150.48  16383.93  10.98
563.0  150787.63  16259.99  10.78
564.4  152426.40  16100.71  10.56
565.8  153988.13  15902.08  10.33
567.2  155789.00  15687.83  10.07
568.6  157350.38  15423.65  9.80
570.0  158841.18  15127.94  9.52
571.4  160644.90  14851.20  9.24
572.8  162447.25  14584.13  8.98
574.2  164124.80  14327.04  8.73
575.6  165712.50  14079.00  8.50
577.0  167296.50  13862.84  8.29
578.4  169089.38  13686.40  8.09
579.8  170633.25  13516.02  7.92
581.2  172421.20  13389.96  7.77
582.5  173873.70  13260.00  7.63
583.9  175454.20  13156.21  7.50
585.3  177312.83  13092.06  7.38
586.7  178835.80  13025.48  7.28
588.1  180371.50  12973.75  7.19
589.5  182059.50  12950.70  7.11
590.9  183743.20  12948.91  7.05
592.3  185614.50  12973.35  6.99
593.7  187108.35  12987.65  6.94
595.0  188784.00  13028.49  6.90
596.4  190274.35  13044.97  6.86
597.8  191797.18  13066.28  6.81
599.2  193406.40  13078.56  6.76
600.6  195197.93  13090.48  6.71
602.0  196542.00  13049.10  6.64
603.3  198372.00  13018.84  6.56
604.7  200078.93  12956.61  6.48
606.1  201631.80  12857.92  6.38
607.5  203305.00  12751.59  6.27
608.9  205059.75  12631.89  6.16
610.2  206501.40  12489.12  6.05
611.6  208113.60  12359.61  5.94
613.0  209712.85  12230.48  5.83
614.4  211135.05  12099.78  5.73
615.8  212632.88  11982.75  5.64
617.1  214223.10  11893.28  5.55
618.5  215902.40  11824.21  5.48
619.9  217457.25  11770.85  5.41
621.3  219145.28  11750.46  5.36
622.6  220804.75  11746.57  5.32
624.0  222325.50  11758.48  5.29
625.4  223886.03  11787.60  5.27
626.8  225545.78  11837.58  5.25
628.1  226939.08  11887.52  5.24
629.5  228871.25  11972.91  5.23
630.9  230555.60  12046.69  5.23
632.2  231997.33  12099.78  5.22
633.6  233704.88  12140.48  5.19
635.0  235313.20  12154.67  5.17
636.3  236923.50  12123.84  5.12
637.7  238385.00  12046.67  5.05
639.1  240100.00  11956.00  4.98
640.4  241634.93  11828.11  4.90
641.8  242901.28  11667.06  4.80
643.2  244563.20  11509.56  4.71
644.5  245973.50  11344.20  4.61
645.9  247783.50  11202.84  4.52
647.2  250035.10  11104.19  4.44
648.6  252072.00  11024.10  4.37
650.0  253605.60  10941.12  4.31
651.3  253882.48  10831.22  4.27
652.7  254633.35  10738.23  4.22
654.0  256846.40  10708.04  4.17
655.4  258450.70  10655.66  4.12
656.8  258689.20  10538.85  4.07
658.1  259801.50  10451.08  4.02
659.5  262321.50  10417.61  3.97
660.8  264442.50  10377.00  3.92
662.2  265350.40  10283.09  3.88
663.5  267018.25  10248.07  3.84
664.9  268515.00  10236.72  3.81
666.2  269286.00  10200.16  3.79
667.6  271025.50  10233.78  3.78
668.9  272327.25  10283.41  3.78
670.3  273176.38  10334.27  3.78
671.6  275058.00  10443.00  3.80
673.0  276319.13  10555.10  3.82
674.3  277642.30  10672.83  3.84
675.7  279028.00  10825.58  3.88
677.0  280246.10  10977.26  3.92
678.4  281721.78  11168.14  3.96
679.7  282889.10  11376.65  4.02
681.1  284281.85  11617.34  4.09
682.4  285532.00  11880.96  4.16
683.8  286946.40  12199.20  4.25
685.1  288023.25  12564.05  4.36
686.4  289354.80  13029.92  4.50
687.8  290696.25  13619.97  4.69
689.1  291875.50  14370.53  4.92
690.5  293343.75  15385.74  5.24
691.8  294175.28  16697.43  5.68
693.1  295559.85  18437.10  6.24
694.5  296819.25  20620.60  6.95
695.8  298116.00  23277.80  7.81
697.1  299390.00  26441.57  8.83
698.5  300525.30  30121.39  10.02
699.8  301736.23  34302.74  11.37
701.1  302938.00  38952.63  12.86
702.5  303793.60  43933.41  14.46
703.8  304830.00  49236.00  16.15
705.1  306123.68  54794.74  17.90
706.5  307275.88  60499.02  19.69
707.8  308340.60  66290.10  21.50
709.1  309312.88  72068.08  23.30
710.5  310563.08  77908.30  25.09
711.8  311508.70  83630.95  26.85
713.1  312646.00  89315.96  28.57
714.4  313649.50  94864.20  30.25
715.8  314563.80  100266.75  31.87
717.1  316006.65  105685.70  33.44
718.4  317027.20  110811.31  34.95
719.7  318268.48  115824.16  36.39
721.0  318870.00  120438.00  37.77
722.4  319736.45  124939.03  39.08
723.7  320814.60  129307.34  40.31
725.0  321945.08  133510.89  41.47
726.3  323019.40  137439.98  42.55
727.6  323658.50  140985.46  43.56
729.0  324663.85  144485.58  44.50
730.3  325527.45  147716.12  45.38
731.6  326530.75  150811.45  46.19
732.9  327432.70  153673.96  46.93
734.2  328372.00  156366.28  47.62
735.5  329514.68  158991.36  48.25
736.8  330378.00  161330.64  48.83
738.1  331325.70  163552.48  49.36
739.5  332382.08  165685.78  49.85
740.8  333202.65  167562.38  50.29
742.1  334041.33  169355.29  50.70
743.4  334875.00  171046.67  51.08
744.7  335985.55  172770.99  51.42
746.0  336952.20  174313.36  51.73
747.3  337593.65  175574.56  52.01
748.6  338432.25  176854.43  52.26
749.9  339326.00  178061.87  52.48
751.2  340133.05  179179.80  52.68
752.5  341152.90  180330.40  52.86
753.8  341869.33  181262.97  53.02
755.1  342706.00  182180.27  53.16
756.4  343415.48  182974.83  53.28
757.7  344528.98  183943.48  53.39
759.0  346510.93  185326.83  53.48
760.3  347846.40  186327.68  53.57
761.6  349603.80  187522.91  53.64
762.9  350264.50  188095.30  53.70
764.2  350695.30  188540.31  53.76
765.5  351108.80  188926.37  53.81
766.8  351668.80  189384.53  53.85
768.1  352336.60  189874.69  53.89
769.3  353062.85  190375.78  53.92
770.6  353847.00  190898.50  53.95
771.9  354723.25  191454.76  53.97
773.2  355227.20  191806.03  54.00
774.5  355955.60  192279.71  54.02
775.8  356816.80  192798.78  54.03
777.1  357495.60  193252.84  54.06
778.4  357955.13  193561.57  54.07
779.6  358869.93  194116.14  54.09
780.9  359520.00  194492.00  54.10
782.2  360065.75  194858.40  54.12
783.5  360540.50  195151.20  54.13
784.8  361207.35  195549.69  54.14
786.0  361713.80  195875.35  54.15
787.3  362245.78  196206.76  54.16
788.6  362836.83  196542.71  54.17
789.9  363441.40  196905.15  54.18
791.2  364221.08  197369.75  54.19
792.4  365066.23  197850.00  54.20
793.7  365730.00  198217.87  54.20
795.0  366460.05  198656.48  54.21
796.2  367268.48  199116.49  54.22
797.5  368154.45  199617.82  54.22
798.8  369017.10  200092.09  54.22
800.0  369807.05  200569.61  54.24
801.3  370458.20  200937.41  54.24
802.6  371224.35  201355.53  54.24
803.8  371973.05  201795.81  54.25
805.1  372638.00  202166.65  54.25
806.4  373227.60  202498.96  54.26
807.7  373900.05  202881.24  54.26
808.9  374621.10  203282.65  54.26
810.2  375250.40  203656.13  54.27
811.4  375937.50  204012.76  54.27
812.7  376675.00  204435.83  54.27
814.0  377674.70  204981.87  54.27
815.2  378380.25  205415.57  54.29
816.5  378953.10  205704.51  54.28
817.7  379479.60  206051.37  54.30
819.0  380144.05  206399.09  54.29
820.2  380380.00  206530.13  54.30
821.5  381266.35  206997.40  54.29
822.7  381713.53  207244.80  54.29
824.0  382071.60  207486.36  54.31
825.2  382706.78  207823.86  54.30
826.5  383116.60  208035.21  54.30
827.7  383719.75  208390.08  54.31
829.0  384294.08  208640.45  54.29
830.2  384671.55  208857.02  54.29
831.5  385202.15  209152.25  54.30
832.7  385655.03  209356.07  54.29
834.0  386023.68  209569.01  54.29
835.2  386426.43  209812.86  54.30
836.4  386787.50  210014.05  54.30
837.7  387259.00  210274.32  54.30
838.9  387838.15  210577.43  54.30
840.1  388253.25  210825.81  54.30
841.4  388740.80  211121.76  54.31
842.6  389167.40  211339.92  54.31
843.8  389514.20  211577.25  54.32
845.1  390107.55  211895.33  54.32
846.3  390529.80  212153.00  54.32
847.5  390978.00  212419.20  54.33
848.8  391503.00  212649.68  54.32
850.0  391875.75  212859.64  54.32
851.2  392501.70  213200.46  54.32
852.5  392937.30  213433.13  54.32
853.7  393457.50  213741.60  54.32
854.9  394022.10  214049.43  54.32
856.1  394536.35  214311.41  54.32
857.4  394741.50  214435.52  54.32
858.6  395218.05  214682.28  54.32
859.8  395715.00  214933.00  54.32
861.0  396279.00  215223.84  54.31
862.2  396811.73  215489.92  54.31
863.5  397192.25  215714.42  54.31
864.7  397775.40  216018.88  54.31
865.9  398268.40  216255.97  54.30
867.1  398630.40  216438.91  54.30
868.3  399175.05  216705.72  54.29
869.5  399734.60  216994.46  54.28
870.8  400401.00  217331.40  54.28
872.0  401007.45  217623.48  54.27
873.2  401534.70  217892.62  54.26
874.4  401982.75  218128.95  54.26
875.6  402464.88  218349.49  54.25
876.8  403008.05  218658.28  54.26
878.0  403595.95  218919.98  54.24
879.2  404158.50  219220.86  54.24
880.4  404828.63  219532.35  54.23
881.6  405452.55  219838.62  54.22
882.8  405915.20  220083.31  54.22
884.0  406642.78  220443.04  54.21
885.2  407278.80  220758.44  54.20
886.5  407999.20  221153.57  54.20
887.7  408533.45  221425.49  54.20
888.8  409459.65  221822.59  54.17
890.0  410108.20  222163.51  54.17
891.2  410780.80  222518.76  54.17
892.4  411648.30  222877.97  54.14
893.6  412185.30  223236.53  54.16
894.8  413287.00  223769.30  54.14
896.0  414368.75  224278.53  54.13
897.2  415291.50  224753.10  54.12
898.4  416258.70  225210.04  54.10
899.6  416954.25  225588.80  54.10
900.8  417483.00  225834.41  54.09
902.0  417853.65  226006.74  54.09
903.2  418363.88  226209.51  54.07
904.3  418820.40  226424.32  54.06
905.5  419603.35  226813.83  54.05
906.7  420290.50  227181.60  54.05
907.9  420988.40  227521.05  54.04
909.1  421557.75  227757.96  54.03
910.2  421948.28  227912.86  54.01
911.4  422375.85  228065.37  54.00
912.6  422750.90  228189.87  53.98
913.8  423154.65  228377.00  53.97
915.0  423705.45  228658.50  53.97
916.2  424105.50  228792.20  53.95
917.3  424224.45  228856.80  53.95
918.5  424646.40  229028.04  53.93
919.7  425169.60  229230.26  53.92
920.8  425413.95  229228.68  53.88
922.0  425675.25  229308.57  53.87
923.2  426016.50  229447.40  53.86
924.4  426471.75  229628.70  53.84
925.5  426932.90  229811.40  53.83
926.7  427836.88  230153.93  53.79
927.9  428883.60  230627.36  53.77
929.0  430560.90  231378.66  53.74
930.2  433038.50  232614.97  53.72
931.4  435771.90  233964.36  53.69
932.5  438809.65  235472.07  53.66
933.7  440533.63  236225.87  53.62
934.9  441433.13  236574.92  53.59
936.0  441332.13  236340.00  53.55
937.2  439269.75  235159.60  53.53
938.3  437765.85  234188.29  53.50
939.5  436197.60  233292.96  53.48
940.7  436626.00  233325.60  53.44
941.8  438562.50  234157.29  53.39
943.0  440238.00  234889.20  53.36
944.2  441282.40  235301.91  53.32
945.3  441265.50  234946.40  53.24
946.5  440602.20  234462.42  53.21
947.6  440707.70  234459.29  53.20
948.8  441018.83  234201.11  53.10
949.9  441386.40  234063.76  53.03
951.1  441155.00  233758.68  52.99
952.2  441252.00  233403.20  52.90
953.4  441235.25  233031.90  52.81
954.5  441207.00  232839.36  52.77
955.7  441252.00  232621.20  52.72
956.8  441465.40  232252.35  52.61
958.0  441449.50  231925.27  52.54
959.1  441518.10  231593.85  52.45
960.3  441322.03  231262.86  52.40
961.4  441188.55  231172.48  52.40
962.6  441619.50  231214.90  52.36
963.7  441585.00  231128.86  52.34
964.9  441804.00  231076.88  52.30
966.0  441826.65  231114.60  52.31
967.2  442187.10  231078.42  52.26
968.3  442300.50  231045.48  52.24
969.5  442287.65  230966.23  52.22
970.6  442615.43  231056.99  52.20
971.8  443149.00  231395.64  52.22
972.9  443359.50  231421.17  52.20
974.0  443549.90  231649.72  52.23
975.2  443462.50  231601.13  52.23
976.3  443495.43  231607.15  52.22
977.5  443599.28  231695.22  52.23
978.6  443710.90  231897.96  52.26
979.7  444262.35  232069.74  52.24
980.9  444612.05  232196.31  52.22
982.0  444433.70  232359.79  52.28
983.2  443993.83  232300.57  52.32
984.3  444284.60  232456.37  52.32
985.4  444345.60  232741.44  52.38
986.6  444626.50  232876.20  52.38
987.7  446121.90  233757.44  52.40
988.9  446041.80  233660.64  52.39
990.0  446807.80  234416.43  52.46
993.1  357102.78  185799.77  52.03
996.9  359034.18  187408.59  52.20
1000.7  360945.90  188894.74  52.33
1004.5  361968.83  189858.65  52.45
1008.4  361941.75  190306.06  52.58
1012.2  362107.08  190877.42  52.71
1016.0  362532.60  191542.27  52.83
1019.8  363259.05  192324.18  52.94
1023.7  364050.29  193080.93  53.04
1027.5  364718.20  193730.13  53.12
1031.3  365938.83  194569.35  53.17
1035.1  366505.59  195046.30  53.22
1038.9  366923.15  195397.73  53.25
1042.7  366924.25  195544.54  53.29
1046.5  366860.83  195601.93  53.32
1050.3  367040.58  195764.78  53.34
1054.2  366857.17  195757.46  53.36
1058.0  366371.54  195546.74  53.37
1061.8  366228.24  195512.34  53.39
1065.6  366136.37  195463.61  53.39
1069.4  366774.47  195779.75  53.38
1073.2  367081.19  195896.59  53.37
1077.0  366965.55  195756.33  53.34
1080.8  366185.42  195266.67  53.32
1084.6  364413.00  194259.59  53.31
1088.4  363094.08  193472.15  53.28
1092.2  362027.25  192751.00  53.24
1096.0  361521.43  192302.93  53.19
1099.8  361206.30  191940.71  53.14
1103.6  360770.62  191490.81  53.08
1107.4  360136.62  190884.81  53.00
1111.2  360016.90  190569.84  52.93
1114.9  359377.67  189942.67  52.85
1118.7  358662.15  189213.75  52.76
1122.5  357810.27  188323.39  52.63
1126.3  356581.87  187111.88  52.47
1130.1  356049.98  186020.19  52.25
1133.9  354519.20  184154.76  51.94
1137.7  353246.50  182127.33  51.56
1141.4  351666.90  179681.40  51.09
1145.2  351117.37  177635.74  50.59
1149.0  350132.71  175431.34  50.10
1152.8  348634.55  173208.44  49.68
1156.6  347096.75  171355.23  49.37
1160.3  345484.67  169814.22  49.15
1164.1  343071.30  168190.10  49.02
1167.9  341214.58  167074.77  48.96
1171.7  339916.50  166341.00  48.94
1175.4  338963.17  165835.10  48.92
1179.2  338210.15  165396.12  48.90
1183.0  338031.00  165198.59  48.87
1186.7  337262.57  164715.29  48.84
1190.5  335761.27  163885.23  48.81
1194.3  334351.87  163147.66  48.80
1198.0  333313.48  162645.88  48.80
1201.8  332041.03  162074.88  48.81
1205.6  330779.00  161554.37  48.84
1209.3  329655.55  161186.46  48.90
1213.1  328462.95  160809.23  48.96
1216.8  327281.08  160502.28  49.04
1220.6  326233.60  160255.82  49.12
1224.3  325028.67  159930.28  49.20
1228.1  323980.00  159739.60  49.31
1231.9  322968.40  159497.15  49.38
1235.6  321738.08  159108.90  49.45
1239.4  320554.88  158734.67  49.52
1243.1  319444.86  158352.25  49.57
1246.9  318335.98  157927.92  49.61
1250.6  317437.93  157562.27  49.64
1254.3  316450.84  157133.45  49.65
1258.1  315602.58  156753.10  49.67
1261.8  314469.87  156202.46  49.67
1265.6  312960.05  155440.43  49.67
1269.3  311132.28  154461.31  49.64
1273.1  310791.74  154169.62  49.61
1276.8  311321.20  154251.11  49.55
1280.6  311866.83  154319.48  49.48
1284.3  311009.60  153646.13  49.40
1288.0  309582.41  152642.79  49.31
1291.8  307779.58  151393.99  49.19
1295.5  305904.13  150043.58  49.05
1299.2  304533.23  148845.44  48.88
1302.9  303191.88  147585.46  48.68
1306.7  301799.17  146211.83  48.45
1310.4  300508.73  144756.16  48.17
1314.1  299311.83  143246.32  47.86
1317.9  298250.63  141663.93  47.50
1321.6  296966.70  139874.74  47.10
1325.3  295410.68  137813.32  46.65
1329.0  294081.90  135770.34  46.17
1332.8  291907.00  133240.80  45.64
1336.5  290005.60  130781.05  45.10
1340.2  289577.17  128977.33  44.54
1343.9  289019.17  127104.49  43.98
1347.6  288219.75  125141.57  43.42
1351.4  288021.00  123490.22  42.88
1355.1  287946.63  121911.37  42.34
1358.8  287360.00  120096.00  41.79
1362.5  286588.65  118077.50  41.20
1366.2  284659.90  115343.30  40.52
1369.9  283241.75  112493.78  39.72
1373.6  281815.16  109161.81  38.74
1377.3  280062.60  105088.40  37.52
1381.0  278567.83  100265.66  35.99
1384.8  276201.25  94203.05  34.11
1388.4  274130.15  87677.46  31.98
1392.2  272548.17  80917.04  29.69
1395.9  270966.73  74046.18  27.33
1399.6  269270.69  67472.22  25.06
1403.3  268175.32  61706.13  23.01
1407.0  267214.00  56799.11  21.26
1410.7  266192.85  52800.37  19.84
1414.3  265272.76  49710.41  18.74
1418.1  264392.92  47444.95  17.94
1421.7  263753.93  45851.13  17.38
1425.4  263050.78  44776.12  17.02
1429.1  262374.38  44098.92  16.81
1432.8  261047.98  43636.40  16.72
1436.5  260237.74  43481.35  16.71
1440.2  259293.97  43486.35  16.77
1443.9  257905.27  43521.26  16.87
1447.6  256286.80  43592.27  17.01
1451.2  255274.80  43786.80  17.15
1454.9  254126.10  43998.97  17.31
1458.6  253177.80  44315.84  17.50
1462.3  252124.03  44742.54  17.75
1466.0  250802.89  45288.20  18.06
1469.7  249161.90  45956.40  18.44
1473.3  248132.00  46899.71  18.90
1477.0  246308.00  47801.34  19.41
1480.7  244814.86  48840.78  19.95
1484.4  242972.15  49833.39  20.51
1488.0  241486.67  50916.15  21.08
1491.7  239872.41  51952.82  21.66
1495.4  238145.22  52947.04  22.23
1499.0  236509.50  53940.00  22.81
1502.7  235222.33  54988.37  23.38
1506.4  233825.46  55975.17  23.94
1510.0  232481.40  56930.31  24.49
1513.7  231081.96  57830.44  25.03
1517.4  229835.00  58718.89  25.55
1521.0  228708.93  59602.96  26.06
1524.7  227516.25  60408.11  26.55
1528.3  226226.00  61142.42  27.03
1532.0  225005.55  61837.27  27.48
1535.7  223617.08  62430.94  27.92
1539.3  222384.94  63032.90  28.34
1543.0  221429.73  63669.43  28.75
1546.6  220770.33  64342.06  29.14
1550.3  219798.20  64901.63  29.53
1553.9  218751.60  65382.86  29.89
1557.6  217513.27  65762.23  30.23
1561.2  216266.85  66104.40  30.57
1564.9  214984.33  66396.81  30.88
1568.5  213706.15  66652.34  31.19
1572.2  212590.55  66924.83  31.48
1575.8  211554.00  67209.33  31.77
1579.5  210589.25  67486.43  32.05
1583.1  209626.40  67739.77  32.31
1586.8  208460.00  67900.00  32.57
1590.4  207510.90  68111.56  32.82
1594.0  206261.68  68217.76  33.07
1597.7  204950.85  68281.85  33.32
1601.3  203411.25  68244.75  33.55
1604.9  201905.40  68194.27  33.78
1608.6  200576.93  68154.77  33.98
1612.2  199758.08  68245.65  34.16
1615.8  198822.33  68294.27  34.35
1619.5  197825.42  68287.54  34.52
1623.1  196566.87  68163.54  34.68
1626.7  195314.60  68017.88  34.82
1630.3  194123.58  67860.76  34.96
1634.0  192934.00  67672.89  35.08
1637.6  191813.07  67479.36  35.18
1641.2  190672.55  67230.81  35.26
1644.8  189333.83  66864.09  35.32
1648.5  188194.21  66515.80  35.34
1652.1  187163.40  66141.53  35.34
1655.7  186218.80  65727.07  35.30
1659.3  185346.74  65304.52  35.23
1662.9  183954.17  64672.40  35.16
1666.6  182543.13  64050.22  35.09
1670.2  181183.80  63456.20  35.02
1673.8  179806.91  62869.22  34.96
1677.4  178730.05  62385.12  34.90
1681.0  177992.45  61986.30  34.83
1684.6  177604.92  61653.70  34.71
1688.2  176931.60  61181.46  34.58
1691.8  176261.73  60699.18  34.44
1695.4  175867.00  60274.27  34.27
1699.0  175553.93  59868.57  34.10
1702.6  175282.33  59441.93  33.91
1706.2  174758.68  58891.66  33.70
1709.8  173920.99  58222.38  33.48
1713.4  173240.23  57615.27  33.26
1717.0  172427.50  56967.78  33.04
1720.6  171670.73  56348.57  32.82
1724.2  170965.88  55753.17  32.61
1727.8  170245.60  55166.61  32.40
1731.4  169747.88  54695.36  32.22
1735.0  169513.67  54343.79  32.06
1738.6  169208.40  53965.13  31.89
1742.2  168606.60  53445.16  31.70
1745.8  167937.84  52866.15  31.48
1749.4  166954.43  52162.92  31.24
1753.0  165445.53  51287.61  31.00
1756.6  163781.04  50363.25  30.75
1760.1  162449.79  49564.63  30.51
1763.7  160754.67  48681.63  30.28
1767.3  159383.03  47932.77  30.07
1770.9  158169.14  47272.30  29.89
1774.5  156752.33  46576.51  29.71
1778.0  155608.24  45993.61  29.56
1781.6  154530.00  45453.37  29.41
1785.2  153390.23  44938.11  29.30
1788.8  152238.20  44464.47  29.21
1792.3  151053.73  44007.41  29.13
1795.9  150609.98  43800.10  29.08
1799.5  150039.67  43588.15  29.05
1803.1  148572.08  43125.99  29.03
1806.6  147982.74  42902.82  28.99
1810.2  148695.63  43032.11  28.94
1813.8  149890.10  43296.77  28.89
1817.3  150281.00  43347.51  28.84
1820.9  149975.97  43180.07  28.79
1824.5  148989.63  42822.08  28.74
1828.0  148454.63  42562.87  28.67
1831.6  147703.68  42213.20  28.58
1835.2  146894.17  41785.37  28.45
1838.7  146408.80  41371.56  28.26
1842.3  145950.00  40876.67  28.01
1845.8  145255.54  40183.10  27.66
1849.4  144923.38  39437.18  27.21
1852.9  144235.23  38424.79  26.64
1856.5  143438.33  37154.29  25.90
1860.0  142752.05  35645.95  24.97
1863.6  142569.16  34019.27  23.86
1867.1  142293.55  32085.74  22.55
1870.7  141840.73  29738.64  20.97
1874.2  140884.20  26891.90  19.09
1877.8  140014.27  23949.22  17.10
1881.3  139184.63  20984.16  15.08
1884.9  138757.12  18241.34  13.15
1888.4  138009.66  15640.25  11.33
1891.9  137408.93  13436.10  9.78
1895.5  136508.30  11664.28  8.54
1899.0  136265.25  10397.75  7.63
1901.3  162827.17  8337.72  5.12
1904.1  162830.25  7621.75  4.68
1906.8  162234.60  7087.60  4.37
1909.6  160854.05  6659.80  4.14
1912.4  159548.67  6335.89  3.97
1915.1  158567.20  6145.70  3.88
1917.9  157371.33  5995.28  3.81
1920.6  156319.50  5901.29  3.78
1923.3  155312.50  5842.51  3.76
1926.1  154047.73  5811.56  3.77
1928.8  152870.67  5803.11  3.80
1931.6  151858.98  5830.63  3.84
1934.3  150905.28  5881.45  3.90
1937.0  149980.67  5965.79  3.98
1939.8  149019.58  6050.36  4.06
1942.5  147884.00  6138.00  4.15
1945.2  146425.40  6224.72  4.25
1947.9  145252.57  6334.38  4.36
1950.7  144322.03  6462.28  4.48
1953.4  142782.05  6579.95  4.61
1956.1  141570.17  6717.22  4.74
1958.8  140486.02  6866.38  4.89
1961.5  139131.60  7013.47  5.04
1964.2  137719.40  7173.83  5.21
1966.9  136238.70  7330.50  5.38
1969.6  135081.00  7518.00  5.57
1972.3  133740.30  7692.57  5.75
1975.0  132732.30  7897.15  5.95
1977.7  131659.28  8108.39  6.16
1980.4  130561.97  8325.41  6.38
1983.1  129486.08  8533.62  6.59
1985.8  128594.70  8760.90  6.81
1988.4  127599.33  8987.33  7.04
1991.1  126702.80  9217.52  7.27
1993.8  125855.03  9452.48  7.51
1996.5  125243.25  9713.86  7.76
1999.1  124588.38  9958.00  7.99
2001.8  123914.23  10198.84  8.23
2004.5  123253.85  10440.55  8.47
2007.1  122553.20  10668.33  8.71
2009.8  121816.33  10880.88  8.93
2012.4  121253.73  11109.76  9.16
2015.1  120719.90  11338.45  9.39
2017.8  119960.17  11528.38  9.61
2020.4  119461.47  11733.03  9.82
2023.1  119114.10  11945.65  10.03
2025.7  118880.67  12150.67  10.22
2028.3  118542.67  12338.44  10.41
2031.0  118162.80  12506.89  10.58
2033.6  117893.70  12681.70  10.76
2036.2  117641.40  12838.30  10.91
2038.9  117058.50  12951.40  11.06
2041.5  116733.60  13086.62  11.21
2044.1  116197.20  13180.50  11.34
2046.8  115831.80  13296.50  11.48
2049.4  115222.80  13374.80  11.61
2052.0  114939.40  13481.35  11.73
2054.6  114546.25  13574.17  11.85
2057.2  114013.67  13653.11  11.97
2059.8  113699.27  13763.73  12.11
2062.4  112845.97  13813.01  12.24
2065.0  112345.60  13891.82  12.37
2067.6  111477.45  13932.14  12.50
2070.2  110902.15  13998.97  12.62
2072.8  110283.27  14054.17  12.74
2075.4  109856.25  14137.08  12.87
2078.0  109238.32  14199.72  13.00
2080.6  108688.80  14258.93  13.12
2083.2  108022.87  14286.75  13.23
2085.8  107534.35  14346.11  13.34
2088.4  106874.50  14383.61  13.46
2090.9  106108.58  14403.50  13.57
2093.5  105243.83  14397.79  13.68
2096.1  104477.75  14413.45  13.80
2098.7  103713.60  14425.16  13.91
2101.2  102782.60  14410.00  14.02
2103.8  102127.60  14424.56  14.12
2106.4  101472.60  14442.02  14.23
2108.9  100835.07  14459.49  14.34
2111.5  100005.40  14447.84  14.45
2114.0  99385.33  14462.40  14.55
2116.6  98883.75  14487.08  14.65
2119.1  98344.47  14502.99  14.75
2121.7  97886.25  14516.25  14.83
2124.2  97494.10  14546.82  14.92
2126.8  96713.28  14510.06  15.00
2129.3  96316.00  14528.80  15.08
2131.9  95744.00  14517.07  15.16
2134.4  95314.50  14522.85  15.24
2136.9  94927.30  14530.17  15.31
2139.4  94421.13  14511.78  15.37
2142.0  93995.53  14511.78  15.44
2144.5  93717.00  14542.60  15.52
2147.0  93487.33  14573.24  15.59
2149.5  92996.00  14570.27  15.67
2152.1  92833.77  14606.90  15.73
2154.6  92761.07  14657.78  15.80
2157.1  92241.25  14645.36  15.88
2159.6  91841.58  14648.39  15.95
2162.1  91682.50  14675.27  16.01
2164.6  91452.07  14692.49  16.07
2167.1  91135.40  14711.70  16.14
2169.6  90802.60  14719.02  16.21
2172.1  90338.93  14693.31  16.26
2174.6  90034.93  14703.11  16.33
2177.1  89621.30  14695.52  16.40
2179.5  89225.72  14679.96  16.45
2182.0  88750.20  14660.80  16.52
2184.5  88231.48  14628.62  16.58
2187.0  87626.23  14590.22  16.65
2189.5  86962.17  14541.11  16.72
2191.9  86222.00  14471.67  16.78
2194.4  85615.75  14426.87  16.85
2196.9  84902.40  14352.00  16.90
2199.3  84254.67  14284.11  16.95
2201.8  83395.20  14181.47  17.01
2204.3  82941.02  14139.27  17.05
2206.7  82316.45  14069.08  17.09
2209.2  81873.53  14024.45  17.13
2211.6  81249.30  13932.60  17.15
2214.1  80953.20  13900.15  17.17
2216.5  80400.40  13817.27  17.19
2219.0  80062.67  13767.60  17.20
2221.4  79690.33  13698.22  17.19
2223.9  79244.08  13592.44  17.15
2226.3  78748.25  13473.45  17.11
2228.7  78206.82  13342.50  17.06
2231.1  77616.00  13190.10  16.99
2233.6  77052.87  13029.22  16.91
2236.0  76517.00  12852.00  16.80
2238.4  76031.08  12680.11  16.68
2240.9  75602.60  12509.38  16.55
2243.3  75096.00  12314.02  16.40
2245.7  74535.45  12105.83  16.24
2248.1  74072.27  11903.52  16.07
2250.5  73577.17  11690.48  15.89
2252.9  72975.93  11451.70  15.69
2255.3  72436.00  11233.55  15.51
2257.7  72000.00  11030.00  15.32
2260.1  71537.67  10819.28  15.12
2262.5  70940.00  10600.00  14.94
2264.9  70422.43  10405.96  14.78
2267.3  69820.00  10203.33  14.61
2269.7  69340.37  10013.27  14.44
2272.1  68814.50  9833.03  14.29
2274.5  68266.03  9653.88  14.14
2276.8  67792.80  9492.46  14.00
2279.2  67224.45  9323.05  13.87
2281.6  66822.53  9174.09  13.73
2284.0  66367.10  9032.77  13.61
2286.3  65907.20  8880.18  13.47
2288.7  65519.57  8750.88  13.36
2291.1  64981.67  8592.59  13.22
2293.4  64546.53  8449.46  13.09
2295.8  63942.40  8284.63  12.96
2298.2  63373.05  8128.20  12.83
2300.5  62741.70  7959.15  12.69
2302.9  62010.33  7784.44  12.55
2305.2  61295.30  7611.70  12.42
2307.6  60651.68  7469.27  12.32
2309.9  59892.00  7316.00  12.22
2312.2  59313.33  7198.89  12.14
2314.6  58725.90  7096.65  12.08
2316.9  58022.10  6989.70  12.05
2319.2  57452.07  6876.56  11.97
2321.6  56827.98  6759.55  11.89
2323.9  56281.25  6642.36  11.80
2326.2  55755.73  6531.27  11.71
2328.6  55249.15  6419.78  11.62
2330.9  54747.00  6303.50  11.51
2333.2  54271.33  6194.78  11.41
2335.5  53831.70  6081.17  11.30
2337.8  53399.07  5973.97  11.19
2340.1  52827.55  5851.75  11.08
2342.4  52400.83  5763.33  11.00
2344.8  51974.25  5654.83  10.88
2347.1  51422.70  5530.86  10.76
2349.4  50908.02  5423.87  10.65
2351.6  50357.18  5332.07  10.59
2353.9  49870.67  5240.83  10.51
2356.2  49335.77  5135.90  10.41
2358.5  48764.80  5043.73  10.34
2360.8  48193.60  4954.13  10.28
2363.1  47760.57  4853.08  10.16
2365.4  47301.80  4764.83  10.07
2367.7  46831.20  4674.00  9.98
2369.9  46303.80  4583.82  9.90
2372.2  45694.67  4479.65  9.80
2374.5  45137.40  4373.60  9.69
2376.7  44515.07  4271.06  9.59
2379.0  43904.20  4168.61  9.49
2381.3  43295.00  4060.00  9.38
2383.5  42779.73  3965.87  9.27
2385.8  42171.73  3883.00  9.21
2388.0  41654.00  3776.00  9.07
2390.3  41141.73  3682.62  8.95
2392.5  40668.00  3592.00  8.83
2394.8  40208.30  3509.00  8.73
2397.0  39736.67  3425.64  8.62
2399.3  39279.07  3338.23  8.50
2401.5  38844.75  3254.42  8.38
2403.8  38304.83  3165.38  8.26
2406.0  37808.75  3091.75  8.18
2408.2  37400.00  3016.93  8.07
2410.4  36975.63  2941.91  7.96
2412.7  36543.87  2873.58  7.86
2414.9  36179.00  2791.43  7.72
2417.1  35788.60  2713.57  7.58
2419.3  35392.00  2649.60  7.49
2421.6  35004.17  2579.03  7.37
2423.8  34621.00  2506.89  7.24
2426.0  34263.02  2445.19  7.14
2428.2  33894.93  2382.49  7.03
2430.4  33599.43  2333.48  6.94
2432.6  33333.33  2266.67  6.80
2434.8  33015.67  2209.95  6.69
2437.0  32656.43  2153.81  6.60
2439.2  32304.83  2104.09  6.51
2441.4  31970.17  2058.63  6.44
2443.6  31736.88  1984.99  6.25
2445.7  31445.75  1939.04  6.17
2447.9  31173.33  1892.67  6.07
2450.1  30895.95  1849.92  5.99
2452.3  30520.23  1788.11  5.86
2454.5  30167.95  1744.55  5.78
2456.6  29774.53  1678.71  5.64
2458.8  29429.40  1630.20  5.54
2461.0  29136.08  1590.64  5.46
2463.1  28823.55  1556.85  5.40
2465.3  28535.00  1516.99  5.32
2467.5  28290.50  1484.83  5.25
2469.6  28043.33  1451.89  5.18
2471.8  27735.78  1421.58  5.13
2473.9  27406.42  1387.67  5.06
2476.1  27072.50  1344.78  4.97
2478.2  26734.50  1310.07  4.90
2480.4  26417.35  1284.28  4.86
2482.5  26073.93  1259.31  4.83
2484.6  25743.67  1231.08  4.78
2486.8  25449.70  1198.43  4.71
2488.9  25127.07  1167.97  4.65
2491.1  24752.00  1147.69  4.64
2493.2  24381.10  1128.31  4.63
2495.3  24001.90  1090.27  4.54
2497.4  23650.90  1057.23  4.47
2499.5  23320.18  1035.73  4.44
2501.7  23187.43  1018.87  4.39
2503.8  23085.72  1003.00  4.34
2505.9  22977.08  990.83  4.31
2508.0  22964.35  980.93  4.27
2510.1  22944.32  1007.43  4.39
2512.2  23065.95  1015.37  4.40
2514.3  23216.62  999.79  4.31
2516.4  23383.90  1017.83  4.35
