/*** Spectra Vista SIG Data ***/
name= 19_20220824_ACRU_25_avg.sig
comm= Averaged Ref/Tar of files: HR.082422.0053_moc.sig,HR.082422.0054_moc.sig,HR.082422.0055_moc.sig
data=
337.3  3473.75  325.87  9.38
338.8  3607.50  315.86  8.76
340.3  3748.00  306.09  8.17
341.8  3978.08  306.36  7.70
343.2  4173.60  290.08  6.95
344.7  4350.30  290.02  6.67
346.2  4493.50  290.04  6.45
347.7  4679.68  272.65  5.83
349.2  4914.00  268.38  5.46
350.6  5178.23  271.77  5.25
352.1  5465.93  275.08  5.03
353.6  5760.20  281.07  4.88
355.1  6027.83  277.26  4.60
356.6  6358.35  288.42  4.54
358.0  6635.20  284.97  4.29
359.5  6921.60  293.55  4.24
361.0  7241.85  285.29  3.94
362.5  7611.50  295.68  3.88
364.0  8000.33  305.87  3.82
365.4  8373.80  319.40  3.81
366.9  8757.13  321.37  3.67
368.4  9137.13  332.76  3.64
369.9  9512.80  340.52  3.58
371.3  9932.40  347.99  3.50
372.8  10354.50  358.43  3.46
374.3  10803.75  366.40  3.39
375.8  11238.15  359.33  3.20
377.2  11647.70  377.50  3.24
378.7  12105.00  381.08  3.15
380.2  12535.40  389.15  3.10
381.7  13053.08  394.57  3.02
383.1  13555.85  400.66  2.96
384.6  14107.93  412.72  2.93
386.1  14593.50  409.88  2.81
387.6  15065.05  423.12  2.81
389.0  15570.80  432.37  2.78
390.5  16089.30  443.39  2.76
392.0  16663.50  457.59  2.75
393.4  17262.68  465.07  2.69
394.9  17826.30  476.76  2.67
396.4  18371.25  495.08  2.69
397.9  18962.50  493.71  2.60
399.3  19525.58  505.66  2.59
400.8  20114.48  511.79  2.54
402.2  20793.85  525.37  2.53
403.7  21378.60  538.48  2.52
405.2  22017.75  546.10  2.48
406.6  22596.80  561.44  2.48
408.1  23232.80  572.53  2.46
409.6  23837.70  584.60  2.45
411.0  24531.15  592.82  2.42
412.5  25219.08  613.64  2.43
414.0  25896.63  623.48  2.41
415.4  26632.50  647.26  2.43
416.9  27331.95  657.92  2.41
418.4  28049.85  677.28  2.41
419.8  28774.20  695.85  2.42
421.3  29518.20  711.81  2.41
422.7  30328.20  739.50  2.44
424.2  31151.25  758.25  2.43
425.7  31931.70  775.88  2.43
427.1  32710.28  793.89  2.43
428.6  33526.50  818.92  2.44
430.0  34310.68  838.67  2.44
431.5  35208.08  860.68  2.44
432.9  36112.25  878.02  2.43
434.4  37044.45  896.75  2.42
435.9  37884.00  924.00  2.44
437.3  38761.25  946.46  2.44
438.8  39625.43  972.42  2.45
440.2  40519.33  996.25  2.46
441.7  41513.20  1021.08  2.46
443.1  42453.00  1043.22  2.46
444.6  43465.80  1070.27  2.46
446.0  44426.40  1096.82  2.47
447.5  45405.53  1125.77  2.48
448.9  46375.50  1151.11  2.48
450.4  47409.95  1179.31  2.49
451.8  48308.00  1202.07  2.49
453.3  49266.60  1231.23  2.50
454.7  50328.50  1257.33  2.50
456.2  51233.65  1278.86  2.50
457.6  52237.13  1308.03  2.50
459.1  53246.70  1336.05  2.51
460.5  54208.88  1358.01  2.51
462.0  55317.25  1384.51  2.50
463.4  56389.20  1414.30  2.51
464.8  57414.75  1442.08  2.51
466.3  58456.20  1475.90  2.52
467.7  59495.03  1498.52  2.52
469.2  60592.88  1529.01  2.52
470.6  61609.25  1553.46  2.52
472.0  62675.98  1583.91  2.53
473.5  63717.88  1613.55  2.53
474.9  64794.75  1642.08  2.53
476.4  65995.20  1678.08  2.54
477.8  67120.50  1712.45  2.55
479.2  68179.00  1740.97  2.55
480.7  69335.25  1774.64  2.56
482.1  70516.00  1814.92  2.57
483.6  71773.15  1851.53  2.58
485.0  72925.05  1887.54  2.59
486.4  74175.90  1930.79  2.60
487.9  75304.13  1971.45  2.62
489.3  76540.55  2020.76  2.64
490.7  77659.65  2066.90  2.66
492.2  78968.40  2121.70  2.69
493.6  80120.85  2172.60  2.71
495.0  81285.75  2235.68  2.75
496.5  82517.53  2302.02  2.79
497.9  83676.85  2374.90  2.84
499.3  84894.88  2452.19  2.89
500.7  86200.60  2550.08  2.96
502.2  87410.20  2646.98  3.03
503.6  88709.60  2767.67  3.12
505.0  89833.80  2901.68  3.23
506.5  91206.08  3062.86  3.36
507.9  92478.35  3248.16  3.51
509.3  93920.80  3465.17  3.69
510.7  95238.00  3714.75  3.90
512.2  96707.48  3996.55  4.13
513.6  98240.10  4326.53  4.40
515.0  99731.48  4681.92  4.69
516.4  101138.63  5077.01  5.02
517.8  102815.88  5517.70  5.37
519.3  104169.08  5967.33  5.73
520.7  105782.45  6443.33  6.09
522.1  107146.33  6905.98  6.45
523.5  108572.90  7361.90  6.78
524.9  110023.65  7800.38  7.09
526.3  111442.10  8209.16  7.37
527.8  113008.50  8601.12  7.61
529.2  114297.90  8964.34  7.84
530.6  115932.35  9322.18  8.04
532.0  117712.00  9653.93  8.20
533.4  119066.33  9914.28  8.33
534.8  120003.65  10118.45  8.43
536.3  121788.90  10376.76  8.52
537.7  123908.40  10661.28  8.60
539.1  125406.88  10882.98  8.68
540.5  126645.50  11079.17  8.75
541.9  128453.48  11327.16  8.82
543.3  129767.33  11529.86  8.89
544.7  131111.40  11738.20  8.95
546.1  132920.98  11984.95  9.02
547.5  134220.80  12178.13  9.07
549.0  136092.00  12403.23  9.11
550.4  137657.50  12581.77  9.14
551.8  139224.70  12727.18  9.14
553.2  140815.43  12840.26  9.12
554.6  142209.60  12894.27  9.07
556.0  143792.55  12917.15  8.98
557.4  145448.28  12892.14  8.86
558.8  147135.60  12815.72  8.71
560.2  148611.50  12668.91  8.52
561.6  150338.93  12491.93  8.31
563.0  151960.83  12262.04  8.07
564.4  153586.90  11997.11  7.81
565.8  155156.88  11703.79  7.54
567.2  156950.00  11413.99  7.27
568.6  158503.13  11100.48  7.00
570.0  159993.55  10790.99  6.74
571.4  161794.10  10520.71  6.50
572.8  163582.00  10278.76  6.28
574.2  165256.00  10059.47  6.09
575.6  166837.50  9864.00  5.91
577.0  168415.20  9698.79  5.76
578.4  170204.13  9568.65  5.62
579.8  171746.33  9451.96  5.50
581.2  173532.40  9370.73  5.40
582.5  174973.50  9288.63  5.31
583.9  176551.60  9233.11  5.23
585.3  178398.00  9210.08  5.16
586.7  179918.05  9184.29  5.10
588.1  181462.75  9170.95  5.05
589.5  183149.75  9174.03  5.01
590.9  184834.40  9185.51  4.97
592.3  186706.35  9210.45  4.93
593.7  188185.73  9213.88  4.90
595.0  189874.13  9219.04  4.86
596.4  191375.10  9200.98  4.81
597.8  192895.48  9166.45  4.75
599.2  194488.80  9118.12  4.69
600.6  196290.58  9055.67  4.61
602.0  197629.43  8957.16  4.53
603.3  199483.10  8866.22  4.44
604.7  201186.60  8762.94  4.36
606.1  202749.60  8640.18  4.26
607.5  204432.93  8527.67  4.17
608.9  206169.70  8416.89  4.08
610.2  207592.88  8301.35  4.00
611.6  209245.28  8202.50  3.92
613.0  210839.95  8118.49  3.85
614.4  212269.95  8034.03  3.78
615.8  213788.25  7967.21  3.73
617.1  215355.00  7922.32  3.68
618.5  217042.00  7898.27  3.64
619.9  218606.48  7884.38  3.61
621.3  220290.98  7888.25  3.58
622.6  221933.25  7914.75  3.57
624.0  223453.35  7945.94  3.56
625.4  224983.28  7985.89  3.55
626.8  226628.68  8041.06  3.55
628.1  227993.70  8091.41  3.55
629.5  229945.38  8163.35  3.55
630.9  231662.75  8227.02  3.55
632.2  233134.65  8264.56  3.54
633.6  234852.25  8294.21  3.53
635.0  236465.60  8286.96  3.50
636.3  238048.00  8250.37  3.47
637.7  239479.63  8177.83  3.41
639.1  241202.50  8087.92  3.35
640.4  242748.45  7970.84  3.28
641.8  244024.25  7836.46  3.21
643.2  245680.75  7720.11  3.14
644.5  247105.00  7596.87  3.07
645.9  248890.50  7499.93  3.01
647.2  251065.15  7440.52  2.96
648.6  253125.00  7400.03  2.92
650.0  254685.60  7357.68  2.89
651.3  255000.90  7302.48  2.86
652.7  255785.85  7256.91  2.84
654.0  257945.60  7265.41  2.82
655.4  259543.90  7243.97  2.79
656.8  259824.20  7197.41  2.77
658.1  261004.60  7187.58  2.75
659.5  263540.55  7224.00  2.74
660.8  265590.00  7269.75  2.74
662.2  266515.20  7290.45  2.74
663.5  268192.20  7348.63  2.74
664.9  269664.20  7424.86  2.75
666.2  270440.40  7502.12  2.77
667.6  272208.73  7629.20  2.80
668.9  273498.55  7773.38  2.84
670.3  274451.75  7904.34  2.88
671.6  276274.88  8084.48  2.93
673.0  277491.75  8287.29  2.99
674.3  278769.40  8493.03  3.05
675.7  280153.83  8729.19  3.12
677.0  281369.38  8979.59  3.19
678.4  282845.05  9265.92  3.28
679.7  284034.40  9576.47  3.37
681.1  285429.75  9928.60  3.48
682.4  286659.10  10331.01  3.60
683.8  288051.40  10794.38  3.75
685.1  289085.25  11344.23  3.92
686.4  290442.60  12048.68  4.15
687.8  291808.75  12930.96  4.43
689.1  292965.75  14084.99  4.81
690.5  294416.55  15595.09  5.30
691.8  295321.50  17561.22  5.95
693.1  296692.35  20095.84  6.77
694.5  297979.50  23170.12  7.78
695.8  299276.25  26787.37  8.95
697.1  300527.50  30927.11  10.29
698.5  301683.00  35555.77  11.79
699.8  302869.98  40581.45  13.40
701.1  304094.43  45953.16  15.11
702.5  304966.20  51477.14  16.88
703.8  305955.00  57147.75  18.68
705.1  307222.50  62878.95  20.47
706.5  308372.25  68571.17  22.24
707.8  309458.10  74166.99  23.97
709.1  310384.48  79603.51  25.65
710.5  311634.68  84967.46  27.27
711.8  312579.10  90066.73  28.81
713.1  313694.10  95040.37  30.30
714.4  314697.60  99787.30  31.71
715.8  315589.60  104311.97  33.05
717.1  317012.40  108813.96  34.32
718.4  318057.60  112978.88  35.52
719.7  319257.38  117019.08  36.65
721.0  319860.00  120655.50  37.72
722.4  320728.65  124184.35  38.72
723.7  321788.55  127612.37  39.66
725.0  322944.98  130908.12  40.54
726.3  323978.05  133971.34  41.35
727.6  324617.15  136711.10  42.11
729.0  325626.70  139446.66  42.82
730.3  326494.50  141956.80  43.48
731.6  327503.05  144393.50  44.09
732.9  328386.98  146641.03  44.65
734.2  329307.00  148770.19  45.18
735.5  330408.63  150867.39  45.66
736.8  331278.60  152719.64  46.10
738.1  332210.00  154491.99  46.50
739.5  333252.38  156208.37  46.87
740.8  334059.28  157682.64  47.20
742.1  334908.45  159108.35  47.51
743.4  335725.00  160447.50  47.79
744.7  336841.50  161836.65  48.05
746.0  337864.80  163065.57  48.26
747.3  338512.55  164055.13  48.46
748.6  339359.25  165062.65  48.64
749.9  340210.00  166016.07  48.80
751.2  341100.60  166891.92  48.93
752.5  342120.45  167820.24  49.05
753.8  342834.10  168566.18  49.17
755.1  343642.00  169302.47  49.27
756.4  344350.58  169920.66  49.35
757.7  345441.60  170699.12  49.41
759.0  347402.58  171876.03  49.47
760.3  348717.60  172707.04  49.53
761.6  350428.40  173719.28  49.57
762.9  351093.75  174163.01  49.61
764.2  351556.10  174511.96  49.64
765.5  351973.60  174801.30  49.66
766.8  352539.20  175158.03  49.68
768.1  353158.60  175540.84  49.71
769.3  353892.35  175943.40  49.72
770.6  354657.55  176372.89  49.73
771.9  355540.33  176831.94  49.74
773.2  356050.80  177117.55  49.75
774.5  356813.60  177517.34  49.75
775.8  357624.60  177949.69  49.76
777.1  358340.95  178314.44  49.76
778.4  358808.45  178559.73  49.76
779.6  359702.23  179035.66  49.77
780.9  360300.00  179347.00  49.78
782.2  360882.50  179653.74  49.78
783.5  361364.00  179897.13  49.78
784.8  362039.63  180244.05  49.79
786.0  362554.85  180520.48  49.79
787.3  363064.13  180781.91  49.79
788.6  363632.45  181069.40  49.79
789.9  364246.40  181382.60  49.80
791.2  365035.45  181786.96  49.80
792.4  365890.60  182211.06  49.80
793.7  366498.20  182514.30  49.80
795.0  367238.03  182918.84  49.81
796.2  368055.65  183337.62  49.81
797.5  368953.13  183773.96  49.81
798.8  369792.05  184180.96  49.81
800.0  370591.90  184593.15  49.81
801.3  371252.40  184904.20  49.81
802.6  371957.85  185289.44  49.81
803.8  372753.73  185675.49  49.81
805.1  373352.88  186004.20  49.82
806.4  373913.40  186296.30  49.82
807.7  374592.60  186629.40  49.82
808.9  375322.20  186969.09  49.82
810.2  375962.30  187306.16  49.82
811.4  376579.10  187643.94  49.83
812.7  377325.00  188012.50  49.83
814.0  378291.95  188502.66  49.83
815.2  379006.50  188878.39  49.84
816.5  379544.95  189128.49  49.83
817.7  380122.35  189424.14  49.83
819.0  380708.90  189756.29  49.84
820.2  380996.00  189902.53  49.84
821.5  381757.50  190302.77  49.85
822.7  382211.55  190521.73  49.85
824.0  382622.40  190725.21  49.85
825.2  383219.10  191028.92  49.85
826.5  383589.35  191219.50  49.85
827.7  384200.00  191538.11  49.85
829.0  384683.88  191775.10  49.85
830.2  384968.25  191959.96  49.86
831.5  385553.20  192221.61  49.86
832.7  385909.65  192398.05  49.86
834.0  386230.58  192598.04  49.87
835.2  386636.53  192786.01  49.86
836.4  386947.55  192961.62  49.87
837.7  387367.40  193206.74  49.88
838.9  387893.23  193447.27  49.87
840.1  388309.28  193678.43  49.88
841.4  388797.70  193922.79  49.88
842.6  389109.60  194125.15  49.89
843.8  389455.60  194333.23  49.90
845.1  390048.20  194618.54  49.90
846.3  390409.60  194820.16  49.90
847.5  390856.20  195038.34  49.90
848.8  391255.80  195273.58  49.91
850.0  391562.50  195434.59  49.91
851.2  392121.00  195736.91  49.92
852.5  392551.50  195937.10  49.91
853.7  393000.75  196202.40  49.92
854.9  393427.20  196427.17  49.93
856.1  393933.80  196676.78  49.93
857.4  394063.25  196753.54  49.93
858.6  394531.55  196970.58  49.93
859.8  394882.50  197147.56  49.93
861.0  395436.60  197397.72  49.92
862.2  395887.75  197664.31  49.93
863.5  396186.70  197853.93  49.94
864.7  396686.40  198132.66  49.95
865.9  397094.00  198324.35  49.94
867.1  397444.00  198455.06  49.93
868.3  397902.60  198659.39  49.93
869.5  398297.25  198891.42  49.94
870.8  398947.50  199167.75  49.92
872.0  399460.95  199441.80  49.93
873.2  399893.55  199670.65  49.93
874.4  400324.28  199872.56  49.93
875.6  400709.83  200027.84  49.92
876.8  401233.75  200275.46  49.91
878.0  401718.00  200507.91  49.91
879.2  402257.55  200756.85  49.91
880.4  402738.00  201031.71  49.92
881.6  403253.60  201249.03  49.91
882.8  403604.00  201462.45  49.92
884.0  404391.83  201754.38  49.89
885.2  404910.90  202019.87  49.89
886.5  405511.40  202308.49  49.89
887.7  406102.78  202553.25  49.88
888.8  406812.68  202861.73  49.87
890.0  407427.15  203137.30  49.86
891.2  408063.50  203447.69  49.86
892.4  408702.53  203784.28  49.86
893.6  409391.15  204066.09  49.85
894.8  410354.50  204532.10  49.84
896.0  411292.00  204961.18  49.83
897.2  412168.25  205378.88  49.83
898.4  412985.10  205766.22  49.82
899.6  413734.13  206039.53  49.80
900.8  414214.83  206267.53  49.80
902.0  414538.20  206377.85  49.79
903.2  414891.08  206566.49  49.79
904.3  415297.20  206749.45  49.78
905.5  416026.55  207052.01  49.77
906.7  416772.00  207341.80  49.75
907.9  417418.75  207657.67  49.75
909.1  417820.95  207851.72  49.75
910.2  418040.25  207946.41  49.74
911.4  418418.33  208061.88  49.73
912.6  418739.75  208170.58  49.71
913.8  419088.23  208291.33  49.70
915.0  419707.05  208533.22  49.69
916.2  419922.75  208617.83  49.68
917.3  419984.78  208651.97  49.68
918.5  420483.20  208784.48  49.65
919.7  420828.45  208927.71  49.65
920.8  421024.13  208933.50  49.63
922.0  421363.25  209028.69  49.61
923.2  421512.00  209086.15  49.60
924.4  421905.38  209209.16  49.59
925.5  422303.00  209336.95  49.57
926.7  423138.50  209604.48  49.54
927.9  423967.20  210050.78  49.54
929.0  425704.95  210772.76  49.51
930.2  428085.20  211841.13  49.49
931.4  430715.48  213054.26  49.47
932.5  433643.50  214436.97  49.45
933.7  435275.90  215147.17  49.43
934.9  436253.13  215423.25  49.38
936.0  435916.00  215151.46  49.36
937.2  433975.35  214053.70  49.32
938.3  432417.05  213144.11  49.29
939.5  430783.20  212329.08  49.29
940.7  431125.20  212353.80  49.26
941.8  432948.90  213106.29  49.22
943.0  434681.25  213779.53  49.18
944.2  435620.25  214102.33  49.15
945.3  435337.50  213840.25  49.12
946.5  434597.40  213333.03  49.09
947.6  434986.70  213342.45  49.05
948.8  435004.05  213162.33  49.00
949.9  435267.00  213086.72  48.96
951.1  435139.25  212710.24  48.88
952.2  435132.00  212404.80  48.81
953.4  435017.75  212113.47  48.76
954.5  435310.20  211842.54  48.66
955.7  435254.40  211636.74  48.62
956.8  435364.20  211370.26  48.55
958.0  435026.00  211000.90  48.50
959.1  435197.80  210736.86  48.42
960.3  434882.73  210503.78  48.40
961.4  434855.70  210360.08  48.37
962.6  435146.25  210396.61  48.35
963.7  435206.55  210210.82  48.30
964.9  435026.33  210074.46  48.29
966.0  434882.93  210077.69  48.31
967.2  435319.20  210157.74  48.28
968.3  435516.75  210061.08  48.23
969.5  435298.28  210035.38  48.25
970.6  435686.03  210143.68  48.23
971.8  435962.80  210186.37  48.21
972.9  436178.33  210210.69  48.19
974.0  436380.10  210292.41  48.19
975.2  436298.88  210371.79  48.22
976.3  436683.45  210430.27  48.19
977.5  436792.13  210403.96  48.17
978.6  437309.30  210425.93  48.12
979.7  437466.75  210635.29  48.15
980.9  437397.25  210747.31  48.18
982.0  437234.45  210810.04  48.21
983.2  437351.80  210756.56  48.19
984.3  437759.00  210631.87  48.12
985.4  438559.85  210967.73  48.10
986.6  438485.25  210951.94  48.11
987.7  439599.65  211429.60  48.10
988.9  439837.20  211484.94  48.08
990.0  440258.50  211979.01  48.15
993.1  361037.37  172570.83  47.80
996.9  362500.43  173676.73  47.91
1000.7  364098.82  174782.69  48.00
1004.5  364963.17  175531.37  48.10
1008.4  364955.33  175833.60  48.18
1012.2  365191.88  176219.57  48.25
1016.0  365598.60  176646.10  48.32
1019.8  366169.65  177166.73  48.38
1023.7  366706.21  177623.01  48.44
1027.5  367014.73  177957.41  48.49
1031.3  367792.38  178485.64  48.53
1035.1  368087.53  178739.64  48.56
1038.9  368268.63  178942.51  48.59
1042.7  368220.92  179030.05  48.62
1046.5  368083.17  179041.20  48.64
1050.3  368206.38  179150.38  48.65
1054.2  368001.08  179083.56  48.66
1058.0  367526.43  178863.64  48.67
1061.8  367367.93  178829.84  48.68
1065.6  367217.57  178713.59  48.67
1069.4  367571.87  178866.52  48.66
1073.2  367585.38  178820.45  48.65
1077.0  367355.88  178602.52  48.62
1080.8  366759.38  178178.34  48.58
1084.6  365349.72  177378.07  48.55
1088.4  364349.53  176782.64  48.52
1092.2  363372.75  176182.04  48.49
1096.0  362821.55  175778.73  48.45
1099.8  362426.78  175392.78  48.39
1103.6  361863.27  174947.63  48.35
1107.4  361108.16  174347.89  48.28
1111.2  360903.30  174015.36  48.22
1114.9  360200.17  173408.68  48.14
1118.7  359478.90  172723.61  48.05
1122.5  358696.87  171932.17  47.93
1126.3  357541.57  170886.26  47.79
1130.1  357026.47  170002.13  47.62
1133.9  355477.50  168421.95  47.38
1137.7  354146.00  166710.60  47.07
1141.4  352499.88  164617.33  46.70
1145.2  351894.18  162829.45  46.27
1149.0  350876.46  160904.21  45.86
1152.8  349346.50  158937.09  45.50
1156.6  347779.48  157309.66  45.23
1160.3  346093.00  155984.78  45.07
1164.1  343677.13  154582.12  44.98
1167.9  341885.42  153637.57  44.94
1171.7  340601.63  153030.00  44.93
1175.4  339572.43  152575.55  44.93
1179.2  338725.50  152181.81  44.93
1183.0  338528.00  152040.68  44.91
1186.7  337875.30  151684.42  44.89
1190.5  336575.60  151040.55  44.88
1194.3  335250.17  150404.01  44.86
1198.0  334180.83  149903.73  44.86
1201.8  332806.88  149310.00  44.86
1205.6  331560.67  148842.45  44.89
1209.3  330514.20  148528.98  44.94
1213.1  329351.63  148213.99  45.00
1216.8  328204.71  147971.26  45.09
1220.6  327075.47  147731.79  45.17
1224.3  325811.92  147421.55  45.25
1228.1  324697.80  147185.34  45.33
1231.9  323558.18  146895.95  45.40
1235.6  322246.35  146480.61  45.46
1239.4  321001.88  146088.88  45.51
1243.1  319849.48  145684.77  45.55
1246.9  318718.00  145251.22  45.57
1250.6  317796.60  144884.54  45.59
1254.3  316786.98  144454.99  45.60
1258.1  315884.45  144043.93  45.60
1261.8  314749.33  143491.16  45.59
1265.6  313320.90  142771.95  45.57
1269.3  311673.88  141924.72  45.54
1273.1  311456.08  141701.51  45.50
1276.8  311829.60  141725.42  45.45
1280.6  312063.23  141639.47  45.39
1284.3  311009.60  140920.26  45.31
1288.0  309582.41  140001.36  45.22
1291.8  308055.69  138964.22  45.11
1295.5  306420.40  137859.33  44.99
1299.2  305074.11  136836.92  44.85
1302.9  303675.73  135716.44  44.69
1306.7  302187.08  134481.96  44.50
1310.4  300770.67  133180.83  44.28
1314.1  299494.43  131848.79  44.02
1317.9  298372.29  130456.84  43.72
1321.6  297057.85  128875.49  43.38
1325.3  295456.35  127056.73  43.00
1329.0  294143.03  125276.03  42.59
1332.8  292014.80  123048.20  42.14
1336.5  290127.73  120895.04  41.67
1340.2  289637.83  119318.57  41.20
1343.9  289003.96  117661.32  40.71
1347.6  288018.90  115871.08  40.23
1351.4  287695.50  114376.22  39.76
1355.1  287442.10  112934.38  39.29
1358.8  286976.00  111335.37  38.80
1362.5  286265.15  109535.82  38.26
1366.2  284611.45  107150.89  37.65
1369.9  283178.25  104576.69  36.93
1373.6  281546.42  101496.02  36.05
1377.3  279649.20  97741.59  34.95
1381.0  278196.00  93342.99  33.55
1384.8  276038.75  87850.60  31.83
1388.4  273986.30  81870.19  29.88
1392.2  272371.25  75610.30  27.76
1395.9  270806.48  69208.92  25.56
1399.6  269190.98  63056.63  23.42
1403.3  268096.53  57631.23  21.50
1407.0  267166.90  53012.17  19.84
1410.7  266192.85  49293.89  18.52
1414.3  265257.42  46477.70  17.52
1418.1  264331.75  44482.97  16.83
1421.7  263692.57  43161.47  16.37
1425.4  262974.40  42338.90  16.10
1429.1  262282.13  41895.65  15.97
1432.8  260940.13  41633.07  15.96
1436.5  260175.31  41652.69  16.01
1440.2  259309.53  41791.06  16.12
1443.9  257982.73  41926.35  16.25
1447.6  256394.60  42064.73  16.41
1451.2  255396.53  42305.96  16.56
1454.9  254217.00  42546.25  16.74
1458.6  253207.98  42895.79  16.94
1462.3  252078.93  43352.55  17.20
1466.0  250743.26  43939.83  17.52
1469.7  249102.53  44659.99  17.93
1473.3  248117.17  45646.87  18.40
1477.0  246278.47  46585.08  18.92
1480.7  244770.63  47640.39  19.46
1484.4  242927.93  48632.53  20.02
1488.0  241442.67  49694.63  20.58
1491.7  239843.23  50701.87  21.14
1495.4  238116.10  51675.38  21.70
1499.0  236538.50  52621.19  22.25
1502.7  235236.75  53613.52  22.79
1506.4  233839.82  54532.04  23.32
1510.0  232452.67  55414.06  23.84
1513.7  231024.79  56229.77  24.34
1517.4  229734.67  57028.24  24.82
1521.0  228580.53  57809.67  25.29
1524.7  227403.58  58515.80  25.73
1528.3  226127.13  59154.15  26.16
1532.0  224906.73  59763.69  26.57
1535.7  223518.33  60260.95  26.96
1539.3  222285.83  60759.48  27.33
1543.0  221331.67  61294.69  27.69
1546.6  220643.58  61860.93  28.04
1550.3  219685.80  62308.40  28.36
1553.9  218625.30  62689.13  28.67
1557.6  217360.00  62971.81  28.97
1561.2  216127.35  63210.33  29.25
1564.9  214859.60  63413.97  29.51
1568.5  213567.32  63573.99  29.77
1572.2  212436.00  63753.55  30.01
1575.8  211386.00  63943.11  30.25
1579.5  210395.35  64122.64  30.48
1583.1  209431.68  64273.50  30.69
1586.8  208250.00  64335.56  30.89
1590.4  207272.33  64442.40  31.09
1594.0  206006.23  64440.76  31.28
1597.7  204807.27  64440.20  31.46
1601.3  203382.90  64354.95  31.64
1604.9  201975.86  64244.13  31.81
1608.6  200632.87  64129.12  31.96
1612.2  199687.95  64116.73  32.11
1615.8  198654.63  64044.10  32.24
1619.5  197588.83  63936.92  32.36
1623.1  196315.47  63725.69  32.46
1626.7  195077.03  63494.19  32.55
1630.3  193873.08  63246.61  32.62
1634.0  192682.00  62958.89  32.68
1637.6  191545.80  62617.65  32.69
1641.2  190405.60  62190.65  32.66
1644.8  189065.78  61612.44  32.59
1648.5  187926.47  61062.55  32.49
1652.1  186909.60  60548.31  32.39
1655.7  185977.40  60102.74  32.32
1659.3  185120.21  59794.69  32.30
1662.9  183741.67  59412.53  32.33
1666.6  182346.20  59072.85  32.40
1670.2  180986.98  58728.80  32.45
1673.8  179611.03  58318.60  32.47
1677.4  178519.30  57933.95  32.45
1681.0  177767.25  57568.32  32.38
1684.6  177365.50  57228.85  32.27
1688.2  176691.05  56719.94  32.10
1691.8  176035.47  56190.00  31.92
1695.4  175611.40  55729.14  31.73
1699.0  175326.20  55290.63  31.54
1702.6  175067.33  54844.79  31.33
1706.2  174499.33  54268.87  31.10
1709.8  173646.60  53585.23  30.86
1713.4  172962.67  52992.54  30.64
1717.0  172132.50  52409.09  30.45
1720.6  171375.23  51902.46  30.29
1724.2  170697.23  51449.55  30.14
1727.8  169989.75  51030.01  30.02
1731.4  169505.88  50711.73  29.92
1735.0  169270.20  50488.42  29.83
1738.6  168992.10  50214.22  29.71
1742.2  168389.48  49765.01  29.55
1745.8  167719.56  49240.71  29.36
1749.4  166750.65  48576.08  29.13
1753.0  165243.60  47749.22  28.90
1756.6  163580.08  46894.20  28.67
1760.1  162248.18  46148.62  28.44
1763.7  160570.67  45323.63  28.23
1767.3  159155.40  44628.95  28.04
1770.9  157942.52  43992.83  27.85
1774.5  156524.95  43332.38  27.68
1778.0  155395.56  42775.39  27.53
1781.6  154302.75  42275.71  27.40
1785.2  153164.85  41805.04  27.29
1788.8  151996.60  41373.52  27.22
1792.3  150779.53  40947.20  27.16
1795.9  150300.15  40735.71  27.10
1799.5  149742.00  40520.22  27.06
1803.1  148525.53  40141.37  27.03
1806.6  148177.63  40017.28  27.01
1810.2  148866.43  40170.76  26.98
1813.8  149754.60  40375.77  26.96
1817.3  149919.20  40365.69  26.92
1820.9  149385.72  40158.44  26.88
1824.5  148322.80  39781.42  26.82
1828.0  147657.13  39488.28  26.74
1831.6  146855.83  39126.56  26.64
1835.2  146072.50  38716.60  26.51
1838.7  145653.07  38321.40  26.31
1842.3  145290.00  37861.67  26.06
1845.8  144674.46  37230.11  25.73
1849.4  144304.38  36525.17  25.31
1852.9  143697.75  35597.10  24.77
1856.5  142906.48  34415.73  24.08
1860.0  142204.37  33017.48  23.22
1863.6  141886.85  31477.84  22.19
1867.1  141504.65  29660.79  20.96
1870.7  141157.68  27464.66  19.46
1874.2  140459.85  24808.81  17.66
1877.8  139700.33  22024.28  15.77
1881.3  138793.50  19165.13  13.81
1884.9  138215.55  16485.24  11.93
1888.4  137406.91  13933.73  10.14
1891.9  136690.40  11764.22  8.61
1895.5  135737.07  10022.79  7.38
1899.0  135369.75  8771.79  6.48
1901.3  161489.17  6801.50  4.21
1904.1  161379.00  6063.00  3.76
1906.8  160796.40  5546.00  3.45
1909.6  159338.20  5127.38  3.22
1912.4  157988.83  4842.91  3.07
1915.1  157020.60  4680.50  2.98
1917.9  155864.67  4563.94  2.93
1920.6  154961.73  4502.38  2.91
1923.3  154119.70  4461.96  2.90
1926.1  153035.90  4472.82  2.92
1928.8  152049.33  4502.67  2.96
1931.6  151306.32  4559.50  3.01
1934.3  150554.73  4635.05  3.08
1937.0  149858.33  4738.38  3.16
1939.8  149065.92  4857.28  3.26
1942.5  148005.00  4964.67  3.35
1945.2  146571.70  5092.63  3.47
1947.9  145403.07  5234.05  3.60
1950.7  144488.07  5404.22  3.74
1953.4  142896.65  5542.18  3.88
1956.1  141645.50  5709.64  4.03
1958.8  140532.60  5906.77  4.20
1961.5  139159.20  6093.47  4.38
1964.2  137737.60  6282.03  4.56
1966.9  136229.65  6473.77  4.75
1969.6  135054.00  6684.00  4.95
1972.3  133722.50  6894.53  5.16
1975.0  132705.75  7130.15  5.37
1977.7  131632.83  7370.73  5.60
1980.4  130509.37  7606.54  5.83
1983.1  129442.50  7856.62  6.07
1985.8  128559.90  8120.00  6.32
1988.4  127564.67  8369.11  6.56
1991.1  126659.63  8624.70  6.81
1993.8  125820.57  8883.78  7.06
1996.5  125200.17  9156.64  7.31
1999.1  124528.07  9435.25  7.58
2001.8  123853.80  9706.74  7.84
2004.5  123176.00  9967.68  8.09
2007.1  122458.05  10215.65  8.34
2009.8  121721.37  10457.85  8.59
2012.4  121133.10  10701.90  8.83
2015.1  120590.40  10935.55  9.07
2017.8  119822.03  11119.73  9.28
2020.4  119314.98  11339.53  9.50
2023.1  118950.07  11560.03  9.72
2025.7  118716.00  11775.11  9.92
2028.3  118378.00  11960.00  10.10
2031.0  117980.45  12133.51  10.28
2033.6  117702.30  12301.80  10.45
2036.2  117458.70  12461.30  10.61
2038.9  116875.80  12574.40  10.76
2041.5  116533.12  12708.90  10.91
2044.1  115988.40  12812.20  11.05
2046.8  115631.70  12922.40  11.18
2049.4  115022.70  12989.10  11.29
2052.0  114738.53  13097.09  11.41
2054.6  114362.50  13186.25  11.53
2057.2  113795.33  13263.02  11.66
2059.8  113472.20  13367.82  11.78
2062.4  112619.33  13397.52  11.90
2065.0  112109.80  13466.80  12.01
2067.6  111233.38  13481.78  12.12
2070.2  110631.93  13539.89  12.24
2072.8  110013.05  13589.28  12.35
2075.4  109576.25  13644.17  12.45
2078.0  108948.47  13675.65  12.55
2080.6  108398.40  13728.00  12.66
2083.2  107724.80  13754.90  12.77
2085.8  107235.72  13786.91  12.86
2088.4  106574.17  13797.67  12.95
2090.9  105791.18  13789.27  13.03
2093.5  104919.47  13769.51  13.12
2096.1  104170.33  13763.48  13.21
2098.7  103414.97  13740.06  13.29
2101.2  102468.20  13693.87  13.36
2103.8  101795.73  13676.40  13.44
2106.4  101132.00  13658.94  13.51
2108.9  100477.00  13621.09  13.56
2111.5  99656.07  13565.78  13.61
2114.0  99053.47  13527.93  13.66
2116.6  98551.25  13504.17  13.70
2119.1  98011.33  13459.76  13.73
2121.7  97527.50  13428.33  13.77
2124.2  97134.67  13398.39  13.79
2126.8  96353.17  13318.46  13.82
2129.3  95955.20  13296.80  13.86
2131.9  95383.20  13261.60  13.90
2134.4  94960.50  13251.40  13.95
2136.9  94571.97  13248.01  14.01
2139.4  94048.73  13229.07  14.07
2142.0  93596.53  13226.11  14.13
2144.5  93325.40  13243.20  14.19
2147.0  93094.27  13268.98  14.25
2149.5  92602.93  13263.02  14.32
2152.1  92420.53  13289.34  14.38
2154.6  92334.93  13309.87  14.41
2157.1  91823.42  13282.86  14.47
2159.6  91396.50  13270.75  14.52
2162.1  91218.40  13286.00  14.57
2164.6  90977.13  13279.87  14.60
2167.1  90676.23  13266.85  14.63
2169.6  90341.77  13253.57  14.67
2172.1  89886.50  13225.21  14.71
2174.6  89562.33  13214.26  14.75
2177.1  89129.28  13191.62  14.80
2179.5  88722.62  13176.87  14.85
2182.0  88235.95  13142.98  14.90
2184.5  87724.78  13111.64  14.95
2187.0  87126.27  13062.02  14.99
2189.5  86459.55  13007.97  15.05
2191.9  85709.00  12939.00  15.10
2194.4  85100.05  12886.13  15.14
2196.9  84384.00  12819.20  15.19
2199.3  83742.33  12756.78  15.23
2201.8  82879.33  12666.31  15.28
2204.3  82450.18  12630.78  15.32
2206.7  81814.10  12575.17  15.37
2209.2  81349.72  12541.95  15.42
2211.6  80734.50  12474.00  15.45
2214.1  80445.75  12447.45  15.47
2216.5  79883.87  12390.18  15.51
2219.0  79566.00  12350.44  15.52
2221.4  79184.58  12296.67  15.53
2223.9  78728.42  12217.33  15.52
2226.3  78222.67  12121.47  15.50
2228.7  77683.00  12011.55  15.46
2231.1  77111.10  11876.70  15.40
2233.6  76536.33  11727.95  15.32
2236.0  76001.33  11576.05  15.23
2238.4  75535.25  11417.39  15.12
2240.9  75105.93  11257.78  14.99
2243.3  74599.33  11075.67  14.85
2245.7  74037.95  10895.25  14.72
2248.1  73563.97  10714.17  14.56
2250.5  73078.00  10532.42  14.41
2252.9  72477.60  10338.75  14.26
2255.3  71938.50  10158.95  14.12
2257.7  71480.00  10000.00  13.99
2260.1  71005.90  9829.32  13.84
2262.5  70420.00  9646.67  13.70
2264.9  69913.28  9487.49  13.57
2267.3  69310.00  9320.00  13.45
2269.7  68828.67  9180.50  13.34
2272.1  68293.63  9035.03  13.23
2274.5  67756.88  8895.15  13.13
2276.8  67281.95  8761.24  13.02
2279.2  66721.95  8619.55  12.92
2281.6  66299.07  8489.56  12.80
2284.0  65852.00  8356.07  12.69
2286.3  65400.53  8228.27  12.58
2288.7  65010.40  8099.15  12.46
2291.1  64480.23  7947.89  12.33
2293.4  64043.47  7799.24  12.18
2295.8  63448.00  7635.73  12.03
2298.2  62865.90  7483.05  11.90
2300.5  62224.20  7310.55  11.75
2302.9  61493.67  7147.22  11.62
2305.2  60811.20  6986.83  11.49
2307.6  60166.80  6857.15  11.40
2309.9  59427.00  6713.22  11.30
2312.2  58827.67  6603.00  11.22
2314.6  58229.10  6492.90  11.15
2316.9  57525.30  6372.15  11.08
2319.2  56964.83  6271.83  11.01
2321.6  56339.97  6157.32  10.93
2323.9  55802.08  6041.67  10.83
2326.2  55275.80  5926.13  10.72
2328.6  54758.00  5820.65  10.63
2330.9  54253.50  5722.50  10.55
2333.2  53805.67  5623.28  10.45
2335.5  53360.90  5531.90  10.37
2337.8  52903.03  5434.80  10.27
2340.1  52331.52  5334.15  10.19
2342.4  51924.17  5246.95  10.11
2344.8  51515.75  5159.94  10.02
2347.1  50962.10  5066.60  9.94
2349.4  50434.30  4972.19  9.86
2351.6  49861.43  4898.75  9.82
2353.9  49385.20  4817.89  9.76
2356.2  48868.87  4739.41  9.70
2358.5  48283.20  4655.47  9.64
2360.8  47723.20  4562.13  9.56
2363.1  47300.68  4475.45  9.46
2365.4  46838.50  4403.23  9.40
2367.7  46375.20  4320.60  9.32
2369.9  45834.35  4232.68  9.23
2372.2  45236.00  4135.64  9.14
2374.5  44663.85  4038.65  9.04
2376.7  44038.78  3926.44  8.92
2379.0  43427.23  3842.88  8.85
2381.3  42828.33  3748.89  8.75
2383.5  42322.13  3652.98  8.63
2385.8  41748.13  3549.61  8.50
2388.0  41229.20  3457.40  8.39
2390.3  40726.40  3378.05  8.29
2392.5  40248.00  3296.00  8.19
2394.8  39784.80  3214.57  8.08
2397.0  39312.00  3126.36  7.95
2399.3  38852.65  3045.83  7.84
2401.5  38416.00  2968.58  7.73
2403.8  37886.07  2877.99  7.60
2406.0  37399.00  2802.03  7.49
2408.2  36988.60  2730.20  7.38
2410.4  36551.20  2654.79  7.26
2412.7  36129.17  2580.36  7.14
2414.9  35761.55  2517.35  7.04
2417.1  35382.20  2446.87  6.92
2419.3  34956.80  2372.27  6.79
2421.6  34565.00  2312.08  6.69
2423.8  34193.10  2256.20  6.60
2426.0  33834.57  2198.51  6.50
2428.2  33489.87  2129.86  6.36
2430.4  33189.20  2068.81  6.23
2432.6  32906.67  2008.89  6.10
2434.8  32587.93  1951.53  5.99
2437.0  32226.57  1898.58  5.89
2439.2  31885.82  1838.27  5.77
2441.4  31574.80  1785.97  5.66
2443.6  31336.20  1736.29  5.54
2445.7  31057.02  1679.88  5.41
2447.9  30769.75  1632.89  5.31
2450.1  30474.45  1587.65  5.21
2452.3  30139.08  1543.42  5.12
2454.5  29785.00  1508.16  5.06
2456.6  29403.60  1464.71  4.98
2458.8  29029.00  1415.70  4.88
2461.0  28746.83  1364.78  4.75
2463.1  28459.80  1324.05  4.65
2465.3  28169.17  1292.61  4.59
2467.5  27921.75  1258.67  4.51
2469.6  27655.50  1233.11  4.46
2471.8  27345.35  1206.34  4.41
2473.9  27059.50  1156.39  4.27
2476.1  26708.50  1122.33  4.20
2478.2  26353.67  1112.03  4.22
2480.4  26048.95  1089.85  4.18
2482.5  25717.82  1047.70  4.07
2484.6  25369.67  1018.11  4.01
2486.8  25104.30  999.57  3.98
2488.9  24748.27  973.30  3.93
2491.1  24418.80  936.13  3.83
2493.2  24029.83  904.78  3.77
2495.3  23617.10  887.18  3.76
2497.4  23296.70  864.03  3.71
2499.5  22964.15  846.93  3.69
2501.7  22825.90  843.58  3.70
2503.8  22701.23  830.26  3.66
2505.9  22635.42  820.00  3.62
2508.0  22631.53  811.61  3.59
2510.1  22604.53  810.71  3.59
2512.2  22662.25  807.40  3.56
2514.3  22836.95  809.96  3.55
2516.4  23009.60  853.67  3.71
