/*** Spectra Vista SIG Data ***/
name= 37_20220825_QUPA_22_avg.sig
comm= Averaged Ref/Tar of files: HR.082522.0029_moc.sig,HR.082522.0030_moc.sig,HR.082522.0031_moc.sig
data=
337.3  3424.13  268.45  7.84
338.8  3559.40  244.62  6.87
340.3  3701.15  255.22  6.90
341.8  3886.63  251.71  6.48
343.2  4084.80  256.25  6.27
344.7  4265.00  246.15  5.77
346.2  4411.80  239.65  5.43
347.7  4640.35  232.20  5.00
349.2  4838.40  223.20  4.61
350.6  5104.78  228.74  4.48
352.1  5394.48  227.28  4.21
353.6  5656.10  231.99  4.10
355.1  5926.80  226.42  3.82
356.6  6260.03  226.62  3.62
358.0  6539.50  232.11  3.55
359.5  6859.80  234.84  3.42
361.0  7182.00  242.25  3.37
362.5  7552.95  245.35  3.25
364.0  7914.30  250.70  3.17
365.4  8345.70  252.10  3.02
366.9  8701.88  251.52  2.89
368.4  9082.58  258.20  2.84
369.9  9458.75  274.37  2.90
371.3  9905.70  290.39  2.93
372.8  10327.95  303.43  2.94
374.3  10750.00  303.56  2.82
375.8  11184.25  298.25  2.67
377.2  11647.70  300.26  2.58
378.7  12105.00  306.40  2.53
380.2  12508.50  312.55  2.50
381.7  13053.08  314.00  2.41
383.1  13528.90  326.48  2.41
384.6  14053.98  332.95  2.37
386.1  14566.48  345.92  2.37
387.6  15038.10  353.69  2.35
389.0  15544.00  355.29  2.29
390.5  16062.75  364.11  2.27
392.0  16663.50  374.83  2.25
393.4  17236.40  379.86  2.20
394.9  17826.30  389.26  2.18
396.4  18371.25  403.65  2.20
397.9  18962.50  415.86  2.19
399.3  19550.90  431.73  2.21
400.8  20139.40  436.31  2.17
402.2  20793.85  445.64  2.14
403.7  21426.75  455.82  2.13
405.2  22041.43  464.48  2.11
406.6  22643.20  480.35  2.12
408.1  23278.00  496.77  2.13
409.6  23925.50  505.48  2.11
411.0  24616.55  520.94  2.12
412.5  25302.38  535.90  2.12
414.0  25978.13  552.26  2.13
415.4  26692.13  571.26  2.14
416.9  27389.78  583.76  2.13
418.4  28124.55  602.22  2.14
419.8  28883.40  613.60  2.12
421.3  29642.98  636.61  2.15
422.7  30450.00  659.54  2.17
424.2  31269.38  679.82  2.17
425.7  32045.80  697.64  2.18
427.1  32836.88  718.30  2.19
428.6  33681.50  737.50  2.19
430.0  34462.43  755.28  2.19
431.5  35372.25  782.92  2.21
432.9  36288.05  805.89  2.22
434.4  37216.35  827.85  2.22
435.9  38080.00  845.60  2.22
437.3  38967.50  868.74  2.23
438.8  39842.63  891.81  2.24
440.2  40761.88  918.35  2.25
441.7  41781.20  946.17  2.26
443.1  42718.00  972.42  2.28
444.6  43727.80  1003.34  2.29
446.0  44711.85  1026.88  2.30
447.5  45715.73  1052.96  2.30
448.9  46698.00  1084.34  2.32
450.4  47746.65  1113.95  2.33
451.8  48672.00  1144.99  2.35
453.3  49658.85  1173.01  2.36
454.7  50710.58  1202.56  2.37
456.2  51617.18  1227.53  2.38
457.6  52622.10  1253.92  2.38
459.1  53646.45  1283.51  2.39
460.5  54663.63  1312.02  2.40
462.0  55763.58  1345.80  2.41
463.4  56868.70  1368.96  2.41
464.8  57900.38  1397.28  2.41
466.3  58919.03  1420.67  2.41
467.7  59945.43  1448.25  2.42
469.2  61057.35  1475.86  2.42
470.6  62115.05  1502.68  2.42
472.0  63196.75  1531.09  2.42
473.5  64254.63  1558.32  2.43
474.9  65364.75  1591.66  2.44
476.4  66571.20  1622.13  2.44
477.8  67700.50  1649.96  2.44
479.2  68744.50  1685.59  2.45
480.7  69899.78  1717.70  2.46
482.1  71108.45  1752.99  2.47
483.6  72380.05  1791.25  2.47
485.0  73533.00  1829.92  2.49
486.4  74801.55  1869.33  2.50
487.9  75962.25  1910.16  2.51
489.3  77188.45  1950.71  2.53
490.7  78307.55  1998.95  2.55
492.2  79600.50  2051.84  2.58
493.6  80780.10  2100.95  2.60
495.0  81958.50  2160.60  2.64
496.5  83207.25  2226.13  2.68
497.9  84381.25  2292.37  2.72
499.3  85613.95  2369.24  2.77
500.7  86933.10  2457.85  2.83
502.2  88154.80  2555.14  2.90
503.6  89483.40  2668.88  2.98
505.0  90639.55  2791.87  3.08
506.5  92018.70  2944.02  3.20
507.9  93264.08  3110.43  3.34
509.3  94675.60  3310.41  3.50
510.7  95983.88  3527.55  3.68
512.2  97445.70  3788.31  3.89
513.6  99015.00  4086.61  4.13
515.0  100513.85  4424.11  4.40
516.4  101974.95  4802.22  4.71
517.8  103663.38  5223.29  5.04
519.3  105069.88  5667.53  5.39
520.7  106695.70  6153.10  5.77
522.1  108054.70  6647.04  6.15
523.5  109462.50  7159.69  6.54
524.9  110916.45  7673.03  6.92
526.3  112331.80  8164.74  7.27
527.8  113944.05  8660.80  7.60
529.2  115251.50  9122.77  7.92
530.6  116886.05  9582.41  8.20
532.0  118650.00  10019.20  8.44
533.4  120043.73  10382.42  8.65
534.8  121035.20  10669.17  8.81
536.3  122769.30  11002.84  8.96
537.7  124790.40  11332.08  9.08
539.1  126281.95  11592.54  9.18
540.5  127549.25  11818.41  9.27
541.9  129419.03  12095.28  9.35
543.3  130774.35  12324.62  9.42
544.7  132194.40  12558.67  9.50
546.1  134071.03  12837.82  9.58
547.5  135340.80  13048.96  9.64
549.0  137170.00  13302.67  9.70
550.4  138709.38  13511.15  9.74
551.8  140308.78  13697.54  9.76
553.2  141894.35  13847.75  9.76
554.6  143291.20  13936.00  9.73
556.0  144868.95  13995.76  9.66
557.4  146542.73  14013.29  9.56
558.8  148243.05  13992.81  9.44
560.2  149763.13  13914.55  9.29
561.6  151506.53  13817.39  9.12
563.0  153154.98  13677.16  8.93
564.4  154810.70  13494.76  8.72
565.8  156389.38  13274.57  8.49
567.2  158207.75  13040.47  8.24
568.6  159764.63  12760.21  7.99
570.0  161266.65  12457.57  7.72
571.4  163042.75  12167.21  7.46
572.8  164883.63  11887.86  7.21
574.2  166588.80  11608.32  6.97
575.6  168198.75  11352.43  6.75
577.0  169782.50  11121.14  6.55
578.4  171557.75  10931.92  6.37
579.8  173146.28  10753.71  6.21
581.2  174921.40  10608.65  6.06
582.5  176412.60  10460.02  5.93
583.9  177991.20  10342.87  5.81
585.3  179852.85  10256.86  5.70
586.7  181409.15  10167.42  5.60
588.1  182954.13  10096.78  5.52
589.5  184644.25  10052.70  5.44
590.9  186347.20  10022.51  5.38
592.3  188212.35  10021.12  5.32
593.7  189732.08  10013.73  5.28
595.0  191438.78  10026.71  5.24
596.4  192929.10  10033.17  5.20
597.8  194464.48  10037.86  5.16
599.2  196072.80  10039.04  5.12
600.6  197876.25  10038.93  5.07
602.0  199240.43  9999.45  5.02
603.3  201109.10  9968.15  4.96
604.7  202854.95  9904.87  4.88
606.1  204405.60  9813.51  4.80
607.5  206103.93  9714.35  4.71
608.9  207855.70  9603.51  4.62
610.2  209279.70  9474.30  4.53
611.6  210935.63  9349.18  4.43
613.0  212559.50  9223.23  4.34
614.4  214001.40  9090.01  4.25
615.8  215499.38  8978.08  4.17
617.1  217119.00  8882.44  4.09
618.5  218818.00  8810.37  4.03
619.9  220412.40  8753.16  3.97
621.3  222115.05  8717.08  3.92
622.6  223793.75  8694.82  3.89
624.0  225338.25  8685.84  3.85
625.4  226895.63  8692.61  3.83
626.8  228571.53  8722.35  3.82
628.1  229940.70  8752.85  3.81
629.5  231862.28  8806.41  3.80
630.9  233508.00  8846.34  3.79
632.2  234917.03  8869.36  3.78
633.6  236581.88  8887.71  3.76
635.0  238151.20  8877.49  3.73
636.3  239760.70  8849.03  3.69
637.7  241217.13  8776.86  3.64
639.1  242952.50  8690.33  3.58
640.4  244515.95  8571.53  3.51
641.8  245788.93  8432.75  3.43
643.2  247465.23  8296.99  3.35
644.5  248893.50  8156.53  3.28
645.9  250680.15  8035.41  3.21
647.2  252457.63  7939.56  3.14
648.6  254360.25  7873.20  3.10
650.0  255916.80  7816.32  3.05
651.3  256507.35  7753.98  3.02
652.7  257768.15  7707.48  2.99
654.0  259915.00  7680.44  2.95
655.4  261502.55  7628.54  2.92
656.8  261912.60  7545.91  2.88
658.1  263161.10  7487.97  2.85
659.5  265504.58  7463.08  2.81
660.8  267232.50  7418.14  2.78
662.2  268150.40  7354.45  2.74
663.5  269897.75  7317.94  2.71
664.9  271321.70  7285.42  2.69
666.2  272172.00  7258.77  2.67
667.6  274061.70  7295.38  2.66
668.9  275210.45  7341.00  2.67
670.3  276353.63  7393.98  2.68
671.6  278067.00  7479.51  2.69
673.0  279328.13  7576.02  2.71
674.3  280647.90  7687.01  2.74
675.7  282052.28  7829.69  2.78
677.0  283263.53  7981.44  2.82
678.4  284717.18  8166.45  2.87
679.7  285884.50  8358.59  2.92
681.1  287217.83  8578.13  2.99
682.4  288449.20  8811.80  3.05
683.8  289775.20  9078.26  3.13
685.1  290855.25  9382.26  3.23
686.4  292240.80  9745.17  3.33
687.8  293588.75  10193.04  3.47
689.1  294701.25  10770.27  3.65
690.5  296182.20  11544.09  3.90
691.8  297052.08  12572.73  4.23
693.1  298459.05  13969.66  4.68
694.5  299685.75  15776.37  5.26
695.8  300982.50  18032.30  5.99
697.1  302233.75  20763.60  6.87
698.5  303362.80  23984.17  7.91
699.8  304525.25  27665.23  9.08
701.1  305749.70  31762.28  10.39
702.5  306589.80  36160.32  11.79
703.8  307642.50  40834.29  13.27
705.1  308926.80  45713.26  14.80
706.5  310050.38  50716.24  16.36
707.8  311134.35  55785.60  17.93
709.1  312058.85  60865.18  19.50
710.5  313309.05  66008.43  21.07
711.8  314251.60  71073.71  22.62
713.1  315366.60  76158.11  24.15
714.4  316347.80  81173.27  25.66
715.8  317262.10  86112.41  27.14
717.1  318688.65  91118.61  28.59
718.4  319715.20  95935.57  30.01
719.7  320920.53  100701.27  31.38
721.0  321525.00  105167.57  32.71
722.4  322352.25  109586.56  34.00
723.7  323396.70  113924.32  35.23
725.0  324558.45  118163.51  36.41
726.3  325575.80  122194.18  37.53
727.6  326192.08  125920.09  38.60
729.0  327208.53  129607.91  39.61
730.3  328083.23  133070.03  40.56
731.6  329077.25  136410.82  41.45
732.9  329992.95  139537.84  42.29
734.2  330919.88  142502.46  43.06
735.5  332008.33  145408.70  43.80
736.8  332890.20  148049.61  44.47
738.1  333811.30  150543.60  45.10
739.5  334896.28  152962.36  45.67
740.8  335674.63  155089.45  46.20
742.1  336494.05  157113.61  46.69
743.4  337275.00  158988.57  47.14
744.7  338276.48  160874.00  47.56
746.0  339284.40  162609.39  47.93
747.3  339967.48  164065.95  48.26
748.6  340801.25  165500.40  48.56
749.9  341614.00  166824.42  48.83
751.2  342329.65  168025.95  49.08
752.5  343271.05  169232.34  49.30
753.8  343903.18  170239.95  49.50
755.1  344708.00  171226.59  49.67
756.4  345441.53  172094.52  49.82
757.7  346588.90  173123.10  49.95
759.0  348530.25  174513.64  50.07
760.3  349852.80  175541.39  50.18
761.6  351572.20  176726.35  50.27
762.9  352190.50  177317.34  50.35
764.2  352685.90  177787.99  50.41
765.5  353054.60  178176.60  50.47
766.8  353572.80  178618.51  50.52
768.1  354199.80  179077.01  50.56
769.3  354915.40  179557.52  50.59
770.6  355691.70  180064.02  50.62
771.9  356526.45  180586.19  50.65
773.2  356988.00  180922.06  50.68
774.5  357700.20  181367.58  50.70
775.8  358490.10  181834.68  50.72
777.1  359186.30  182235.81  50.74
778.4  359632.35  182511.22  50.75
779.6  360504.80  183013.71  50.77
780.9  361050.00  183365.71  50.79
782.2  361608.50  183703.35  50.80
783.5  362065.50  183952.18  50.81
784.8  362686.95  184314.71  50.82
786.0  363209.00  184605.58  50.83
787.3  363693.63  184887.75  50.84
788.6  364205.30  185194.83  50.85
789.9  364793.80  185513.71  50.85
791.2  365556.65  185926.93  50.86
792.4  366352.25  186351.46  50.87
793.7  366932.40  186675.46  50.87
795.0  367643.93  187083.18  50.89
796.2  368432.13  187500.20  50.89
797.5  369300.38  187957.50  50.90
798.8  370073.85  188377.93  50.90
800.0  370841.63  188794.82  50.91
801.3  371396.80  189086.30  50.91
802.6  372104.55  189458.86  50.92
803.8  372865.25  189855.91  50.92
805.1  373428.13  190175.38  50.93
806.4  373989.60  190492.74  50.94
807.7  374631.08  190830.87  50.94
808.9  375322.20  191191.08  50.94
810.2  375883.20  191521.44  50.95
811.4  376498.90  191842.98  50.95
812.7  377243.75  192223.57  50.95
814.0  378168.50  192723.09  50.96
815.2  378881.25  193106.08  50.97
816.5  379333.58  193368.27  50.98
817.7  379865.25  193668.94  50.98
819.0  380491.65  193993.08  50.98
820.2  380688.00  194140.57  51.00
821.5  381444.95  194560.89  51.01
822.7  381939.90  194800.65  51.00
824.0  382301.10  194998.94  51.01
825.2  382799.93  195315.15  51.02
826.5  383163.88  195524.00  51.03
827.7  383815.80  195866.99  51.03
829.0  384245.35  196100.03  51.04
830.2  384572.65  196298.60  51.04
831.5  385152.00  196589.91  51.04
832.7  385502.25  196806.21  51.05
834.0  385816.78  197004.27  51.06
835.2  386216.33  197240.88  51.07
836.4  386520.75  197441.74  51.08
837.7  386933.80  197692.69  51.09
838.9  387342.48  197975.22  51.11
840.1  387749.03  198224.99  51.12
841.4  388171.80  198488.88  51.13
842.6  388531.60  198719.70  51.15
843.8  388869.60  198938.63  51.16
845.1  389395.35  199257.73  51.17
846.3  389748.50  199504.53  51.19
847.5  390186.30  199745.04  51.19
848.8  390637.80  200004.81  51.20
850.0  390936.00  200228.21  51.22
851.2  391486.50  200531.01  51.22
852.5  391779.90  200769.10  51.25
853.7  392283.00  201068.19  51.26
854.9  392766.20  201335.56  51.26
856.1  393130.40  201618.97  51.29
857.4  393385.00  201733.51  51.28
858.6  393845.05  202012.76  51.29
859.8  394188.75  202235.39  51.30
861.0  394594.20  202487.55  51.32
862.2  395034.85  202747.87  51.32
863.5  395396.63  202941.88  51.33
864.7  395960.40  203249.58  51.33
865.9  396360.00  203494.16  51.34
867.1  396702.50  203652.62  51.34
868.3  397004.40  203877.14  51.35
869.5  397465.10  204151.25  51.36
870.8  397953.00  204445.89  51.37
872.0  398533.05  204731.56  51.37
873.2  398955.75  204965.87  51.38
874.4  399376.58  205201.12  51.38
875.6  399832.30  205422.90  51.38
876.8  400265.95  205674.40  51.38
878.0  400738.20  205957.07  51.39
879.2  401265.75  206240.87  51.40
880.4  401734.50  206515.52  51.41
881.6  402238.70  206735.13  51.40
882.8  402662.40  206984.06  51.40
884.0  403266.35  207290.23  51.40
885.2  403858.50  207573.37  51.40
886.5  404445.20  207880.23  51.40
887.7  404932.45  208146.37  51.40
888.8  405626.10  208492.96  51.40
890.0  406132.85  208778.51  51.41
891.2  406845.40  209097.35  51.39
892.4  407467.20  209449.58  51.40
893.6  408138.60  209754.87  51.39
894.8  409083.75  210231.39  51.39
896.0  409902.50  210674.67  51.40
897.2  410858.50  211097.16  51.38
898.4  411655.20  211472.61  51.37
899.6  412176.00  211806.07  51.39
900.8  412738.88  212052.85  51.38
902.0  412933.95  212188.80  51.39
903.2  413263.20  212334.85  51.38
904.3  413535.60  212509.78  51.39
905.5  414238.15  212836.63  51.38
906.7  414956.00  213146.51  51.37
907.9  415576.35  213463.97  51.37
909.1  415835.78  213620.40  51.37
910.2  416027.03  213758.25  51.38
911.4  416379.60  213859.40  51.36
912.6  416673.40  213962.73  51.35
913.8  416870.18  214087.59  51.36
915.0  417333.00  214311.86  51.35
916.2  417641.25  214386.16  51.33
917.3  417672.23  214418.66  51.34
918.5  418141.40  214538.62  51.31
919.7  418329.00  214649.51  51.31
920.8  418363.63  214684.61  51.32
922.0  418533.50  214699.10  51.30
923.2  418782.00  214806.80  51.29
924.4  419137.88  214900.33  51.27
925.5  419637.30  215057.18  51.25
926.7  420291.00  215330.66  51.23
927.9  421219.80  215762.48  51.22
929.0  422761.95  216470.26  51.20
930.2  425083.20  217562.09  51.18
931.4  427650.98  218796.54  51.16
932.5  430512.50  220157.01  51.14
933.7  432089.40  220863.90  51.12
934.9  432853.75  221173.67  51.10
936.0  432469.38  220890.37  51.08
937.2  430335.45  219686.09  51.05
938.3  428739.75  218667.22  51.00
939.5  427230.00  217826.47  50.99
940.7  427515.30  217848.05  50.96
941.8  429089.55  218542.79  50.93
943.0  430737.75  219217.63  50.89
944.2  431601.95  219496.59  50.86
945.3  431262.00  219159.57  50.82
946.5  430656.75  218610.46  50.76
947.6  430982.00  218538.57  50.71
948.8  430929.53  218353.89  50.67
949.9  431121.60  218264.24  50.63
951.1  430727.70  217861.82  50.58
952.2  430848.00  217491.20  50.48
953.4  430458.25  216988.78  50.41
954.5  430466.40  216741.50  50.35
955.7  430542.00  216423.60  50.27
956.8  430570.40  216119.45  50.19
958.0  430153.00  215669.28  50.14
959.1  430231.85  215462.04  50.08
960.3  430053.25  215147.09  50.03
961.4  429930.15  214937.15  49.99
962.6  430111.50  214939.30  49.97
963.7  430054.73  214694.42  49.92
964.9  430005.83  214623.98  49.91
966.0  429739.43  214596.62  49.94
967.2  430036.20  214650.81  49.91
968.3  430089.75  214542.23  49.88
969.5  429986.35  214410.06  49.86
970.6  430200.25  214459.43  49.85
971.8  430573.15  214582.21  49.84
972.9  430558.28  214614.54  49.85
974.0  430839.80  214833.28  49.86
975.2  430840.88  214856.77  49.87
976.3  430947.05  214835.01  49.85
977.5  431497.68  214839.42  49.79
978.6  431707.90  214948.96  49.79
979.7  431945.33  215088.83  49.80
980.9  431986.15  215241.53  49.83
982.0  431955.00  215291.86  49.84
983.2  431731.63  215201.61  49.85
984.3  431777.20  214961.55  49.79
985.4  431616.95  215163.78  49.85
986.6  431729.88  214978.84  49.79
987.7  432425.18  215594.53  49.86
988.9  432943.20  215683.71  49.82
990.0  433709.20  216106.11  49.83
993.1  374808.41  184699.34  49.28
996.9  375880.15  185698.57  49.40
1000.7  377278.01  186822.82  49.52
1004.5  378034.58  187642.14  49.64
1008.4  377944.92  188047.93  49.76
1012.2  378148.00  188565.52  49.87
1016.0  378432.00  189088.08  49.97
1019.8  378863.10  189654.85  50.06
1023.7  379189.02  190108.83  50.14
1027.5  379215.07  190393.55  50.21
1031.3  379737.48  190876.42  50.27
1035.1  379766.98  191101.33  50.32
1038.9  379885.73  191325.86  50.36
1042.7  379761.25  191440.48  50.41
1046.5  379663.17  191513.69  50.44
1050.3  379769.94  191674.69  50.47
1054.2  379533.00  191685.30  50.51
1058.0  379044.87  191509.96  50.52
1061.8  378944.71  191524.41  50.54
1065.6  378810.43  191471.08  50.55
1069.4  379001.27  191543.36  50.54
1073.2  378796.23  191406.88  50.53
1077.0  378405.08  191170.60  50.52
1080.8  377845.83  190815.49  50.50
1084.6  376620.53  190106.48  50.48
1088.4  375857.82  189641.75  50.46
1092.2  374985.00  189080.82  50.42
1096.0  374407.11  188641.03  50.38
1099.8  373978.80  188242.77  50.34
1103.6  373378.12  187742.35  50.28
1107.4  372489.08  187082.35  50.22
1111.2  372288.00  186768.79  50.17
1114.9  371605.50  186172.22  50.10
1118.7  370967.85  185530.60  50.01
1122.5  370222.67  184737.76  49.90
1126.3  369084.63  183635.72  49.75
1130.1  368559.63  182608.97  49.55
1133.9  366977.10  180725.68  49.25
1137.7  365582.50  178658.24  48.87
1141.4  363808.14  176169.61  48.42
1145.2  363145.37  174036.49  47.92
1149.0  362057.50  171824.35  47.46
1152.8  360443.10  169596.46  47.05
1156.6  358776.37  167744.95  46.75
1160.3  357043.00  166224.09  46.56
1164.1  354557.90  164646.65  46.44
1167.9  352714.58  163581.03  46.38
1171.7  351421.88  162868.50  46.35
1175.4  350281.47  162273.23  46.33
1179.2  349313.60  161721.74  46.30
1183.0  349083.33  161467.15  46.25
1186.7  348480.30  161078.17  46.22
1190.5  347301.53  160462.82  46.20
1194.3  346029.77  159854.26  46.20
1198.0  344862.93  159334.08  46.20
1201.8  343438.68  158737.61  46.22
1205.6  342213.67  158291.22  46.26
1209.3  341192.28  158046.47  46.32
1213.1  340124.10  157802.94  46.40
1216.8  339057.40  157621.43  46.49
1220.6  337917.07  157416.36  46.58
1224.3  336636.83  157136.46  46.68
1228.1  335387.20  156888.72  46.78
1231.9  334155.10  156612.29  46.87
1235.6  332713.05  156170.41  46.94
1239.4  331376.00  155783.64  47.01
1243.1  330130.42  155373.68  47.06
1246.9  328923.53  154949.40  47.11
1250.6  327964.80  154606.68  47.14
1254.3  326871.23  154182.59  47.17
1258.1  325890.72  153767.77  47.18
1261.8  324618.00  153184.61  47.19
1265.6  323184.13  152471.81  47.18
1269.3  321625.78  151678.63  47.16
1273.1  321520.73  151526.26  47.13
1276.8  321850.00  151530.27  47.08
1280.6  321915.97  151350.10  47.02
1284.3  320652.80  150521.28  46.94
1288.0  319148.75  149512.02  46.85
1291.8  317735.73  148458.63  46.72
1295.5  316197.20  147329.60  46.59
1299.2  314857.73  146216.02  46.44
1302.9  313399.73  144943.44  46.25
1306.7  311838.45  143531.14  46.03
1310.4  310370.06  142009.56  45.75
1314.1  309004.85  140449.11  45.45
1317.9  307786.25  138809.36  45.10
1321.6  306370.34  136967.10  44.71
1325.3  304713.15  134879.24  44.26
1329.0  303328.32  132833.27  43.79
1332.8  301208.60  130337.29  43.27
1336.5  299333.53  127938.55  42.74
1340.2  298904.67  126163.56  42.21
1343.9  298357.08  124347.68  41.68
1347.6  297582.45  122462.83  41.15
1351.4  297600.00  120958.56  40.64
1355.1  297769.27  119553.13  40.15
1358.8  297696.00  117980.19  39.63
1362.5  297086.23  116069.75  39.07
1366.2  295318.90  113428.12  38.41
1369.9  293560.50  110464.04  37.63
1373.6  291647.94  106967.71  36.68
1377.3  289761.60  102820.25  35.48
1381.0  288461.83  98021.07  33.98
1384.8  286308.75  91993.31  32.13
1388.4  283975.88  85397.43  30.07
1392.2  282198.17  78603.59  27.85
1395.9  280565.70  71814.64  25.60
1399.6  278899.46  65408.40  23.45
1403.3  277740.63  59802.38  21.53
1407.0  276649.70  55065.63  19.90
1410.7  275519.48  51208.98  18.59
1414.3  274339.68  48219.59  17.58
1418.1  273231.50  46014.08  16.84
1421.7  272421.98  44435.07  16.31
1425.4  271543.68  43346.81  15.96
1429.1  270707.63  42640.73  15.75
1432.8  269214.40  42135.92  15.65
1436.5  268432.12  41942.57  15.63
1440.2  267544.30  41898.30  15.66
1443.9  266193.31  41878.15  15.73
1447.6  264541.20  41888.98  15.83
1451.2  263491.80  42024.33  15.95
1454.9  262231.35  42169.18  16.08
1458.6  261161.29  42440.40  16.25
1462.3  260001.50  42826.86  16.47
1466.0  258599.95  43347.75  16.76
1469.7  256894.41  44002.48  17.13
1473.3  255875.00  44922.63  17.56
1477.0  253971.90  45800.11  18.03
1480.7  252362.59  46794.96  18.54
1484.4  250431.43  47743.81  19.06
1488.0  248864.00  48785.29  19.60
1491.7  247226.61  49802.29  20.14
1495.4  245468.06  50797.26  20.69
1499.0  243846.50  51779.96  21.23
1502.7  242517.17  52813.97  21.78
1506.4  241076.42  53785.41  22.31
1510.0  239650.37  54724.91  22.84
1513.7  238184.92  55610.69  23.35
1517.4  236844.00  56487.21  23.85
1521.0  235599.73  57356.76  24.35
1524.7  234374.83  58149.86  24.81
1528.3  233076.63  58893.18  25.27
1532.0  231866.25  59609.08  25.71
1535.7  230459.63  60215.94  26.13
1539.3  229180.94  60821.73  26.54
1543.0  228167.73  61471.46  26.94
1546.6  227474.00  62158.25  27.33
1550.3  226486.00  62714.52  27.69
1553.9  225389.37  63209.70  28.04
1557.6  224103.73  63610.98  28.38
1561.2  222837.30  63956.54  28.70
1564.9  221497.74  64268.13  29.02
1568.5  220161.90  64532.60  29.31
1572.2  219011.40  64820.23  29.60
1575.8  217910.00  65107.11  29.88
1579.5  216918.70  65395.52  30.15
1583.1  215899.06  65671.84  30.42
1586.8  214676.00  65839.11  30.67
1590.4  213629.43  66044.43  30.92
1594.0  212307.33  66139.47  31.15
1597.7  211139.29  66267.81  31.39
1601.3  209747.48  66325.05  31.62
1604.9  208359.38  66351.84  31.84
1608.6  206981.30  66338.27  32.05
1612.2  205957.13  66395.69  32.24
1615.8  204817.60  66398.33  32.42
1619.5  203698.25  66377.64  32.59
1623.1  202377.00  66270.06  32.75
1626.7  201128.20  66145.23  32.89
1630.3  199899.00  66005.64  33.02
1634.0  198786.00  65876.67  33.14
1637.6  197735.13  65744.92  33.25
1641.2  196700.00  65560.65  33.33
1644.8  195442.74  65252.16  33.39
1648.5  194352.27  64951.85  33.42
1652.1  193367.40  64639.32  33.43
1655.7  192381.60  64292.19  33.42
1659.3  191505.62  63951.84  33.39
1662.9  190045.83  63412.25  33.37
1666.6  188563.67  62857.68  33.33
1670.2  187088.30  62299.40  33.30
1673.8  185599.46  61697.92  33.24
1677.4  184434.35  61162.77  33.16
1681.0  183608.38  60698.77  33.06
1684.6  183224.17  60323.39  32.92
1688.2  182549.15  59779.03  32.75
1691.8  181875.98  59268.17  32.59
1695.4  181447.60  58804.90  32.41
1699.0  181076.47  58359.38  32.23
1702.6  180757.67  57908.94  32.04
1706.2  180147.39  57354.32  31.84
1709.8  179221.08  56695.23  31.63
1713.4  178484.62  56096.47  31.43
1717.0  177604.75  55456.25  31.22
1720.6  176812.43  54852.77  31.02
1724.2  176115.00  54288.15  30.83
1727.8  175407.75  53737.34  30.64
1731.4  174905.50  53276.97  30.46
1735.0  174687.33  52939.03  30.31
1738.6  174384.15  52561.14  30.14
1742.2  173755.37  52041.04  29.95
1745.8  173036.32  51465.12  29.74
1749.4  172017.45  50763.12  29.51
1753.0  170447.27  49892.57  29.27
1756.6  168758.63  48985.74  29.03
1760.1  167396.95  48195.47  28.79
1763.7  165646.00  47324.02  28.57
1767.3  164193.50  46591.35  28.38
1770.9  162943.38  45936.05  28.19
1774.5  161496.88  45256.53  28.02
1778.0  160317.66  44687.62  27.87
1781.6  159181.05  44173.55  27.75
1785.2  158002.90  43669.80  27.64
1788.8  156828.60  43221.23  27.56
1792.3  155593.27  42782.94  27.50
1795.9  155102.57  42578.23  27.45
1799.5  154551.67  42384.80  27.42
1803.1  153677.07  42123.81  27.41
1806.6  153829.49  42159.42  27.41
1810.2  154815.97  42413.75  27.40
1813.8  155770.80  42649.81  27.38
1817.3  155855.40  42631.36  27.35
1820.9  155157.05  42388.49  27.32
1824.5  153971.20  41994.62  27.27
1828.0  153146.58  41664.52  27.21
1831.6  152353.18  41305.88  27.11
1835.2  151611.67  40905.01  26.98
1838.7  151219.33  40493.55  26.78
1842.3  150855.00  40012.62  26.52
1845.8  150103.00  39294.48  26.18
1849.4  149627.78  38499.83  25.73
1852.9  149009.35  37471.02  25.15
1856.5  148144.40  36153.52  24.40
1860.0  147407.36  34617.57  23.48
1863.6  147145.62  32939.41  22.39
1867.1  146906.90  30996.58  21.10
1870.7  146765.88  28667.56  19.53
1874.2  146031.75  25851.09  17.70
1877.8  144944.87  22879.91  15.79
1881.3  143673.25  19863.71  13.83
1884.9  142857.55  17082.68  11.96
1888.4  141907.44  14487.05  10.21
1891.9  141001.60  12283.83  8.71
1895.5  139956.17  10522.55  7.52
1899.0  139499.00  9255.08  6.63
1901.3  168625.17  7445.72  4.42
1904.1  168474.00  6675.75  3.96
1906.8  167761.80  6100.60  3.64
1909.6  166147.10  5632.67  3.39
1912.4  164606.98  5296.01  3.22
1915.1  163491.90  5080.72  3.11
1917.9  162230.33  4909.22  3.03
1920.6  161186.30  4802.14  2.98
1923.3  160216.23  4749.11  2.96
1926.1  158982.37  4695.94  2.95
1928.8  157857.33  4678.67  2.96
1931.6  156943.52  4702.27  3.00
1934.3  156072.65  4743.24  3.04
1937.0  155253.23  4811.78  3.10
1939.8  154371.08  4899.75  3.17
1942.5  153186.00  4994.00  3.26
1945.2  151598.15  5075.22  3.35
1947.9  150319.40  5197.27  3.46
1950.7  149303.03  5332.60  3.57
1953.4  147614.35  5456.23  3.70
1956.1  146278.50  5602.92  3.83
1958.8  145088.45  5770.12  3.98
1961.5  143648.80  5921.73  4.12
1964.2  142160.20  6097.00  4.29
1966.9  140609.85  6268.63  4.46
1969.6  139374.00  6456.00  4.63
1972.3  137985.60  6648.30  4.82
1975.0  136944.90  6861.70  5.01
1977.7  135847.20  7076.84  5.21
1980.4  134708.60  7293.87  5.41
1983.1  133600.35  7519.58  5.63
1985.8  132675.00  7751.70  5.84
1988.4  131638.00  7987.78  6.07
1991.1  130708.67  8230.45  6.30
1993.8  129835.93  8473.06  6.53
1996.5  129198.30  8737.30  6.76
1999.1  128508.97  8987.18  6.99
2001.8  127807.87  9237.67  7.23
2004.5  127111.75  9483.28  7.46
2007.1  126367.85  9725.48  7.70
2009.8  125606.37  9942.72  7.92
2012.4  125027.83  10176.28  8.14
2015.1  124449.50  10406.04  8.36
2017.8  123646.60  10607.49  8.58
2020.4  123123.55  10813.92  8.78
2023.1  122766.00  11027.65  8.98
2025.7  122529.33  11249.33  9.18
2028.3  122191.33  11442.89  9.36
2031.0  121766.38  11618.30  9.54
2033.6  121495.50  11794.30  9.71
2036.2  121243.20  11962.50  9.87
2038.9  120625.50  12081.40  10.02
2041.5  120263.85  12226.58  10.17
2044.1  119703.30  12339.50  10.31
2046.8  119329.20  12455.50  10.44
2049.4  118702.80  12528.00  10.55
2052.0  118424.00  12648.78  10.68
2054.6  118037.50  12760.42  10.81
2057.2  117454.60  12855.47  10.95
2059.8  117105.27  12986.47  11.09
2062.4  116219.32  13043.04  11.22
2065.0  115699.20  13134.93  11.35
2067.6  114798.50  13194.13  11.49
2070.2  114188.33  13281.29  11.63
2072.8  113534.58  13356.84  11.76
2075.4  113093.75  13451.67  11.89
2078.0  112461.80  13532.19  12.03
2080.6  111883.20  13607.73  12.16
2083.2  111178.87  13664.31  12.29
2085.8  110696.35  13740.06  12.41
2088.4  110010.33  13791.78  12.54
2090.9  109185.60  13827.47  12.66
2093.5  108294.63  13854.26  12.79
2096.1  107508.00  13883.52  12.91
2098.7  106717.50  13904.02  13.03
2101.2  105751.93  13897.65  13.14
2103.8  105079.47  13932.58  13.26
2106.4  104415.73  13967.51  13.38
2108.9  103752.00  14002.45  13.50
2111.5  102896.13  14011.18  13.62
2114.0  102258.60  14040.29  13.73
2116.6  101736.25  14070.00  13.83
2119.1  101167.33  14099.72  13.94
2121.7  100686.25  14134.17  14.04
2124.2  100273.13  14181.55  14.14
2126.8  99462.47  14152.88  14.23
2129.3  99070.40  14185.60  14.32
2131.9  98472.00  14188.53  14.41
2134.4  98040.30  14204.25  14.49
2136.9  97636.72  14213.33  14.56
2139.4  97107.73  14210.31  14.63
2142.0  96646.67  14216.22  14.71
2144.5  96360.30  14240.00  14.78
2147.0  96113.73  14272.49  14.85
2149.5  95604.53  14257.60  14.91
2152.1  95411.98  14289.49  14.98
2154.6  95326.93  14322.31  15.02
2157.1  94793.67  14285.06  15.07
2159.6  94366.75  14275.97  15.13
2162.1  94185.00  14287.00  15.17
2164.6  93918.07  14290.62  15.22
2167.1  93587.35  14280.08  15.26
2169.6  93263.45  14273.55  15.30
2172.1  92785.77  14247.03  15.35
2174.6  92453.53  14249.04  15.41
2177.1  92007.12  14222.07  15.46
2179.5  91592.15  14207.92  15.51
2182.0  91106.40  14180.83  15.57
2184.5  90558.55  14146.94  15.62
2187.0  89937.40  14096.54  15.67
2189.5  89257.13  14038.49  15.73
2191.9  88483.00  13971.33  15.79
2194.4  87850.45  13917.53  15.84
2196.9  87120.00  13843.20  15.89
2199.3  86439.33  13778.22  15.94
2201.8  85536.53  13672.09  15.98
2204.3  85110.50  13638.62  16.02
2206.7  84483.45  13563.45  16.05
2209.2  83988.57  13513.81  16.09
2211.6  83348.10  13440.90  16.13
2214.1  83042.70  13405.97  16.14
2216.5  82466.53  13320.60  16.15
2219.0  82128.80  13257.69  16.14
2221.4  81733.17  13192.47  16.14
2223.9  81257.17  13093.31  16.11
2226.3  80751.42  12980.92  16.08
2228.7  80193.37  12845.04  16.02
2231.1  79615.80  12691.80  15.94
2233.6  79019.67  12522.62  15.85
2236.0  78480.50  12349.56  15.74
2238.4  77974.75  12174.36  15.61
2240.9  77529.67  12009.40  15.49
2243.3  77003.20  11814.04  15.34
2245.7  76425.95  11608.33  15.19
2248.1  75936.03  11411.83  15.03
2250.5  75414.10  11207.96  14.86
2252.9  74799.83  10996.55  14.70
2255.3  74246.90  10782.48  14.52
2257.7  73780.00  10580.00  14.34
2260.1  73283.47  10381.16  14.17
2262.5  72670.00  10176.67  14.00
2264.9  72139.57  9976.68  13.83
2267.3  71520.00  9773.33  13.67
2269.7  71025.97  9598.55  13.51
2272.1  70477.27  9429.02  13.38
2274.5  69913.28  9257.88  13.24
2276.8  69445.55  9105.15  13.11
2279.2  68852.55  8947.85  13.00
2281.6  68413.07  8808.33  12.88
2284.0  67942.70  8669.17  12.76
2286.3  67488.00  8532.27  12.64
2288.7  67067.43  8408.04  12.54
2291.1  66516.67  8258.30  12.42
2293.4  66066.00  8117.51  12.29
2295.8  65466.80  7958.47  12.16
2298.2  64873.80  7807.35  12.03
2300.5  64201.05  7638.30  11.90
2302.9  63446.67  7474.44  11.78
2305.2  62727.00  7309.57  11.65
2307.6  62065.07  7170.09  11.55
2309.9  61287.00  7019.78  11.45
2312.2  60687.67  6902.67  11.37
2314.6  60071.40  6799.95  11.32
2316.9  59346.90  6682.65  11.26
2319.2  58768.63  6582.83  11.20
2321.6  58115.52  6454.97  11.11
2323.9  57562.50  6354.17  11.04
2326.2  57028.60  6249.57  10.96
2328.6  56492.70  6137.63  10.86
2330.9  55996.50  6023.50  10.76
2333.2  55509.58  5919.61  10.66
2335.5  55051.50  5820.80  10.57
2337.8  54596.02  5718.76  10.47
2340.1  54013.72  5596.55  10.36
2342.4  53570.83  5488.89  10.25
2344.8  53131.42  5389.19  10.14
2347.1  52563.23  5282.28  10.05
2349.4  52020.70  5181.50  9.96
2351.6  51447.83  5082.36  9.88
2353.9  50929.87  4994.42  9.81
2356.2  50402.97  4895.04  9.71
2358.5  49806.40  4797.33  9.63
2360.8  49224.00  4700.27  9.55
2363.1  48770.07  4613.79  9.46
2365.4  48307.50  4527.53  9.37
2367.7  47823.00  4438.40  9.28
2369.9  47277.05  4343.37  9.19
2372.2  46657.87  4242.67  9.09
2374.5  46061.40  4146.45  9.00
2376.7  45432.78  4034.86  8.88
2379.0  44799.97  3935.94  8.79
2381.3  44170.00  3834.44  8.68
2383.5  43659.73  3750.76  8.59
2385.8  43042.47  3639.82  8.46
2388.0  42503.60  3543.93  8.34
2390.3  41984.27  3461.11  8.24
2392.5  41496.00  3372.00  8.13
2394.8  41019.00  3287.17  8.01
2397.0  40525.33  3211.29  7.92
2399.3  40070.98  3135.18  7.82
2401.5  39616.50  3050.25  7.70
2403.8  39068.47  2960.10  7.58
2406.0  38553.75  2880.67  7.47
2408.2  38110.60  2809.16  7.37
2410.4  37687.18  2729.69  7.24
2412.7  37272.73  2651.57  7.11
2414.9  36887.40  2584.82  7.01
2417.1  36487.10  2510.37  6.88
2419.3  36070.40  2432.00  6.74
2421.6  35688.75  2376.67  6.66
2423.8  35308.23  2312.39  6.55
2426.0  34938.15  2246.11  6.43
2428.2  34561.33  2190.85  6.34
2430.4  34247.87  2134.98  6.23
2432.6  33960.00  2080.00  6.12
2434.8  33643.90  2018.37  6.00
2437.0  33274.37  1952.31  5.87
2439.2  32926.60  1896.84  5.76
2441.4  32597.30  1840.50  5.65
2443.6  32331.00  1796.17  5.56
2445.7  32056.62  1740.04  5.43
2447.9  31771.75  1688.56  5.31
2450.1  31457.95  1639.17  5.21
2452.3  31099.02  1599.89  5.14
2454.5  30749.47  1560.16  5.07
2456.6  30345.20  1507.51  4.97
2458.8  29987.10  1458.60  4.86
2461.0  29683.92  1408.03  4.74
2463.1  29376.45  1372.55  4.67
2465.3  29076.43  1346.27  4.63
2467.5  28806.75  1302.92  4.52
2469.6  28550.50  1262.94  4.42
2471.8  28231.33  1231.37  4.36
2473.9  27934.33  1206.67  4.32
2476.1  27573.00  1172.89  4.25
2478.2  27191.50  1142.50  4.20
2480.4  26893.20  1110.32  4.13
2482.5  26538.43  1088.99  4.10
2484.6  26180.00  1049.28  4.01
2486.8  25920.70  1025.73  3.96
2488.9  25600.57  1004.87  3.93
2491.1  25228.00  983.73  3.90
2493.2  24828.17  963.32  3.88
2495.3  24450.83  935.28  3.83
2497.4  24101.70  912.33  3.79
2499.5  23757.13  890.08  3.75
2501.7  23614.70  881.92  3.73
2503.8  23486.92  863.69  3.68
2505.9  23438.33  848.47  3.62
2508.0  23454.82  840.80  3.58
2510.1  23409.28  852.44  3.64
2512.2  23506.35  831.87  3.54
2514.3  23653.23  835.26  3.53
2516.4  23817.30  893.07  3.75
