/*** Spectra Vista SIG Data ***/
name= 45_20220926_LIST_62_avg.sig
comm= Averaged Ref/Tar of files: HR.092722.0050_moc.sig,HR.092722.0051_moc.sig,HR.092722.0052_moc.sig
data=
337.3  3225.63  196.61  6.10
338.8  3367.00  201.56  5.99
340.3  3513.75  205.25  5.84
341.8  3658.00  198.58  5.43
343.2  3862.80  200.43  5.19
344.7  4009.10  192.53  4.80
346.2  4207.55  185.96  4.42
347.7  4443.73  182.77  4.11
349.2  4611.60  189.36  4.11
350.6  4847.70  192.37  3.97
352.1  5108.68  206.86  4.05
353.6  5413.20  205.56  3.80
355.1  5724.75  205.90  3.60
356.6  5997.83  206.01  3.43
358.0  6284.30  219.35  3.49
359.5  6550.80  226.60  3.46
361.0  6882.75  234.27  3.40
362.5  7230.93  245.35  3.39
364.0  7570.20  244.15  3.23
365.4  7952.30  253.17  3.18
366.9  8315.13  268.88  3.23
368.4  8673.45  277.95  3.20
369.9  9053.38  290.33  3.21
371.3  9478.50  306.16  3.23
372.8  9903.15  316.58  3.20
374.3  10320.00  321.48  3.12
375.8  10726.10  327.51  3.05
377.2  11163.50  334.07  2.99
378.7  11593.90  339.20  2.93
380.2  11997.40  342.78  2.86
381.7  12539.60  360.33  2.87
383.1  12989.90  362.93  2.79
384.6  13514.48  370.46  2.74
386.1  13971.93  383.50  2.74
387.6  14445.20  394.75  2.73
389.0  14927.60  404.81  2.71
390.5  15399.00  413.17  2.68
392.0  16002.25  424.71  2.65
393.4  16553.25  437.42  2.64
394.9  17121.60  443.95  2.59
396.4  17646.75  461.31  2.61
397.9  18193.75  477.85  2.63
399.3  18765.83  487.20  2.60
400.8  19316.88  499.92  2.59
402.2  19959.15  506.90  2.54
403.7  20560.05  522.31  2.54
405.2  21165.45  535.28  2.53
406.6  21761.60  548.85  2.52
408.1  22328.80  564.35  2.53
409.6  22959.70  581.15  2.53
411.0  23634.45  595.36  2.52
412.5  24323.60  614.83  2.53
414.0  24959.38  625.61  2.51
415.4  25638.75  640.92  2.50
416.9  26310.38  663.79  2.52
418.4  27022.73  686.53  2.54
419.8  27755.00  709.63  2.56
421.3  28502.18  730.66  2.56
422.7  29266.80  748.03  2.56
424.2  30020.63  773.04  2.58
425.7  30790.70  790.47  2.57
427.1  31570.88  813.56  2.58
428.6  32364.00  842.02  2.60
430.0  33127.03  867.14  2.62
431.5  34014.08  891.52  2.62
432.9  34881.65  921.14  2.64
434.4  35783.85  939.99  2.63
435.9  36624.00  963.73  2.63
437.3  37496.25  989.74  2.64
438.8  38362.95  1017.74  2.65
440.2  39239.20  1047.71  2.67
441.7  40213.40  1076.08  2.68
443.1  41128.00  1100.89  2.68
444.6  42103.40  1130.09  2.68
446.0  43051.05  1161.82  2.70
447.5  44035.48  1194.27  2.71
448.9  44982.30  1228.33  2.73
450.4  45998.40  1258.99  2.74
451.8  46891.00  1284.15  2.74
453.3  47815.28  1312.98  2.75
454.7  48839.73  1344.60  2.75
456.2  49712.78  1373.64  2.76
457.6  50697.23  1402.35  2.77
459.1  51687.68  1432.50  2.77
460.5  52644.00  1462.84  2.78
462.0  53721.30  1493.42  2.78
463.4  54772.60  1520.83  2.78
464.8  55763.63  1552.15  2.78
466.3  56731.13  1578.55  2.78
467.7  57721.58  1604.82  2.78
469.2  58791.28  1636.72  2.78
470.6  59810.85  1672.08  2.80
472.0  60874.38  1697.58  2.79
473.5  61895.75  1729.98  2.79
474.9  62942.25  1762.11  2.80
476.4  64108.80  1797.12  2.80
477.8  65163.00  1826.72  2.80
479.2  66178.00  1860.97  2.81
480.7  67279.80  1890.02  2.81
482.1  68435.20  1927.49  2.82
483.6  69634.55  1968.23  2.83
485.0  70710.38  2003.89  2.83
486.4  71920.65  2041.99  2.84
487.9  72993.38  2081.76  2.85
489.3  74169.83  2129.38  2.87
490.7  75215.30  2169.48  2.88
492.2  76440.00  2221.24  2.91
493.6  77542.45  2272.28  2.93
495.0  78653.25  2326.91  2.96
496.5  79846.68  2385.46  2.99
497.9  80976.65  2451.98  3.03
499.3  82150.65  2527.17  3.08
500.7  83431.75  2610.49  3.13
502.2  84577.80  2702.25  3.19
503.6  85848.00  2812.10  3.28
505.0  86947.75  2930.00  3.37
506.5  88265.85  3070.10  3.48
507.9  89439.23  3224.79  3.61
509.3  90783.20  3408.51  3.75
510.7  92005.88  3618.64  3.93
512.2  93392.70  3858.35  4.13
513.6  94896.55  4139.91  4.36
515.0  96345.93  4453.92  4.62
516.4  97736.63  4800.60  4.91
517.8  99383.50  5193.43  5.23
519.3  100748.85  5608.82  5.57
520.7  102312.10  6069.06  5.93
522.1  103610.65  6534.71  6.31
523.5  104958.90  7024.13  6.69
524.9  106466.40  7527.15  7.07
526.3  107940.70  8019.60  7.43
527.8  109444.50  8507.21  7.77
529.2  110453.70  8959.30  8.11
530.6  111973.05  9426.63  8.42
532.0  113652.00  9886.13  8.70
533.4  115007.40  10289.33  8.95
534.8  115943.58  10625.09  9.16
536.3  117531.90  10989.57  9.35
537.7  119473.20  11363.28  9.51
539.1  120920.58  11667.43  9.65
540.5  122126.75  11941.44  9.78
541.9  123896.55  12256.99  9.89
543.3  125206.78  12521.72  10.00
544.7  126540.00  12795.58  10.11
546.1  128343.33  13115.94  10.22
547.5  129584.00  13373.44  10.32
549.0  131219.00  13655.09  10.41
550.4  132748.75  13912.27  10.48
551.8  134351.63  14147.40  10.53
553.2  135860.75  14340.77  10.56
554.6  137196.80  14469.47  10.55
556.0  138710.70  14562.55  10.50
557.4  140337.40  14617.45  10.42
558.8  142002.00  14637.46  10.31
560.2  143486.25  14604.05  10.18
561.6  145168.13  14553.70  10.03
563.0  146765.23  14461.29  9.85
564.4  148375.20  14342.17  9.67
565.8  149897.50  14185.08  9.46
567.2  151661.00  14016.16  9.24
568.6  153152.63  13789.09  9.00
570.0  154593.85  13526.01  8.75
571.4  156324.35  13266.52  8.49
572.8  158097.38  13013.92  8.23
574.2  159723.20  12764.16  7.99
575.6  161302.50  12525.21  7.77
577.0  162833.00  12311.19  7.56
578.4  164550.75  12136.37  7.38
579.8  166100.63  11965.47  7.20
581.2  167814.35  11829.65  7.05
582.5  169252.20  11691.98  6.91
583.9  170781.40  11579.28  6.78
585.3  172578.60  11501.83  6.66
586.7  174085.93  11418.25  6.56
588.1  175557.88  11350.85  6.47
589.5  177233.00  11309.43  6.38
590.9  178870.00  11286.36  6.31
592.3  180682.35  11286.39  6.25
593.7  182152.43  11288.48  6.20
595.0  183756.60  11311.41  6.16
596.4  185223.85  11322.99  6.11
597.8  186711.00  11347.36  6.08
599.2  188271.60  11364.82  6.04
600.6  190054.48  11382.34  5.99
602.0  191346.53  11359.34  5.94
603.3  193141.70  11343.29  5.87
604.7  194814.05  11301.80  5.80
606.1  196305.00  11222.69  5.72
607.5  197957.80  11128.86  5.62
608.9  199664.55  11021.36  5.52
610.2  201044.03  10878.03  5.41
611.6  202655.78  10748.39  5.30
613.0  204207.40  10611.80  5.20
614.4  205606.05  10470.46  5.09
615.8  207075.38  10343.08  4.99
617.1  208622.40  10229.80  4.90
618.5  210248.80  10141.52  4.82
619.9  211770.83  10065.14  4.75
621.3  213386.63  10023.87  4.70
622.6  214979.25  10001.68  4.65
624.0  216454.50  9996.00  4.62
625.4  217929.53  10009.91  4.59
626.8  219510.20  10040.64  4.57
628.1  220789.80  10073.41  4.56
629.5  222558.70  10133.44  4.55
630.9  224030.13  10179.39  4.54
632.2  225275.23  10203.75  4.53
633.6  226786.38  10217.92  4.51
635.0  228226.80  10187.31  4.46
636.3  229726.70  10118.69  4.40
637.7  231104.88  10008.99  4.33
639.1  232732.50  9878.67  4.24
640.4  234211.43  9716.87  4.15
641.8  235414.78  9534.85  4.05
643.2  236992.70  9359.61  3.95
644.5  238363.25  9172.28  3.85
645.9  239923.80  9004.65  3.75
647.2  240974.48  8840.63  3.67
648.6  242493.75  8736.04  3.60
650.0  243864.00  8655.22  3.55
651.3  244843.78  8591.76  3.51
652.7  246957.70  8560.99  3.47
654.0  249014.60  8532.32  3.43
655.4  250433.90  8486.62  3.39
656.8  250653.40  8394.24  3.35
658.1  252106.20  8324.63  3.30
659.5  254375.10  8266.32  3.25
660.8  255735.00  8173.29  3.20
662.2  256748.80  8080.64  3.15
663.5  258291.15  8001.42  3.10
664.9  259321.40  7919.80  3.05
666.2  260095.20  7867.26  3.02
667.6  261827.60  7863.50  3.00
668.9  262776.65  7864.01  2.99
670.3  264629.13  7897.74  2.98
671.6  265654.88  7929.60  2.98
673.0  266849.63  8005.46  3.00
674.3  268095.10  8088.18  3.02
675.7  269425.38  8196.76  3.04
677.0  270489.03  8310.77  3.07
678.4  271788.50  8457.18  3.11
679.7  272823.68  8615.76  3.16
681.1  274083.20  8812.76  3.22
682.4  275167.10  9042.90  3.29
683.8  276338.40  9306.42  3.37
685.1  277314.75  9622.90  3.47
686.4  278632.20  10050.47  3.61
687.8  279816.00  10604.14  3.79
689.1  280884.00  11339.02  4.04
690.5  282213.45  12354.65  4.38
691.8  283005.20  13726.02  4.85
693.1  284325.45  15564.22  5.47
694.5  285489.75  17859.83  6.26
695.8  286718.25  20643.57  7.20
697.1  287878.50  23876.23  8.29
698.5  288925.60  27527.10  9.53
699.8  289967.90  31537.69  10.88
701.1  291124.33  35824.77  12.31
702.5  291887.20  40246.81  13.79
703.8  292815.00  44778.00  15.29
705.1  293969.33  49372.59  16.80
706.5  294969.63  53958.70  18.29
707.8  295914.00  58504.21  19.77
709.1  296721.58  62984.14  21.23
710.5  297837.83  67469.55  22.65
711.8  298663.90  71845.50  24.06
713.1  299645.10  76221.82  25.44
714.4  300559.40  80527.21  26.79
715.8  301317.60  84765.49  28.13
717.1  302619.00  89075.18  29.43
718.4  303564.80  93215.15  30.71
719.7  304648.63  97306.48  31.94
721.0  305145.00  101118.43  33.14
722.4  305890.75  104888.86  34.29
723.7  306839.55  108602.65  35.39
725.0  307855.58  112213.02  36.45
726.3  308776.60  115639.71  37.45
727.6  309301.58  118764.34  38.40
729.0  310175.25  121852.27  39.28
730.3  310929.60  124743.75  40.12
731.6  311830.50  127499.18  40.89
732.9  312559.98  130058.93  41.61
734.2  313341.88  132470.35  42.28
735.5  314388.10  134811.69  42.88
736.8  315162.60  136914.22  43.44
738.1  316005.80  138891.78  43.95
739.5  316934.25  140785.53  44.42
740.8  317587.60  142431.45  44.85
742.1  318234.88  143961.15  45.24
743.4  318850.00  145361.90  45.59
744.7  319722.50  146773.13  45.91
746.0  320576.10  148081.66  46.19
747.3  321155.55  149167.13  46.45
748.6  321875.00  150231.88  46.67
749.9  322478.00  151168.46  46.88
751.2  323057.10  152013.69  47.05
752.5  323763.15  152859.45  47.21
753.8  324268.70  153554.43  47.35
755.1  324896.00  154257.26  47.48
756.4  325440.78  154890.66  47.59
757.7  326406.85  155668.74  47.69
759.0  328153.43  156798.03  47.78
760.3  329287.20  157585.37  47.86
761.6  330797.60  158522.83  47.92
762.9  331298.75  158944.93  47.98
764.2  331650.10  159266.45  48.02
765.5  331867.00  159516.48  48.07
766.8  332193.60  159816.32  48.11
768.1  332636.00  160145.43  48.14
769.3  333182.50  160512.73  48.18
770.6  333778.90  160889.25  48.20
771.9  334409.08  161283.90  48.23
773.2  334750.80  161508.91  48.25
774.5  335277.80  161838.41  48.27
775.8  335871.70  162193.05  48.29
777.1  336361.85  162498.20  48.31
778.4  336622.00  162692.79  48.33
779.6  337319.30  163076.45  48.34
780.9  337710.00  163321.71  48.36
782.2  338074.00  163567.80  48.38
783.5  338306.00  163734.46  48.40
784.8  338735.93  163994.28  48.41
786.0  339036.60  164193.13  48.43
787.3  339363.45  164395.42  48.44
788.6  339700.05  164609.21  48.46
789.9  340064.20  164829.04  48.47
791.2  340636.78  165150.91  48.48
792.4  341192.33  165476.09  48.50
793.7  341615.20  165707.90  48.51
795.0  342139.88  166016.32  48.52
796.2  342729.15  166322.42  48.53
797.5  343326.08  166652.88  48.54
798.8  343831.23  166987.97  48.57
800.0  344442.13  167300.12  48.57
801.3  344827.20  167520.50  48.58
802.6  345368.48  167798.25  48.59
803.8  345950.55  168100.39  48.59
805.1  346300.50  168322.07  48.61
806.4  346671.90  168539.89  48.62
807.7  347121.45  168801.18  48.63
808.9  347589.80  169071.93  48.64
810.2  348079.55  169322.97  48.64
811.4  348509.10  169561.13  48.65
812.7  349050.00  169862.02  48.66
814.0  349816.15  170257.54  48.67
815.2  350407.75  170577.78  48.68
816.5  350755.68  170795.83  48.69
817.7  351198.60  171034.35  48.70
819.0  351597.40  171288.18  48.72
820.2  351736.00  171372.04  48.72
821.5  352422.45  171721.35  48.73
822.7  352692.25  171916.51  48.74
824.0  352971.00  172077.79  48.75
825.2  353457.68  172317.74  48.75
826.5  353711.55  172497.92  48.77
827.7  354232.40  172782.97  48.78
829.0  354620.55  172993.24  48.78
830.2  354902.65  173168.25  48.79
831.5  355413.05  173421.57  48.79
832.7  355711.13  173594.11  48.80
834.0  356023.18  173779.25  48.81
835.2  356382.13  173985.81  48.82
836.4  356644.75  174159.80  48.83
837.7  357015.40  174401.15  48.85
838.9  357546.90  174647.55  48.85
840.1  357887.70  174855.63  48.86
841.4  358356.20  175098.10  48.86
842.6  358706.80  175326.67  48.88
843.8  359042.20  175542.16  48.89
845.1  359542.30  175821.83  48.90
846.3  359938.90  176048.35  48.91
847.5  360406.20  176295.64  48.92
848.8  360850.20  176530.23  48.92
850.0  361239.90  176756.53  48.93
851.2  361728.45  177046.05  48.94
852.5  362137.60  177257.34  48.95
853.7  362594.25  177529.71  48.96
854.9  363087.30  177807.74  48.97
856.1  363605.45  178064.05  48.97
857.4  363881.13  178201.47  48.97
858.6  364325.55  178487.38  48.99
859.8  364704.38  178703.39  49.00
861.0  365180.40  178923.09  49.00
862.2  365680.88  179165.86  49.00
863.5  366092.03  179394.22  49.00
864.7  366630.00  179666.33  49.00
865.9  367073.40  179884.53  49.01
867.1  367339.10  180060.21  49.02
868.3  367812.90  180283.00  49.01
869.5  368264.20  180538.36  49.02
870.8  368806.50  180834.34  49.03
872.0  369381.53  181076.00  49.02
873.2  369805.80  181296.09  49.02
874.4  370234.80  181540.21  49.03
875.6  370634.65  181742.65  49.04
876.8  371070.65  181980.20  49.04
878.0  371670.80  182224.14  49.03
879.2  372172.95  182483.33  49.03
880.4  372716.63  182719.83  49.02
881.6  373144.90  182960.69  49.03
882.8  373558.40  183185.63  49.04
884.0  374177.15  183484.58  49.04
885.2  374566.70  183715.63  49.05
886.5  375213.55  183943.19  49.02
887.7  375674.33  184153.43  49.02
888.8  376326.83  184457.21  49.02
890.0  376918.65  184713.34  49.01
891.2  377423.60  184965.58  49.01
892.4  378009.45  185226.35  49.00
893.6  378462.80  185500.36  49.01
894.8  379270.00  185901.88  49.02
896.0  380226.75  186285.63  48.99
897.2  380935.75  186677.28  49.00
898.4  381681.30  186982.97  48.99
899.6  382260.00  187216.39  48.98
900.8  382481.90  187377.37  48.99
902.0  382667.10  187443.63  48.98
903.2  382876.20  187553.94  48.99
904.3  383258.10  187652.34  48.96
905.5  383835.35  187894.84  48.95
906.7  384424.50  188126.79  48.94
907.9  384831.30  188359.08  48.95
909.1  385007.18  188425.92  48.94
910.2  385236.53  188471.70  48.92
911.4  385319.03  188535.81  48.93
912.6  385313.50  188576.14  48.94
913.8  385571.03  188602.32  48.92
915.0  385970.55  188748.28  48.90
916.2  386080.50  188792.31  48.90
917.3  385938.90  188694.29  48.89
918.5  386006.70  188731.73  48.89
919.7  386230.80  188778.01  48.88
920.8  386304.60  188728.27  48.85
922.0  386328.25  188662.83  48.83
923.2  386431.50  188692.40  48.83
924.4  386343.00  188693.42  48.84
925.5  386666.80  188715.53  48.81
926.7  387117.63  188911.29  48.80
927.9  387961.80  189180.87  48.76
929.0  389358.90  189787.06  48.74
930.2  391460.80  190698.48  48.71
931.4  393635.03  191791.00  48.72
932.5  396384.60  192941.17  48.68
933.7  397675.20  193478.21  48.65
934.9  398212.50  193658.00  48.63
936.0  397674.88  193270.47  48.60
937.2  395590.95  192070.12  48.55
938.3  393638.25  190996.73  48.52
939.5  392036.40  190106.67  48.49
940.7  392103.90  190075.56  48.48
941.8  393302.85  190678.62  48.48
943.0  394708.50  191128.30  48.42
944.2  395619.90  191250.21  48.34
945.3  394953.00  190772.21  48.30
946.5  394252.65  190155.57  48.23
947.6  393986.20  190035.27  48.23
948.8  393870.75  189704.71  48.16
949.9  393813.00  189496.48  48.12
951.1  393430.05  188959.48  48.03
952.2  393108.00  188542.63  47.96
953.4  392738.75  188068.52  47.89
954.5  392558.40  187718.81  47.82
955.7  392200.20  187333.20  47.76
956.8  392002.10  186862.74  47.67
958.0  391612.00  186346.90  47.58
959.1  391407.15  185958.70  47.51
960.3  390727.53  185486.88  47.47
961.4  390291.20  185187.28  47.45
962.6  390552.75  185105.27  47.40
963.7  390312.08  184792.81  47.34
964.9  390092.85  184587.05  47.32
966.0  389877.30  184396.92  47.30
967.2  389621.25  184271.04  47.29
968.3  389387.25  183985.64  47.25
969.5  389168.40  183779.29  47.22
970.6  389201.30  183700.59  47.20
971.8  389252.50  183755.70  47.21
972.9  389344.58  183689.40  47.18
974.0  389450.50  183745.52  47.18
975.2  389223.63  183564.24  47.16
976.3  388999.63  183407.73  47.15
977.5  389142.08  183382.46  47.12
978.6  388897.20  183405.84  47.16
979.7  389048.10  183570.19  47.18
980.9  389148.28  183350.40  47.12
982.0  388759.50  183258.62  47.14
983.2  388813.93  182979.27  47.06
984.3  387729.40  182758.23  47.14
985.4  387645.25  182708.47  47.13
986.6  386898.75  182623.23  47.20
987.7  387421.65  183070.24  47.25
988.9  388132.20  182815.75  47.10
990.0  388591.80  182936.85  47.08
993.1  390468.05  182710.81  46.79
996.9  389121.23  182701.09  46.95
1000.7  389132.98  183220.50  47.08
1004.5  389205.75  183731.97  47.21
1008.4  388804.21  184058.69  47.34
1012.2  388541.38  184463.76  47.48
1016.0  388155.60  184760.92  47.60
1019.8  387514.05  184898.18  47.71
1023.7  386359.99  184721.72  47.81
1027.5  384705.22  184296.80  47.91
1031.3  383719.18  184104.59  47.98
1035.1  382661.59  183856.24  48.05
1038.9  382182.90  183824.90  48.10
1042.7  381835.92  183867.33  48.15
1046.5  381657.50  183942.79  48.20
1050.3  381660.44  184049.18  48.22
1054.2  381264.33  183998.33  48.26
1058.0  380837.98  183869.59  48.28
1061.8  380744.21  183908.90  48.30
1065.6  380222.00  183653.83  48.30
1069.4  379444.27  183275.43  48.30
1073.2  378114.09  182631.78  48.30
1077.0  377354.20  182230.30  48.29
1080.8  377422.92  182156.25  48.26
1084.6  377406.17  182020.88  48.23
1088.4  377621.43  182027.44  48.20
1092.2  377120.25  181638.32  48.16
1096.0  376429.53  181134.24  48.12
1099.8  375738.57  180586.93  48.06
1103.6  374806.97  179923.03  48.00
1107.4  373654.93  179116.60  47.94
1111.2  373312.90  178696.66  47.87
1114.9  372757.00  178130.00  47.79
1118.7  372438.00  177596.45  47.68
1122.5  371995.87  176893.97  47.55
1126.3  371057.34  175826.94  47.39
1130.1  370670.96  174769.39  47.15
1133.9  368997.30  172793.70  46.83
1137.7  367432.90  170600.27  46.43
1141.4  365297.40  167918.38  45.97
1145.2  364348.17  165599.78  45.45
1149.0  363024.38  163246.04  44.97
1152.8  361204.15  160893.69  44.54
1156.6  359337.18  158906.18  44.22
1160.3  357529.67  157276.76  43.99
1164.1  355139.50  155688.78  43.84
1167.9  353457.29  154599.70  43.74
1171.7  352130.63  153788.63  43.67
1175.4  350679.83  152962.76  43.62
1179.2  349266.75  152145.37  43.56
1183.0  348917.67  151760.81  43.49
1186.7  348833.80  151526.93  43.44
1190.5  348418.33  151170.18  43.39
1194.3  347457.83  150631.42  43.35
1198.0  345981.35  149963.51  43.34
1201.8  344272.10  149247.43  43.35
1205.6  343174.00  148870.81  43.38
1209.3  342557.32  148791.78  43.44
1213.1  342009.83  148771.01  43.50
1216.8  341366.48  148758.95  43.58
1220.6  340257.87  148541.07  43.66
1224.3  339006.67  148252.30  43.73
1228.1  337501.80  147861.26  43.81
1231.9  335886.38  147392.11  43.88
1235.6  334124.93  146813.48  43.94
1239.4  332549.38  146333.96  44.00
1243.1  331141.96  145866.94  44.05
1246.9  329851.30  145418.99  44.09
1250.6  328753.87  145031.99  44.12
1254.3  327578.90  144583.88  44.14
1258.1  326331.13  144084.20  44.15
1261.8  324862.53  143456.23  44.16
1265.6  323630.90  142886.78  44.15
1269.3  322776.68  142431.13  44.13
1273.1  323115.13  142447.30  44.09
1276.8  322932.40  142180.97  44.03
1280.6  321801.40  141487.49  43.97
1284.3  319816.40  140353.54  43.89
1288.0  318515.33  139443.99  43.78
1291.8  317995.59  138775.76  43.64
1295.5  317213.60  137944.61  43.49
1299.2  316066.77  136868.48  43.30
1302.9  314445.48  135478.10  43.08
1306.7  312676.35  133922.13  42.83
1310.4  310955.58  132249.73  42.53
1314.1  309354.83  130530.74  42.19
1317.9  307923.13  128729.85  41.81
1321.6  306355.15  126748.42  41.37
1325.3  304667.48  124590.53  40.89
1329.0  303358.88  122504.65  40.38
1332.8  301393.40  120051.80  39.83
1336.5  299715.20  117708.18  39.27
1340.2  299572.00  115992.50  38.72
1343.9  299558.54  114347.11  38.17
1347.6  299822.70  112835.76  37.63
1351.4  301382.00  111890.07  37.13
1355.1  303539.87  111186.54  36.63
1358.8  305296.00  110265.14  36.12
1362.5  305578.10  108633.61  35.55
1366.2  303555.40  105881.71  34.88
1369.9  300307.38  102323.45  34.07
1373.6  297449.60  98332.35  33.06
1377.3  295914.90  94016.70  31.77
1381.0  295413.50  89076.02  30.15
1384.8  293426.25  82696.25  28.18
1388.4  290145.45  75423.07  25.99
1392.2  287843.42  68133.60  23.67
1395.9  286334.70  61114.77  21.34
1399.6  284479.04  54570.60  19.18
1403.3  282988.15  48895.86  17.28
1407.0  281281.20  44094.57  15.68
1410.7  279422.55  40195.18  14.39
1414.3  277500.07  37115.88  13.38
1418.1  275769.92  34781.99  12.61
1421.7  274370.37  33017.46  12.03
1425.4  272994.80  31691.26  11.61
1429.1  271753.13  30714.86  11.30
1432.8  270046.45  29967.01  11.10
1436.5  269212.53  29495.29  10.96
1440.2  268587.27  29203.07  10.87
1443.9  267463.63  28971.63  10.83
1447.6  265865.60  28784.80  10.83
1451.2  264633.05  28698.63  10.84
1454.9  263170.65  28661.64  10.89
1458.6  261930.97  28758.25  10.98
1462.3  260693.03  28984.26  11.12
1466.0  259315.55  29345.99  11.32
1469.7  257577.13  29835.99  11.58
1473.3  256512.83  30531.24  11.90
1477.0  254473.97  31227.28  12.27
1480.7  252819.58  32042.07  12.67
1484.4  250755.75  32846.54  13.10
1488.0  249172.00  33756.38  13.55
1491.7  247562.22  34667.72  14.00
1495.4  245861.13  35593.05  14.48
1499.0  244296.00  36517.21  14.95
1502.7  243007.33  37491.57  15.43
1506.4  241578.96  38427.00  15.91
1510.0  240124.47  39348.25  16.39
1513.7  238599.38  40224.92  16.86
1517.4  237231.00  41099.81  17.32
1521.0  235956.40  41976.61  17.79
1524.7  234684.67  42799.25  18.24
1528.3  233373.25  43593.79  18.68
1532.0  232120.35  44356.58  19.11
1535.7  230713.58  45037.83  19.52
1539.3  229435.79  45715.24  19.93
1543.0  228447.90  46419.61  20.32
1546.6  227755.67  47146.98  20.70
1550.3  226738.90  47768.00  21.07
1553.9  225670.03  48336.81  21.42
1557.6  224396.33  48830.36  21.76
1561.2  223102.35  49271.40  22.08
1564.9  221774.91  49682.13  22.40
1568.5  220439.57  50051.40  22.71
1572.2  219292.40  50435.49  23.00
1575.8  218176.00  50802.00  23.28
1579.5  217140.30  51161.90  23.56
1583.1  216065.96  51484.68  23.83
1586.8  214732.00  51722.00  24.09
1590.4  213517.17  51961.42  24.34
1594.0  212165.42  52150.32  24.58
1597.7  211311.59  52446.89  24.82
1601.3  210357.00  52696.58  25.05
1604.9  209359.89  52906.16  25.27
1608.6  208002.08  52980.85  25.47
1612.2  206644.35  53030.53  25.66
1615.8  205222.88  53043.11  25.85
1619.5  203976.58  53070.21  26.02
1623.1  202656.33  53045.40  26.18
1626.7  201407.70  53013.16  26.32
1630.3  200191.25  52956.89  26.45
1634.0  199066.00  52888.00  26.57
1637.6  198044.60  52806.27  26.66
1641.2  197009.10  52649.36  26.72
1644.8  195781.34  52380.21  26.75
1648.5  194676.38  52098.91  26.76
1652.1  193719.90  51809.44  26.74
1655.7  192765.00  51525.71  26.73
1659.3  191944.53  51309.80  26.73
1662.9  190499.17  50981.78  26.76
1666.6  189041.93  50680.19  26.81
1670.2  187594.40  50371.01  26.85
1673.8  186103.16  50022.21  26.88
1677.4  184912.05  49704.88  26.88
1681.0  184086.93  49427.38  26.85
1684.6  183660.75  49203.14  26.79
1688.2  182945.35  48817.50  26.68
1691.8  182286.08  48459.45  26.58
1695.4  181831.00  48107.57  26.46
1699.0  181446.53  47756.90  26.32
1702.6  181101.67  47394.19  26.17
1706.2  180464.38  46964.99  26.02
1709.8  179524.36  46469.16  25.88
1713.4  178762.18  46020.42  25.74
1717.0  177855.50  45539.57  25.60
1720.6  177004.50  45055.31  25.45
1724.2  176264.25  44576.71  25.29
1727.8  175543.20  44094.35  25.12
1731.4  175071.88  43663.71  24.94
1735.0  174900.37  43300.11  24.76
1738.6  174708.60  42893.61  24.55
1742.2  174174.09  42373.20  24.33
1745.8  173535.25  41816.85  24.10
1749.4  172597.43  41180.46  23.86
1753.0  171084.13  40404.42  23.62
1756.6  169423.33  39624.13  23.39
1760.1  168079.32  38932.56  23.16
1763.7  166305.33  38180.00  22.96
1767.3  164846.03  37532.11  22.77
1770.9  163577.93  36952.83  22.59
1774.5  162088.06  36367.01  22.44
1778.0  160925.33  35902.25  22.31
1781.6  159832.50  35496.45  22.21
1785.2  158664.00  35115.57  22.13
1788.8  157477.90  34781.77  22.09
1792.3  156233.07  34466.50  22.06
1795.9  155691.25  34329.54  22.05
1799.5  155491.67  34289.86  22.05
1803.1  156439.03  34522.37  22.07
1806.6  158596.84  35001.26  22.07
1810.2  160438.13  35406.43  22.07
1813.8  161312.75  35599.72  22.07
1817.3  160853.60  35494.69  22.07
1820.9  159629.83  35212.63  22.06
1824.5  158207.50  34865.42  22.04
1828.0  157080.92  34543.14  21.99
1831.6  156578.75  34330.11  21.93
1835.2  156329.17  34095.12  21.81
1838.7  156088.00  33777.54  21.64
1842.3  155850.00  33362.14  21.41
1845.8  154614.04  32604.02  21.09
1849.4  153991.73  31818.81  20.66
1852.9  153119.52  30792.38  20.11
1856.5  152060.75  29516.52  19.41
1860.0  151015.63  28000.89  18.54
1863.6  150989.84  26424.59  17.50
1867.1  151640.30  24688.65  16.28
1870.7  152499.90  22643.36  14.85
1874.2  151474.50  20057.78  13.24
1877.8  148804.40  17255.78  11.60
1881.3  145852.38  14530.16  9.96
1884.9  143960.03  12182.49  8.46
1888.4  142369.55  10160.64  7.14
1891.9  140769.13  8552.96  6.08
1895.5  139366.40  7378.56  5.29
1899.0  138653.25  6609.64  4.77
1901.3  178251.33  5463.50  3.07
1904.1  178181.25  4988.00  2.80
1906.8  177067.80  4634.20  2.62
1909.6  174770.05  4332.18  2.48
1912.4  172673.55  4100.13  2.37
1915.1  171143.50  3954.68  2.31
1917.9  169556.50  3842.00  2.27
1920.6  168204.37  3755.90  2.23
1923.3  166760.07  3688.84  2.21
1926.1  164991.10  3627.03  2.20
1928.8  163298.67  3568.89  2.19
1931.6  161972.78  3541.67  2.19
1934.3  160785.60  3514.15  2.19
1937.0  159669.47  3510.97  2.20
1939.8  158402.08  3521.33  2.22
1942.5  156772.00  3516.33  2.24
1945.2  154754.05  3504.23  2.26
1947.9  153098.63  3518.36  2.30
1950.7  151793.53  3532.28  2.33
1953.4  149887.25  3549.42  2.37
1956.1  148425.50  3584.61  2.42
1958.8  147128.80  3624.18  2.46
1961.5  145562.40  3667.73  2.52
1964.2  143980.20  3712.80  2.58
1966.9  142347.45  3758.77  2.64
1969.6  141048.00  3825.00  2.71
1972.3  139623.20  3889.30  2.79
1975.0  138555.60  3964.80  2.86
1977.7  137398.93  4055.67  2.95
1980.4  136225.23  4137.87  3.04
1983.1  135090.90  4236.30  3.14
1985.8  134136.60  4338.40  3.23
1988.4  133085.33  4446.00  3.34
1991.1  132141.80  4555.52  3.45
1993.8  131257.68  4681.72  3.57
1996.5  130602.82  4810.97  3.68
1999.1  129904.87  4940.22  3.80
2001.8  129206.47  5079.28  3.93
2004.5  128513.05  5215.95  4.06
2007.1  127769.15  5342.82  4.18
2009.8  126996.33  5482.17  4.32
2012.4  126397.88  5626.68  4.45
2015.1  125830.83  5769.94  4.59
2017.8  125019.30  5899.44  4.72
2020.4  124510.83  6043.15  4.85
2023.1  124155.97  6190.10  4.99
2025.7  123898.67  6332.45  5.11
2028.3  123552.00  6474.00  5.24
2031.0  123138.35  6605.12  5.36
2033.6  122861.40  6733.80  5.48
2036.2  122591.70  6870.10  5.60
2038.9  121974.00  6977.40  5.72
2041.5  121614.93  7092.46  5.83
2044.1  121051.80  7183.30  5.93
2046.8  120651.60  7296.40  6.05
2049.4  119999.10  7380.50  6.15
2052.0  119716.53  7484.47  6.25
2054.6  119306.25  7574.58  6.35
2057.2  118738.40  7662.05  6.45
2059.8  118397.80  7769.76  6.56
2062.4  117500.67  7830.47  6.66
2065.0  116965.53  7921.13  6.77
2067.6  116053.70  7975.75  6.87
2070.2  115434.82  8048.39  6.97
2072.8  114763.63  8129.75  7.08
2075.4  114327.50  8216.25  7.19
2078.0  113682.68  8273.90  7.28
2080.6  113106.40  8345.33  7.38
2083.2  112397.43  8410.16  7.48
2085.8  111882.10  8475.92  7.58
2088.4  111202.83  8527.11  7.67
2090.9  110393.48  8566.86  7.76
2093.5  109486.90  8603.02  7.86
2096.1  108693.75  8648.66  7.96
2098.7  107929.60  8686.71  8.05
2101.2  106948.40  8698.40  8.13
2103.8  106249.73  8736.25  8.22
2106.4  105577.27  8768.27  8.31
2108.9  104904.80  8800.29  8.39
2111.5  104031.47  8817.76  8.48
2114.0  103376.47  8846.87  8.56
2116.6  102847.50  8881.25  8.64
2119.1  102280.70  8904.01  8.71
2121.7  101780.00  8933.75  8.78
2124.2  101360.20  8971.22  8.85
2126.8  100551.60  8976.56  8.93
2129.3  100144.00  9005.33  8.99
2131.9  99536.80  9022.93  9.06
2134.4  99102.30  9050.60  9.13
2136.9  98702.72  9084.69  9.20
2139.4  98162.87  9106.07  9.28
2142.0  97692.93  9135.62  9.35
2144.5  97401.60  9187.77  9.43
2147.0  97167.87  9246.00  9.52
2149.5  96649.73  9278.76  9.60
2152.1  96489.98  9327.69  9.67
2154.6  96424.00  9393.07  9.74
2157.1  95892.75  9410.33  9.81
2159.6  95465.83  9440.61  9.89
2162.1  95295.20  9491.30  9.96
2164.6  95050.60  9519.98  10.02
2167.1  94716.90  9538.42  10.07
2169.6  94378.67  9563.83  10.13
2172.1  93912.23  9565.73  10.19
2174.6  93584.07  9591.00  10.25
2177.1  93139.68  9608.25  10.32
2179.5  92719.47  9614.80  10.37
2182.0  92237.75  9627.38  10.44
2184.5  91684.55  9630.43  10.50
2187.0  91059.97  9622.00  10.57
2189.5  90357.20  9603.45  10.63
2191.9  89556.50  9569.67  10.69
2194.4  88920.05  9562.73  10.75
2196.9  88147.20  9526.40  10.81
2199.3  87464.00  9502.33  10.86
2201.8  86558.53  9454.31  10.92
2204.3  86082.35  9446.91  10.97
2206.7  85419.20  9419.88  11.03
2209.2  84927.48  9402.35  11.07
2211.6  84288.60  9368.70  11.12
2214.1  83968.05  9359.63  11.15
2216.5  83380.40  9320.78  11.18
2219.0  83032.73  9300.91  11.20
2221.4  82665.33  9268.78  11.21
2223.9  82179.42  9225.81  11.23
2226.3  81673.67  9169.61  11.23
2228.7  81102.63  9095.96  11.22
2231.1  80496.90  9005.70  11.19
2233.6  79883.87  8903.58  11.15
2236.0  79313.50  8802.69  11.10
2238.4  78787.92  8703.53  11.05
2240.9  78314.40  8595.65  10.98
2243.3  77758.13  8466.51  10.89
2245.7  77182.15  8324.83  10.79
2248.1  76683.53  8179.31  10.67
2250.5  76152.87  8049.89  10.57
2252.9  75517.43  7893.60  10.45
2255.3  74953.35  7747.73  10.34
2257.7  74470.00  7600.00  10.21
2260.1  73945.67  7464.80  10.09
2262.5  73330.00  7313.33  9.97
2264.9  72798.47  7164.70  9.84
2267.3  72180.00  7006.67  9.71
2269.7  71668.10  6876.18  9.59
2272.1  71098.30  6744.56  9.49
2274.5  70512.28  6608.97  9.37
2276.8  70026.52  6490.80  9.27
2279.2  69425.40  6365.00  9.17
2281.6  68986.87  6271.53  9.09
2284.0  68508.30  6164.37  9.00
2286.3  68025.07  6059.73  8.91
2288.7  67607.15  5960.65  8.82
2291.1  67028.33  5846.65  8.72
2293.4  66569.07  5735.64  8.62
2295.8  65940.60  5610.07  8.51
2298.2  65339.55  5495.85  8.41
2300.5  64656.45  5371.65  8.31
2302.9  63891.00  5249.33  8.22
2305.2  63128.70  5129.40  8.13
2307.6  62446.78  5017.34  8.03
2309.9  61669.33  4908.33  7.96
2312.2  61049.33  4805.00  7.87
2314.6  60423.30  4709.25  7.79
2316.9  59729.85  4605.75  7.71
2319.2  59162.57  4519.87  7.64
2321.6  58510.08  4423.30  7.56
2323.9  57947.92  4336.81  7.48
2326.2  57404.20  4253.32  7.41
2328.6  56868.90  4176.52  7.34
2330.9  56353.50  4091.50  7.26
2333.2  55858.83  4011.08  7.18
2335.5  55404.60  3930.47  7.09
2337.8  54941.08  3853.24  7.01
2340.1  54358.78  3756.19  6.91
2342.4  53906.67  3679.72  6.83
2344.8  53458.92  3613.42  6.76
2347.1  52881.27  3538.58  6.69
2349.4  52329.17  3462.90  6.62
2351.6  51734.27  3385.79  6.54
2353.9  51216.73  3313.68  6.47
2356.2  50692.00  3242.36  6.40
2358.5  50097.60  3165.87  6.32
2360.8  49515.20  3098.67  6.26
2363.1  49061.70  3035.98  6.19
2365.4  48590.00  2971.90  6.12
2367.7  48108.00  2903.20  6.03
2369.9  47574.75  2835.78  5.96
2372.2  46933.07  2763.47  5.89
2374.5  46327.05  2687.30  5.80
2376.7  45688.35  2617.62  5.73
2379.0  45055.90  2551.58  5.66
2381.3  44415.00  2477.22  5.58
2383.5  43894.40  2413.16  5.50
2385.8  43277.80  2341.57  5.41
2388.0  42739.60  2281.33  5.34
2390.3  42209.73  2223.02  5.27
2392.5  41712.00  2152.00  5.16
2394.8  41248.90  2089.27  5.07
2397.0  40755.87  2030.31  4.98
2399.3  40290.28  1989.94  4.94
2401.5  39837.00  1927.33  4.84
2403.8  39302.48  1872.13  4.76
2406.0  38777.25  1816.97  4.69
2408.2  38372.40  1766.11  4.60
2410.4  37936.85  1722.70  4.54
2412.7  37524.07  1675.55  4.47
2414.9  37140.40  1623.42  4.37
2417.1  36728.40  1570.57  4.28
2419.3  36300.80  1536.00  4.23
2421.6  35895.42  1494.03  4.16
2423.8  35502.73  1447.94  4.08
2426.0  35145.88  1415.18  4.03
2428.2  34796.53  1367.64  3.93
2430.4  34499.30  1340.98  3.89
2432.6  34226.67  1302.22  3.80
2434.8  33924.60  1265.38  3.73
2437.0  33543.03  1235.87  3.68
2439.2  33169.90  1207.49  3.64
2441.4  32829.07  1167.92  3.56
2443.6  32593.52  1137.57  3.49
2445.7  32320.40  1115.29  3.45
2447.9  32050.08  1104.05  3.44
2450.1  31767.05  1067.80  3.36
2452.3  31395.47  1025.81  3.27
2454.5  31004.77  1002.29  3.23
2456.6  30616.27  974.89  3.18
2458.8  30244.50  948.57  3.14
2461.0  29929.00  927.47  3.10
2463.1  29623.80  921.50  3.11
2465.3  29339.83  887.76  3.03
2467.5  29087.00  875.17  3.01
2469.6  28848.83  850.25  2.95
2471.8  28531.67  830.92  2.91
2473.9  28205.83  809.47  2.87
2476.1  27846.00  788.67  2.83
2478.2  27480.93  766.74  2.79
2480.4  27184.85  741.92  2.73
2482.5  26832.62  727.71  2.71
2484.6  26507.25  722.03  2.72
2486.8  26250.40  701.27  2.67
2488.9  25963.58  699.73  2.70
2491.1  25608.80  682.27  2.66
2493.2  25227.33  670.60  2.66
2495.3  24803.57  662.71  2.67
2497.4  24455.90  654.73  2.68
2499.5  24113.17  641.94  2.66
2501.7  23992.67  635.42  2.65
2503.8  23888.12  624.09  2.61
2505.9  23814.17  609.31  2.56
2508.0  23822.67  618.92  2.60
2510.1  23874.25  613.99  2.57
2512.2  23965.10  593.32  2.48
2514.3  24146.80  620.12  2.57
2516.4  24368.90  669.80  2.75
