/*** Spectra Vista SIG Data ***/
name= 54_20220722_LIST_63_avg.sig
comm= Averaged Ref/Tar of files: HR.072222.0037_moc.sig,HR.072222.0038_moc.sig,HR.072222.0039_moc.sig
data=
337.3  3027.13  231.58  7.65
338.8  3174.60  224.47  7.07
340.3  3326.35  231.13  6.95
341.8  3520.83  237.77  6.75
343.2  3640.80  230.88  6.34
344.7  3795.85  221.78  5.84
346.2  3962.45  206.97  5.22
347.7  4129.13  209.73  5.08
349.2  4309.20  206.64  4.80
350.6  4553.90  210.56  4.62
352.1  4822.88  200.06  4.15
353.6  5066.20  203.57  4.02
355.1  5320.65  206.54  3.88
356.6  5538.98  201.02  3.63
358.0  5805.80  204.16  3.52
359.5  6056.40  206.00  3.40
361.0  6344.10  211.47  3.33
362.5  6674.70  214.68  3.22
364.0  6996.70  221.75  3.17
365.4  7334.10  228.55  3.12
366.9  7679.75  228.37  2.97
368.4  7991.58  232.75  2.91
369.9  8296.68  241.42  2.91
371.3  8704.20  249.20  2.86
372.8  9106.65  265.50  2.92
374.3  9486.88  261.58  2.76
375.8  9890.65  269.50  2.72
377.2  10248.90  276.17  2.69
378.7  10625.50  269.00  2.53
380.2  11002.10  269.00  2.44
381.7  11512.65  277.46  2.41
383.1  11965.80  287.47  2.40
384.6  12462.45  298.52  2.40
386.1  12917.95  299.08  2.32
387.6  13367.20  305.43  2.28
389.0  13855.60  300.16  2.17
390.5  14310.45  304.44  2.13
392.0  14864.90  306.82  2.06
393.4  15397.15  329.31  2.14
394.9  15921.00  341.04  2.14
396.4  16430.63  345.00  2.10
397.9  16938.13  355.33  2.10
399.3  17448.93  351.17  2.01
400.8  17970.93  352.27  1.96
402.2  18559.80  366.61  1.98
403.7  19139.63  375.57  1.96
405.2  19697.60  385.11  1.96
406.6  20230.40  395.95  1.96
408.1  20792.00  403.79  1.94
409.6  21357.35  409.73  1.92
411.0  21969.15  424.15  1.93
412.5  22574.30  430.38  1.91
414.0  23186.75  448.25  1.93
415.4  23850.00  461.10  1.93
416.9  24459.98  470.31  1.92
418.4  25117.88  480.57  1.91
419.8  25771.20  495.04  1.92
421.3  26434.48  515.74  1.95
422.7  27178.80  535.92  1.97
424.2  27894.38  551.25  1.98
425.7  28590.20  573.76  2.01
427.1  29292.08  588.69  2.01
428.6  30023.50  609.67  2.03
430.0  30714.20  625.21  2.04
431.5  31521.60  650.73  2.06
432.9  32347.20  671.95  2.08
434.4  33162.38  697.15  2.10
435.9  33922.00  718.67  2.12
437.3  34691.25  738.83  2.13
438.8  35471.48  762.01  2.15
440.2  36274.70  779.75  2.15
441.7  37171.60  805.79  2.17
443.1  38014.25  832.10  2.19
444.6  38907.00  861.11  2.21
446.0  39781.35  887.49  2.23
447.5  40649.13  913.37  2.25
448.9  41512.20  942.56  2.27
450.4  42437.15  973.84  2.29
451.8  43251.00  1001.87  2.32
453.3  44088.90  1030.31  2.34
454.7  45045.33  1059.27  2.35
456.2  45851.08  1082.69  2.36
457.6  46741.28  1109.79  2.37
459.1  47650.20  1129.96  2.37
460.5  48497.75  1155.60  2.38
462.0  49487.98  1181.18  2.39
463.4  50443.40  1209.25  2.40
464.8  51365.25  1232.10  2.40
466.3  52285.20  1256.64  2.40
467.7  53203.50  1278.01  2.40
469.2  54202.83  1304.28  2.41
470.6  55104.10  1326.32  2.41
472.0  56060.73  1356.83  2.42
473.5  56994.38  1380.48  2.42
474.9  57940.50  1409.80  2.43
476.4  59011.20  1445.76  2.45
477.8  60001.00  1473.20  2.46
479.2  60958.00  1498.33  2.46
480.7  61981.95  1524.70  2.46
482.1  63030.90  1560.60  2.48
483.6  64129.10  1593.35  2.48
485.0  65137.50  1630.85  2.50
486.4  66246.15  1668.40  2.52
487.9  67260.38  1708.20  2.54
489.3  68338.73  1751.29  2.56
490.7  69340.03  1792.52  2.59
492.2  70486.50  1842.40  2.61
493.6  71506.65  1896.69  2.65
495.0  72540.00  1951.95  2.69
496.5  73639.15  2017.32  2.74
497.9  74666.40  2087.76  2.80
499.3  75752.35  2162.12  2.85
500.7  76912.50  2250.24  2.93
502.2  77964.00  2353.52  3.02
503.6  79132.00  2468.37  3.12
505.0  80120.85  2603.79  3.25
506.5  81321.60  2761.94  3.40
507.9  82441.83  2941.28  3.57
509.3  83708.80  3145.49  3.76
510.7  84898.13  3377.40  3.98
512.2  86198.63  3645.77  4.23
513.6  87535.00  3960.60  4.52
515.0  88863.58  4311.12  4.85
516.4  90124.65  4704.21  5.22
517.8  91614.75  5160.33  5.63
519.3  92824.63  5635.63  6.07
520.7  94261.45  6157.65  6.53
522.1  95463.23  6693.09  7.01
523.5  96730.10  7252.09  7.50
524.9  98068.50  7819.44  7.97
526.3  99359.40  8372.75  8.43
527.8  100712.70  8919.90  8.86
529.2  101737.20  9436.67  9.28
530.6  103245.25  9983.99  9.67
532.0  104832.00  10490.67  10.01
533.4  106007.18  10905.25  10.29
534.8  106791.88  11248.30  10.53
536.3  108321.30  11634.08  10.74
537.7  110224.80  12045.60  10.93
539.1  111590.55  12366.08  11.08
540.5  112643.40  12636.43  11.22
541.9  114252.83  12950.93  11.34
543.3  115414.33  13218.65  11.45
544.7  116576.40  13485.44  11.57
546.1  118207.10  13805.11  11.68
547.5  119380.80  14061.23  11.78
549.0  120967.00  14351.33  11.86
550.4  122336.25  14593.08  11.93
551.8  123752.95  14812.18  11.97
553.2  125155.30  14989.03  11.98
554.6  126380.80  15098.03  11.95
556.0  127791.45  15175.86  11.88
557.4  129269.00  15206.66  11.76
558.8  130751.55  15192.42  11.62
560.2  132063.38  15111.53  11.44
561.6  133585.95  15012.00  11.24
563.0  135043.70  14866.12  11.01
564.4  136506.45  14688.41  10.76
565.8  137901.88  14467.00  10.49
567.2  139492.00  14225.83  10.20
568.6  140863.88  13931.60  9.89
570.0  142170.15  13604.61  9.57
571.4  143749.45  13290.94  9.25
572.8  145359.25  12982.13  8.93
574.2  146843.20  12678.40  8.63
575.6  148252.50  12391.50  8.36
577.0  149645.90  12133.19  8.11
578.4  151230.63  11913.42  7.88
579.8  152606.03  11704.50  7.67
581.2  154179.00  11531.79  7.48
582.5  155469.60  11361.48  7.31
583.9  156869.20  11217.87  7.15
585.3  158507.10  11107.74  7.01
586.7  159860.35  10995.66  6.88
588.1  161238.25  10904.42  6.76
589.5  162741.25  10840.43  6.66
590.9  164238.00  10794.61  6.57
592.3  165885.90  10781.29  6.50
593.7  167208.60  10765.30  6.44
595.0  168700.05  10767.87  6.38
596.4  170020.55  10764.04  6.33
597.8  171387.10  10756.37  6.28
599.2  172801.20  10753.60  6.22
600.6  174410.93  10752.39  6.16
602.0  175612.43  10705.99  6.10
603.3  177247.55  10657.53  6.01
604.7  178773.28  10586.27  5.92
606.1  180131.40  10476.96  5.82
607.5  181637.70  10356.49  5.70
608.9  183197.95  10220.91  5.58
610.2  184473.45  10054.80  5.45
611.6  185938.50  9901.44  5.33
613.0  187358.70  9735.45  5.20
614.4  188626.20  9570.02  5.07
615.8  189949.50  9422.40  4.96
617.1  191364.60  9292.36  4.86
618.5  192873.60  9187.84  4.76
619.9  194263.80  9098.28  4.68
621.3  195748.88  9038.97  4.62
622.6  197213.00  9001.57  4.56
624.0  198532.50  8973.36  4.52
625.4  199887.60  8968.19  4.49
626.8  201339.78  8983.82  4.46
628.1  202536.68  8999.47  4.44
629.5  204249.00  9046.89  4.43
630.9  205711.83  9078.63  4.41
632.2  206959.20  9087.28  4.39
633.6  208428.38  9085.38  4.36
635.0  209840.00  9044.91  4.31
636.3  211250.30  8972.93  4.25
637.7  212496.25  8854.30  4.17
639.1  214025.00  8724.33  4.08
640.4  215369.88  8564.13  3.98
641.8  216466.80  8368.24  3.87
643.2  217940.28  8188.16  3.76
644.5  219182.50  7983.77  3.64
645.9  220754.25  7808.04  3.54
647.2  222433.58  7665.61  3.45
648.6  224147.25  7543.80  3.37
650.0  225439.20  7439.04  3.30
651.3  225853.38  7337.48  3.25
652.7  227019.45  7265.36  3.20
654.0  229000.00  7215.03  3.15
655.4  230369.13  7127.06  3.09
656.8  230450.40  6997.65  3.04
658.1  231517.30  6879.61  2.97
659.5  233831.85  6799.59  2.91
660.8  235575.00  6711.00  2.85
662.2  236364.80  6573.65  2.78
663.5  237824.55  6470.75  2.72
664.9  239033.60  6376.59  2.67
666.2  239693.40  6301.84  2.63
667.6  241266.28  6271.84  2.60
668.9  242369.00  6270.96  2.59
670.3  243440.00  6267.98  2.57
671.6  244857.38  6310.05  2.58
673.0  245919.38  6372.00  2.59
674.3  247078.00  6444.36  2.61
675.7  248321.68  6548.92  2.64
677.0  249345.03  6663.30  2.67
678.4  250578.43  6810.13  2.72
679.7  251591.58  6980.46  2.77
681.1  252780.83  7169.96  2.84
682.4  253862.70  7399.08  2.91
683.8  255034.00  7679.01  3.01
685.1  255942.00  8006.30  3.13
686.4  257142.60  8427.12  3.28
687.8  258322.50  8962.30  3.47
689.1  259301.50  9662.43  3.73
690.5  260578.65  10599.86  4.07
691.8  261316.83  11818.85  4.52
693.1  262558.80  13448.06  5.12
694.5  263649.75  15488.20  5.87
695.8  264764.50  17975.53  6.79
697.1  265879.25  20917.87  7.87
698.5  266883.90  24298.08  9.10
699.8  267882.45  28089.79  10.49
701.1  268970.85  32231.76  11.98
702.5  269698.00  36603.16  13.57
703.8  270585.00  41172.00  15.22
705.1  271678.88  45872.58  16.88
706.5  272661.75  50630.15  18.57
707.8  273564.00  55389.26  20.25
709.1  274396.58  60104.85  21.90
710.5  275490.50  64846.68  23.54
711.8  276274.70  69471.93  25.15
713.1  277211.30  74092.49  26.73
714.4  278058.70  78614.93  28.27
715.8  278816.90  83033.31  29.78
717.1  280045.50  87513.66  31.25
718.4  280918.40  91774.29  32.67
719.7  281971.35  95971.25  34.04
721.0  282487.50  99870.00  35.35
722.4  283205.45  103705.95  36.62
723.7  284098.95  107469.72  37.83
725.0  285085.13  111110.10  38.97
726.3  285997.25  114563.24  40.06
727.6  286522.23  117700.92  41.08
729.0  287364.88  120802.52  42.04
730.3  288088.80  123687.23  42.93
731.6  288935.15  126454.56  43.77
732.9  289680.65  129024.19  44.54
734.2  290457.75  131439.18  45.25
735.5  291404.18  133803.93  45.92
736.8  292126.20  135911.60  46.52
738.1  292942.30  137903.00  47.08
739.5  293847.13  139815.31  47.58
740.8  294507.68  141488.34  48.04
742.1  295194.13  143090.49  48.47
743.4  295900.00  144580.00  48.86
744.7  296813.25  146082.13  49.22
746.0  297634.35  147438.98  49.54
747.3  298157.53  148545.29  49.82
748.6  298828.75  149648.70  50.08
749.9  299520.00  150678.67  50.31
751.2  300202.00  151624.67  50.51
752.5  301064.95  152600.94  50.69
753.8  301635.60  153387.06  50.85
755.1  302302.00  154152.27  50.99
756.4  302842.53  154804.07  51.12
757.7  303799.83  155608.65  51.22
759.0  305468.80  156748.57  51.31
760.3  306583.20  157562.24  51.39
761.6  308054.60  158528.91  51.46
762.9  308561.25  158984.17  51.52
764.2  308946.50  159337.67  51.57
765.5  309220.05  159616.86  51.62
766.8  309672.00  159957.76  51.65
768.1  310168.00  160322.88  51.69
769.3  310730.70  160694.43  51.72
770.6  311335.05  161088.89  51.74
771.9  312066.30  161521.64  51.76
773.2  312428.40  161770.19  51.78
774.5  313027.00  162131.49  51.79
775.8  313686.05  162506.28  51.81
777.1  314237.00  162824.13  51.82
778.4  314582.68  163038.04  51.83
779.6  315322.80  163447.87  51.84
780.9  315780.00  163720.00  51.85
782.2  316233.50  163979.20  51.85
783.5  316529.00  164171.33  51.87
784.8  317035.13  164445.21  51.87
786.0  317418.50  164671.36  51.88
787.3  317834.55  164908.02  51.88
788.6  318250.00  165142.05  51.89
789.9  318715.60  165400.67  51.90
791.2  319332.73  165737.26  51.90
792.4  319989.40  166084.08  51.90
793.7  320439.60  166336.45  51.91
795.0  321033.08  166662.54  51.91
796.2  321680.78  167008.87  51.92
797.5  322386.90  167379.13  51.92
798.8  323013.25  167727.36  51.93
800.0  323643.60  168067.30  51.93
801.3  324105.80  168331.89  51.94
802.6  324683.78  168641.43  51.94
803.8  325281.25  168967.81  51.95
805.1  325794.88  169232.23  51.94
806.4  326212.20  169473.88  51.95
807.7  326768.18  169741.44  51.95
808.9  327296.85  170040.12  51.95
810.2  327829.95  170307.57  51.95
811.4  328298.70  170564.01  51.95
812.7  328900.00  170885.00  51.96
814.0  329693.80  171315.68  51.96
815.2  330284.25  171625.90  51.96
816.5  330675.05  171856.33  51.97
817.7  331144.80  172085.60  51.97
819.0  331653.85  172351.67  51.97
820.2  331804.00  172456.53  51.98
821.5  332463.90  172795.50  51.97
822.7  332816.53  172998.79  51.98
824.0  333188.10  173165.40  51.97
825.2  333616.73  173408.04  51.98
826.5  333903.33  173562.28  51.98
827.7  334446.10  173824.89  51.97
829.0  334838.20  174013.22  51.97
830.2  335122.65  174169.49  51.97
831.5  335603.80  174421.70  51.97
832.7  335901.30  174564.11  51.97
834.0  336212.50  174720.15  51.97
835.2  336580.20  174901.25  51.96
836.4  336851.90  175052.02  51.97
837.7  337232.40  175261.12  51.97
838.9  337664.83  175513.01  51.98
840.1  337998.83  175724.28  51.99
841.4  338441.20  175965.15  51.99
842.6  338765.80  176151.28  52.00
843.8  339118.20  176346.93  52.00
845.1  339660.05  176609.77  52.00
846.3  339985.70  176830.23  52.01
847.5  340370.10  177048.48  52.02
848.8  340765.20  177267.12  52.02
850.0  341066.60  177458.21  52.03
851.2  341678.25  177736.14  52.02
852.5  342011.70  177939.53  52.03
853.7  342497.25  178176.00  52.02
854.9  342860.70  178417.12  52.04
856.1  343319.60  178658.31  52.04
857.4  343533.63  178777.66  52.04
858.6  344005.15  179020.89  52.04
859.8  344446.88  179237.25  52.04
861.0  344892.60  179468.64  52.04
862.2  345353.43  179687.08  52.03
863.5  345621.90  179897.68  52.05
864.7  346156.80  180164.16  52.05
865.9  346521.40  180368.27  52.05
867.1  346873.70  180500.87  52.04
868.3  347304.00  180727.82  52.04
869.5  347838.70  180964.89  52.03
870.8  348381.00  181243.80  52.02
872.0  348813.08  181517.86  52.04
873.2  349252.35  181724.80  52.03
874.4  349622.33  181926.81  52.04
875.6  350052.70  182099.73  52.02
876.8  350585.55  182333.52  52.01
878.0  351013.35  182558.51  52.01
879.2  351510.45  182843.84  52.02
880.4  351977.63  183083.00  52.02
881.6  352424.03  183324.77  52.02
882.8  352928.80  183469.33  51.98
884.0  353572.30  183723.69  51.96
885.2  354044.90  183994.60  51.97
886.5  354511.50  184286.75  51.98
887.7  354968.58  184515.24  51.98
888.8  355607.40  184837.96  51.98
890.0  356209.85  185084.90  51.96
891.2  356809.60  185326.11  51.94
892.4  357484.05  185602.83  51.92
893.6  358036.60  185865.57  51.91
894.8  358840.25  186311.50  51.92
896.0  359682.00  186722.33  51.91
897.2  360483.50  187086.03  51.90
898.4  361221.30  187427.24  51.89
899.6  361796.63  187667.50  51.87
900.8  362134.88  187825.18  51.87
902.0  362346.60  187932.54  51.87
903.2  362690.55  188081.06  51.86
904.3  363109.80  188285.68  51.85
905.5  363715.85  188527.17  51.83
906.7  364335.00  188788.33  51.82
907.9  364910.35  188984.18  51.79
909.1  365155.43  189128.79  51.79
910.2  365341.13  189211.57  51.79
911.4  365531.40  189321.60  51.79
912.6  365987.05  189407.31  51.75
913.8  366224.70  189487.19  51.74
915.0  366728.25  189640.78  51.71
916.2  366941.25  189668.70  51.69
917.3  366796.13  189646.23  51.70
918.5  367012.10  189720.49  51.69
919.7  367419.15  189835.42  51.67
920.8  367548.08  189800.07  51.64
922.0  367732.75  189817.83  51.62
923.2  368004.00  189826.00  51.58
924.4  368215.88  189868.95  51.56
925.5  368568.10  189891.37  51.52
926.7  369178.38  190080.12  51.49
927.9  369886.80  190409.28  51.48
929.0  371406.60  191000.70  51.43
930.2  373448.80  191927.87  51.39
931.4  375707.70  192981.78  51.36
932.5  378381.35  194122.00  51.30
933.7  379512.15  194652.66  51.29
934.9  380244.38  194832.75  51.24
936.0  379949.38  194520.95  51.20
937.2  378218.70  193377.96  51.13
938.3  376588.95  192423.08  51.10
939.5  375285.60  191511.84  51.03
940.7  375429.60  191427.84  50.99
941.8  376988.33  191914.95  50.91
943.0  378217.50  192418.90  50.88
944.2  379181.40  192610.51  50.80
945.3  378836.25  192215.40  50.74
946.5  378114.75  191628.18  50.68
947.6  378348.80  191462.80  50.60
948.8  378348.75  191127.56  50.52
949.9  378613.20  190846.32  50.41
951.1  378390.68  190338.33  50.30
952.2  378216.00  189883.20  50.20
953.4  378024.00  189371.23  50.10
954.5  377816.40  189006.48  50.03
955.7  378063.00  188553.12  49.87
956.8  377838.60  188091.28  49.78
958.0  377436.00  187595.73  49.70
959.1  377186.48  187231.36  49.64
960.3  376929.03  186831.69  49.57
961.4  376921.85  186545.43  49.49
962.6  377126.75  186397.63  49.43
963.7  376819.20  186218.03  49.42
964.9  377039.55  186026.26  49.34
966.0  376761.38  185954.67  49.36
967.2  377206.20  185926.38  49.29
968.3  376905.15  185784.30  49.29
969.5  376587.53  185600.52  49.28
970.6  376497.40  185553.93  49.28
971.8  376976.08  185643.50  49.25
972.9  376855.58  185544.91  49.24
974.0  377066.30  185676.09  49.24
975.2  376943.13  185662.97  49.25
976.3  376809.78  185668.15  49.27
977.5  376662.30  185759.56  49.32
978.6  376494.10  185806.44  49.35
979.7  376306.35  185916.29  49.41
980.9  376522.38  185781.10  49.34
982.0  376280.80  185836.64  49.39
983.2  376040.80  185704.21  49.38
984.3  375222.00  185834.59  49.53
985.4  375495.18  185992.58  49.53
986.6  375230.38  186120.82  49.60
987.7  376333.83  186623.31  49.59
988.9  376412.40  186689.52  49.60
990.0  376948.60  187067.41  49.63
993.1  331685.38  162206.01  48.90
996.9  331997.43  163072.21  49.12
1000.7  332884.94  164086.80  49.29
1004.5  333349.92  164918.66  49.47
1008.4  333000.96  165413.07  49.67
1012.2  332967.67  165975.35  49.85
1016.0  332880.00  166540.12  50.03
1019.8  332899.88  167093.85  50.19
1023.7  332710.48  167479.94  50.34
1027.5  332315.55  167708.45  50.47
1031.3  332403.30  168089.52  50.57
1035.1  332308.73  168282.05  50.64
1038.9  332301.57  168480.77  50.70
1042.7  332173.58  168626.87  50.76
1046.5  332056.50  168723.36  50.81
1050.3  332097.83  168871.16  50.85
1054.2  331828.58  168866.83  50.89
1058.0  331360.34  168708.49  50.91
1061.8  331257.96  168728.83  50.94
1065.6  331057.43  168607.13  50.93
1069.4  331009.60  168584.71  50.93
1073.2  330571.78  168336.46  50.92
1077.0  330124.88  168058.50  50.91
1080.8  329663.54  167733.93  50.88
1084.6  328787.55  167158.60  50.84
1088.4  328240.39  166765.61  50.81
1092.2  327570.75  166231.93  50.75
1096.0  327053.67  165759.75  50.68
1099.8  326663.78  165292.37  50.60
1103.6  326057.97  164725.99  50.52
1107.4  325216.63  164004.17  50.43
1111.2  325004.10  163592.24  50.34
1114.9  324421.42  162937.25  50.22
1118.7  323950.28  162229.89  50.08
1122.5  323340.33  161334.33  49.90
1126.3  322379.23  160121.38  49.67
1130.1  321978.33  158900.46  49.35
1133.9  320564.30  156820.80  48.92
1137.7  319296.80  154471.68  48.38
1141.4  317666.38  151655.54  47.74
1145.2  317012.98  149118.56  47.04
1149.0  316019.38  146575.42  46.38
1152.8  314534.60  144147.08  45.83
1156.6  313057.62  142210.57  45.43
1160.3  311539.67  140709.24  45.17
1164.1  309411.20  139310.51  45.02
1167.9  307840.63  138407.29  44.96
1171.7  306699.75  137831.63  44.94
1175.4  305594.10  137349.46  44.95
1179.2  304642.13  136892.35  44.94
1183.0  304377.00  136691.91  44.91
1186.7  303939.30  136393.77  44.88
1190.5  303048.33  135903.93  44.85
1194.3  302059.13  135396.51  44.82
1198.0  300970.45  134928.36  44.83
1201.8  299582.50  134406.67  44.86
1205.6  298485.00  134060.62  44.91
1209.3  297687.35  133924.24  44.99
1213.1  296882.48  133778.10  45.06
1216.8  296087.46  133668.93  45.15
1220.6  295146.13  133510.67  45.24
1224.3  294080.25  133284.47  45.32
1228.1  292978.80  133089.54  45.43
1231.9  291843.50  132824.40  45.51
1235.6  290526.23  132455.39  45.59
1239.4  289339.38  132141.71  45.67
1243.1  288234.20  131805.19  45.73
1246.9  287155.46  131442.59  45.77
1250.6  286269.80  131136.22  45.81
1254.3  285295.82  130766.69  45.84
1258.1  284403.47  130393.53  45.85
1261.8  283239.47  129872.15  45.85
1265.6  281944.13  129250.58  45.84
1269.3  280684.20  128579.23  45.81
1273.1  280664.23  128396.65  45.75
1276.8  280866.40  128269.08  45.67
1280.6  280655.60  127933.56  45.58
1284.3  279324.80  127039.09  45.48
1288.0  278024.85  126072.45  45.35
1291.8  276936.66  125077.08  45.16
1295.5  275783.20  123980.06  44.96
1299.2  274689.19  122825.97  44.71
1302.9  273395.57  121464.05  44.43
1306.7  271991.65  119968.22  44.11
1310.4  270678.19  118333.80  43.72
1314.1  269426.30  116640.10  43.29
1317.9  268335.83  114848.99  42.80
1321.6  267069.50  112856.72  42.26
1325.3  265600.13  110629.20  41.65
1329.0  264416.95  108430.88  41.01
1332.8  262554.60  105842.00  40.31
1336.5  260968.40  103348.79  39.60
1340.2  260654.33  101387.00  38.90
1343.9  260321.04  99432.08  38.20
1347.6  259838.10  97482.88  37.52
1351.4  260152.00  95907.36  36.87
1355.1  260670.30  94444.59  36.23
1358.8  260992.00  92841.14  35.57
1362.5  260676.30  90854.97  34.85
1366.2  259110.60  88139.78  34.02
1369.9  257302.00  84958.46  33.02
1373.6  255415.24  81243.54  31.81
1377.3  253779.90  76921.93  30.31
1381.0  252814.33  71923.19  28.45
1384.8  251062.50  65826.43  26.22
1388.4  248828.53  59241.08  23.81
1392.2  247120.42  52610.88  21.29
1395.9  245727.35  46213.81  18.81
1399.6  244226.33  40393.91  16.54
1403.3  243135.33  35458.50  14.58
1407.0  242062.60  31424.67  12.98
1410.7  240940.43  28270.98  11.73
1414.3  239774.91  25907.70  10.81
1418.1  238718.21  24219.81  10.15
1421.7  237872.54  23038.80  9.69
1425.4  236976.35  22242.58  9.39
1429.1  236129.25  21738.05  9.21
1432.8  234792.18  21406.58  9.12
1436.5  234062.57  21274.16  9.09
1440.2  233328.77  21257.40  9.11
1443.9  232204.59  21274.48  9.16
1447.6  230784.40  21320.20  9.24
1451.2  229802.10  21427.24  9.32
1454.9  228658.95  21562.78  9.43
1458.6  227687.98  21790.21  9.57
1462.3  226657.57  22122.62  9.76
1466.0  225473.63  22573.35  10.01
1469.7  223990.43  23140.28  10.33
1473.3  223063.67  23894.38  10.71
1477.0  221367.10  24672.99  11.15
1480.7  219960.41  25547.31  11.61
1484.4  218265.12  26419.17  12.10
1488.0  216890.67  27361.72  12.62
1491.7  215460.55  28301.58  13.14
1495.4  213949.27  29241.45  13.67
1499.0  212526.50  30172.43  14.20
1502.7  211391.58  31148.24  14.73
1506.4  210148.57  32080.62  15.27
1510.0  208905.70  32996.13  15.79
1513.7  207615.04  33877.38  16.32
1517.4  206428.67  34750.14  16.83
1521.0  205368.67  35619.79  17.34
1524.7  204292.83  36437.61  17.84
1528.3  203159.88  37219.37  18.32
1532.0  202051.85  37971.82  18.79
1535.7  200818.02  38646.76  19.24
1539.3  199703.29  39319.71  19.69
1543.0  198848.29  40005.80  20.12
1546.6  198222.92  40712.90  20.54
1550.3  197360.35  41325.07  20.94
1553.9  196410.53  41889.50  21.33
1557.6  195303.53  42383.21  21.70
1561.2  194184.00  42824.51  22.05
1564.9  193032.73  43241.96  22.40
1568.5  191867.67  43615.48  22.73
1572.2  190841.15  44000.59  23.06
1575.8  189896.00  44372.00  23.37
1579.5  188983.25  44729.56  23.67
1583.1  188082.39  45068.96  23.96
1586.8  186984.00  45332.00  24.24
1590.4  186025.87  45604.32  24.52
1594.0  184860.65  45800.56  24.78
1597.7  183887.18  46038.97  25.04
1601.3  182772.45  46214.55  25.29
1604.9  181683.86  46357.56  25.52
1608.6  180538.82  46446.64  25.73
1612.2  179618.18  46573.02  25.93
1615.8  178572.55  46648.55  26.12
1619.5  177576.67  46704.33  26.30
1623.1  176399.00  46688.57  26.47
1626.7  175288.43  46658.53  26.62
1630.3  174236.67  46608.90  26.75
1634.0  173152.00  46526.00  26.87
1637.6  172147.87  46411.96  26.96
1641.2  171114.95  46226.51  27.01
1644.8  169906.66  45938.75  27.04
1648.5  168902.72  45642.91  27.02
1652.1  167987.40  45329.49  26.98
1655.7  167148.20  45032.25  26.94
1659.3  166417.05  44796.97  26.92
1662.9  165183.33  44483.33  26.93
1666.6  163932.93  44213.54  26.97
1670.2  162711.15  43948.36  27.01
1673.8  161505.81  43656.00  27.03
1677.4  160535.30  43408.48  27.04
1681.0  159863.85  43198.19  27.02
1684.6  159507.83  43036.65  26.98
1688.2  158890.35  42724.91  26.89
1691.8  158301.82  42422.98  26.80
1695.4  157904.00  42096.91  26.66
1699.0  157605.70  41764.67  26.50
1702.6  157337.00  41417.19  26.32
1706.2  156863.53  41002.00  26.14
1709.8  156071.09  40525.38  25.97
1713.4  155447.28  40091.53  25.79
1717.0  154698.00  39618.50  25.61
1720.6  153970.28  39143.20  25.42
1724.2  153339.45  38670.67  25.22
1727.8  152697.30  38181.85  25.00
1731.4  152263.38  37726.07  24.78
1735.0  152075.37  37324.31  24.54
1738.6  151842.60  36881.36  24.29
1742.2  151345.83  36342.67  24.01
1745.8  150802.60  35785.10  23.73
1749.4  149978.40  35145.59  23.43
1753.0  148654.00  34397.46  23.14
1756.6  147163.33  33630.71  22.85
1760.1  145995.45  32961.86  22.58
1763.7  144470.67  32239.43  22.32
1767.3  143206.48  31616.03  22.08
1770.9  142124.09  31047.63  21.85
1774.5  140851.23  30476.91  21.64
1778.0  139808.91  30003.54  21.46
1781.6  138849.75  29579.29  21.30
1785.2  137824.33  29174.26  21.17
1788.8  136790.90  28817.27  21.07
1792.3  135713.77  28481.98  20.99
1795.9  135288.73  28309.91  20.93
1799.5  134843.00  28161.95  20.88
1803.1  134374.33  28012.02  20.85
1806.6  134969.98  28060.12  20.79
1810.2  136113.37  28210.47  20.73
1813.8  137017.60  28327.24  20.67
1817.3  137055.20  28279.74  20.63
1820.9  136321.52  28075.29  20.59
1824.5  135247.80  27786.24  20.54
1828.0  134458.50  27517.55  20.47
1831.6  133796.20  27246.46  20.36
1835.2  133223.33  26932.86  20.22
1838.7  132907.33  26581.47  20.00
1842.3  132600.00  26145.00  19.72
1845.8  131860.04  25506.50  19.34
1849.4  131382.75  24784.32  18.86
1852.9  130766.53  23872.84  18.26
1856.5  129948.68  22726.80  17.49
1860.0  129221.05  21389.56  16.55
1863.6  129006.20  19936.72  15.45
1867.1  128916.55  18303.95  14.20
1870.7  128988.60  16426.58  12.73
1874.2  128319.75  14240.76  11.10
1877.8  127069.13  12032.35  9.47
1881.3  125569.75  9935.11  7.91
1884.9  124540.99  8148.37  6.54
1888.4  123523.57  6650.34  5.38
1891.9  122509.93  5503.73  4.49
1895.5  121446.57  4708.41  3.88
1899.0  120842.75  4221.64  3.49
1901.3  151863.00  2703.88  1.78
1904.1  151728.19  2426.81  1.60
1906.8  150947.55  2234.85  1.48
1909.6  149286.38  2087.40  1.40
1912.4  147705.08  1999.93  1.35
1915.1  146474.21  1938.34  1.32
1917.9  145134.38  1892.75  1.30
1920.6  144020.25  1851.50  1.29
1923.3  142899.93  1822.34  1.28
1926.1  141559.38  1801.84  1.27
1928.8  140272.00  1782.00  1.27
1931.6  139220.19  1792.71  1.29
1934.3  138233.55  1804.69  1.31
1937.0  137276.35  1807.48  1.32
1939.8  136228.69  1815.69  1.33
1942.5  134961.75  1828.75  1.36
1945.2  133394.25  1844.43  1.38
1947.9  132101.38  1866.20  1.41
1950.7  131095.53  1894.74  1.45
1953.4  129548.14  1929.10  1.49
1956.1  128332.69  1963.38  1.53
1958.8  127277.31  2003.09  1.57
1961.5  126000.90  2049.30  1.63
1964.2  124692.75  2102.10  1.69
1966.9  123322.09  2149.38  1.74
1969.6  122242.50  2207.25  1.81
1972.3  121011.08  2271.73  1.88
1975.0  120085.65  2347.46  1.95
1977.7  119117.58  2422.38  2.03
1980.4  118119.88  2500.69  2.12
1983.1  117145.46  2595.39  2.22
1985.8  116334.23  2688.30  2.31
1988.4  115427.00  2782.00  2.41
1991.1  114594.55  2887.85  2.52
1993.8  113830.48  2996.45  2.63
1996.5  113274.70  3112.77  2.75
1999.1  112673.69  3231.25  2.87
2001.8  112062.83  3356.21  2.99
2004.5  111461.74  3475.14  3.12
2007.1  110812.99  3591.91  3.24
2009.8  110165.65  3710.18  3.37
2012.4  109675.09  3832.27  3.49
2015.1  109194.40  3962.70  3.63
2017.8  108495.10  4072.78  3.75
2020.4  108053.00  4196.32  3.88
2023.1  107744.00  4325.30  4.01
2025.7  107529.50  4452.50  4.14
2028.3  107250.00  4567.33  4.26
2031.0  106928.74  4684.66  4.38
2033.6  106683.75  4806.75  4.51
2036.2  106442.33  4915.50  4.62
2038.9  105926.85  5009.03  4.73
2041.5  105626.39  5105.79  4.83
2044.1  105143.85  5196.08  4.94
2046.8  104817.60  5287.43  5.04
2049.4  104249.93  5361.38  5.14
2052.0  103981.25  5440.87  5.23
2054.6  103628.44  5527.81  5.33
2057.2  103149.40  5606.80  5.44
2059.8  102867.75  5689.77  5.53
2062.4  102096.14  5748.64  5.63
2065.0  101629.80  5822.95  5.73
2067.6  100854.01  5877.21  5.83
2070.2  100331.01  5940.41  5.92
2072.8  99775.33  5999.25  6.01
2075.4  99389.06  6070.32  6.11
2078.0  98832.26  6124.18  6.20
2080.6  98346.60  6186.40  6.29
2083.2  97730.80  6233.10  6.38
2085.8  97290.79  6288.87  6.46
2088.4  96705.13  6333.50  6.55
2090.9  96006.89  6370.04  6.63
2093.5  95238.88  6397.48  6.72
2096.1  94570.15  6429.40  6.80
2098.7  93878.46  6457.95  6.88
2101.2  93029.65  6473.58  6.96
2103.8  92440.15  6497.60  7.03
2106.4  91857.20  6523.80  7.10
2108.9  91287.35  6554.37  7.18
2111.5  90540.65  6569.65  7.26
2114.0  89970.80  6589.30  7.32
2116.6  89525.63  6606.25  7.38
2119.1  89045.23  6627.60  7.44
2121.7  88620.00  6654.38  7.51
2124.2  88256.23  6684.59  7.57
2126.8  87567.64  6686.31  7.64
2129.3  87225.60  6710.00  7.69
2131.9  86697.60  6721.00  7.75
2134.4  86314.05  6745.91  7.82
2136.9  85966.24  6775.76  7.88
2139.4  85512.35  6798.52  7.95
2142.0  85126.65  6822.90  8.01
2144.5  84879.30  6859.68  8.08
2147.0  84681.30  6905.47  8.15
2149.5  84245.80  6927.80  8.22
2152.1  84090.74  6973.31  8.29
2154.6  84007.20  7026.67  8.36
2157.1  83534.88  7044.12  8.43
2159.6  83187.44  7060.02  8.49
2162.1  83039.78  7093.45  8.54
2164.6  82816.50  7126.28  8.60
2167.1  82526.03  7149.23  8.66
2169.6  82238.01  7163.65  8.71
2172.1  81818.88  7165.07  8.76
2174.6  81537.40  7188.62  8.82
2177.1  81168.83  7203.87  8.88
2179.5  80817.43  7204.11  8.91
2182.0  80370.26  7208.85  8.97
2184.5  79903.78  7211.09  9.02
2187.0  79360.28  7214.14  9.09
2189.5  78756.71  7190.74  9.13
2191.9  78082.88  7163.00  9.17
2194.4  77526.90  7152.95  9.23
2196.9  76867.20  7135.20  9.28
2199.3  76291.75  7109.83  9.32
2201.8  75496.60  7073.70  9.37
2204.3  75090.14  7065.55  9.41
2206.7  74532.49  7042.75  9.45
2209.2  74139.83  7029.52  9.48
2211.6  73589.18  6999.30  9.51
2214.1  73311.60  6992.36  9.54
2216.5  72808.85  6963.27  9.56
2219.0  72518.30  6943.40  9.57
2221.4  72180.94  6924.31  9.59
2223.9  71757.00  6884.65  9.59
2226.3  71303.31  6830.11  9.58
2228.7  70826.44  6772.55  9.56
2231.1  70292.48  6702.30  9.53
2233.6  69769.25  6623.05  9.49
2236.0  69295.19  6545.00  9.45
2238.4  68848.94  6463.19  9.39
2240.9  68443.15  6377.20  9.32
2243.3  67973.80  6282.83  9.24
2245.7  67475.93  6176.46  9.15
2248.1  67050.75  6069.70  9.05
2250.5  66593.83  5970.03  8.96
2252.9  66034.15  5855.42  8.87
2255.3  65528.21  5741.15  8.76
2257.7  65145.00  5630.00  8.64
2260.1  64722.53  5523.35  8.53
2262.5  64177.50  5410.00  8.43
2264.9  63711.14  5298.66  8.32
2267.3  63172.50  5180.00  8.20
2269.7  62735.93  5074.36  8.09
2272.1  62248.58  4963.26  7.97
2274.5  61756.90  4864.38  7.88
2276.8  61339.56  4770.44  7.78
2279.2  60827.63  4673.25  7.68
2281.6  60452.85  4580.33  7.58
2284.0  60024.30  4481.88  7.47
2286.3  59622.00  4390.27  7.36
2288.7  59267.00  4302.46  7.26
2291.1  58790.50  4213.58  7.17
2293.4  58389.10  4122.07  7.06
2295.8  57837.08  4014.43  6.94
2298.2  57302.78  3925.24  6.85
2300.5  56720.59  3834.67  6.76
2302.9  56055.75  3727.75  6.65
2305.2  55419.15  3635.90  6.56
2307.6  54835.66  3554.09  6.48
2309.9  54141.50  3461.67  6.39
2312.2  53599.00  3391.92  6.33
2314.6  53064.45  3327.53  6.27
2316.9  52435.69  3255.08  6.21
2319.2  51921.45  3177.38  6.12
2321.6  51358.56  3107.22  6.05
2323.9  50867.19  3041.67  5.98
2326.2  50393.00  2965.68  5.89
2328.6  49924.88  2897.26  5.80
2330.9  49462.88  2832.38  5.73
2333.2  49037.88  2772.83  5.65
2335.5  48647.55  2712.45  5.58
2337.8  48241.94  2644.62  5.48
2340.1  47740.51  2577.22  5.40
2342.4  47344.38  2518.75  5.32
2344.8  46979.88  2469.90  5.26
2347.1  46471.25  2404.44  5.17
2349.4  45980.81  2349.31  5.11
2351.6  45460.28  2283.20  5.02
2353.9  45032.55  2228.74  4.95
2356.2  44572.28  2173.31  4.88
2358.5  44049.60  2116.80  4.81
2360.8  43545.60  2060.80  4.73
2363.1  43139.30  2013.39  4.67
2365.4  42705.53  1960.55  4.59
2367.7  42296.85  1906.65  4.51
2369.9  41821.13  1854.90  4.44
2372.2  41262.80  1800.27  4.36
2374.5  40739.74  1749.83  4.30
2376.7  40182.05  1696.04  4.22
2379.0  39628.95  1646.12  4.15
2381.3  39086.25  1601.25  4.10
2383.5  38632.00  1554.67  4.02
2385.8  38088.70  1500.25  3.94
2388.0  37612.50  1448.45  3.85
2390.3  37166.40  1403.23  3.78
2392.5  36738.00  1368.00  3.72
2394.8  36318.15  1318.90  3.63
2397.0  35881.30  1277.03  3.56
2399.3  35462.64  1230.52  3.47
2401.5  35077.88  1197.44  3.41
2403.8  34594.44  1163.93  3.36
2406.0  34139.63  1111.29  3.26
2408.2  33772.20  1081.48  3.20
2410.4  33396.04  1045.48  3.13
2412.7  33025.20  1011.62  3.06
2414.9  32722.39  980.38  3.00
2417.1  32365.95  949.33  2.93
2419.3  31977.60  928.00  2.90
2421.6  31600.63  897.71  2.84
2423.8  31275.60  865.53  2.77
2426.0  30955.51  837.43  2.71
2428.2  30634.80  803.60  2.62
2430.4  30330.80  787.39  2.60
2432.6  30100.00  760.00  2.52
2434.8  29844.43  738.51  2.47
2437.0  29519.75  722.04  2.45
2439.2  29185.86  696.11  2.39
2441.4  28875.40  671.45  2.33
2443.6  28673.04  656.29  2.29
2445.7  28436.54  642.11  2.26
2447.9  28181.25  626.25  2.22
2450.1  27903.30  611.18  2.19
2452.3  27591.03  575.26  2.08
2454.5  27274.55  549.61  2.02
2456.6  26931.90  531.43  1.97
2458.8  26587.28  529.10  1.99
2461.0  26306.81  526.21  2.00
2463.1  26048.14  498.34  1.91
2465.3  25802.23  479.24  1.86
2467.5  25576.50  483.06  1.89
2469.6  25339.69  462.42  1.82
2471.8  25070.33  446.75  1.78
2473.9  24785.69  444.96  1.80
2476.1  24467.63  428.46  1.75
2478.2  24152.45  411.30  1.70
2480.4  23888.44  410.61  1.72
2482.5  23573.38  406.44  1.72
2484.6  23269.81  389.58  1.67
2486.8  23043.68  384.65  1.67
2488.9  22751.68  366.96  1.61
2491.1  22407.70  357.00  1.59
2493.2  22069.93  359.25  1.63
2495.3  21717.15  352.74  1.62
2497.4  21408.98  346.15  1.62
2499.5  21107.11  335.80  1.59
2501.7  21001.80  316.34  1.51
2503.8  20900.01  317.62  1.52
2505.9  20833.13  324.59  1.56
2508.0  20836.08  332.82  1.60
2510.1  20829.61  330.84  1.59
2512.2  20919.00  321.13  1.54
2514.3  21028.79  322.72  1.53
2516.4  21187.35  344.75  1.63
