/*** Spectra Vista SIG Data ***/
name= 4_20220926_BENI_69_avg.sig
comm= Averaged Ref/Tar of files: HR.092622.0009_moc.sig,HR.092622.0010_moc.sig,HR.092622.0011_moc.sig
data=
337.3  6317.33  521.43  8.25
338.8  6445.40  500.24  7.76
340.3  6805.80  516.74  7.59
341.8  7076.55  471.77  6.67
343.2  7461.30  461.89  6.19
344.7  7900.50  446.55  5.65
346.2  8142.75  449.63  5.52
347.7  8548.20  443.24  5.19
349.2  8920.80  433.44  4.86
350.6  9350.40  448.04  4.79
352.1  9763.50  433.93  4.44
353.6  10251.20  431.15  4.21
355.1  10843.58  434.63  4.01
356.6  11453.20  459.86  4.02
358.0  12031.75  464.38  3.86
359.5  12560.85  471.54  3.75
361.0  13164.60  482.31  3.66
362.5  13784.33  476.78  3.46
364.0  14483.20  512.95  3.54
365.4  15159.05  523.74  3.45
366.9  15873.28  541.75  3.41
368.4  16569.50  541.63  3.27
369.9  17278.00  558.27  3.23
371.3  18173.65  588.28  3.24
372.8  18961.75  616.47  3.25
374.3  19777.60  631.20  3.19
375.8  20654.58  626.86  3.03
377.2  21481.20  645.84  3.01
378.7  22334.20  646.15  2.89
380.2  23199.00  667.85  2.88
381.7  24106.75  689.27  2.86
383.1  25097.10  703.00  2.80
384.6  26024.63  736.05  2.83
386.1  26995.20  731.12  2.71
387.6  27917.33  750.07  2.69
389.0  28938.60  775.89  2.68
390.5  30018.43  818.53  2.73
392.0  31153.50  828.00  2.66
393.4  32263.50  842.55  2.61
394.9  33288.60  861.91  2.59
396.4  34458.60  883.81  2.56
397.9  35571.00  921.84  2.59
399.3  36549.83  947.04  2.59
400.8  37820.48  973.50  2.57
402.2  38997.75  1008.04  2.58
403.7  40236.15  1026.64  2.55
405.2  41397.80  1057.23  2.55
406.6  42672.60  1087.20  2.55
408.1  43804.88  1121.17  2.56
409.6  44999.30  1157.78  2.57
411.0  46258.85  1195.92  2.59
412.5  47646.25  1227.31  2.58
414.0  49060.38  1271.20  2.59
415.4  50387.40  1320.96  2.62
416.9  51709.45  1360.91  2.63
418.4  53070.83  1404.57  2.65
419.8  54403.65  1456.42  2.68
421.3  55925.10  1501.50  2.68
422.7  57460.00  1550.29  2.70
424.2  58995.00  1612.53  2.73
425.7  60467.00  1674.02  2.77
427.1  61983.30  1723.29  2.78
428.6  63532.90  1781.48  2.80
430.0  65058.68  1828.27  2.81
431.5  66758.90  1901.34  2.85
432.9  68440.50  1974.90  2.89
434.4  70199.70  2044.26  2.91
435.9  71869.20  2099.35  2.92
437.3  73618.13  2176.15  2.96
438.8  75304.15  2231.62  2.96
440.2  76999.48  2301.55  2.99
441.7  78915.70  2374.73  3.01
443.1  80771.85  2455.56  3.04
444.6  82584.83  2529.12  3.06
446.0  84452.60  2594.43  3.07
447.5  86450.00  2673.33  3.09
448.9  88234.50  2741.75  3.11
450.4  90175.00  2826.67  3.13
451.8  92032.88  2904.45  3.16
453.3  93896.63  2975.71  3.17
454.7  95750.55  3051.00  3.19
456.2  97575.45  3123.91  3.20
457.6  99547.65  3197.70  3.21
459.1  101407.95  3272.22  3.23
460.5  103325.83  3340.03  3.23
462.0  105391.80  3413.88  3.24
463.4  107417.63  3491.62  3.25
464.8  109429.43  3570.00  3.26
466.3  111413.63  3642.49  3.27
467.7  113505.60  3724.59  3.28
469.2  115414.65  3790.14  3.28
470.6  117451.25  3862.60  3.29
472.0  119570.00  3942.19  3.30
473.5  121619.23  4011.24  3.30
474.9  123864.80  4103.11  3.31
476.4  125961.80  4181.12  3.32
477.8  128128.00  4270.93  3.33
479.2  130260.20  4353.22  3.34
480.7  132461.63  4434.97  3.35
482.1  134710.20  4527.57  3.36
483.6  136961.10  4620.24  3.37
485.0  139287.53  4722.18  3.39
486.4  141441.85  4821.41  3.41
487.9  143792.50  4930.57  3.43
489.3  145990.80  5048.28  3.46
490.7  148224.50  5174.11  3.49
492.2  150529.38  5308.02  3.53
493.6  152848.30  5441.15  3.56
495.0  155201.48  5590.91  3.60
496.5  157455.90  5745.60  3.65
497.9  159808.00  5924.70  3.71
499.3  162134.75  6129.00  3.78
500.7  164479.60  6346.75  3.86
502.2  166922.65  6585.83  3.95
503.6  169312.80  6854.48  4.05
505.0  171621.18  7156.78  4.17
506.5  174155.00  7514.36  4.31
507.9  176695.35  7914.30  4.48
509.3  179050.95  8351.52  4.66
510.7  181751.70  8859.50  4.87
512.2  184467.15  9429.44  5.11
513.6  187337.83  10069.72  5.38
515.0  190154.48  10784.85  5.67
516.4  193087.80  11566.45  5.99
517.8  195954.75  12426.00  6.34
519.3  198940.80  13331.63  6.70
520.7  201651.10  14265.44  7.07
522.1  204389.58  15228.29  7.45
523.5  207008.53  16202.30  7.83
524.9  209988.08  17196.10  8.19
526.3  212682.38  18136.35  8.53
527.8  215546.25  19071.88  8.85
529.2  218131.20  19971.84  9.16
530.6  220912.20  20846.88  9.44
532.0  223946.45  21673.51  9.68
533.4  226485.15  22398.35  9.89
534.8  229024.13  23072.06  10.07
536.3  232126.53  23755.19  10.23
537.7  235200.75  24382.57  10.37
539.1  238175.28  24990.33  10.49
540.5  241125.75  25575.00  10.61
541.9  244073.70  26142.76  10.71
543.3  246660.30  26685.67  10.82
544.7  249656.00  27265.33  10.92
546.1  252501.20  27825.19  11.02
547.5  255484.80  28376.64  11.11
549.0  258682.40  28919.63  11.18
550.4  261609.08  29402.10  11.24
551.8  264548.20  29817.77  11.27
553.2  267480.15  30173.73  11.28
554.6  270414.35  30441.25  11.26
556.0  273394.80  30627.24  11.20
557.4  276570.20  30754.79  11.12
558.8  279487.98  30777.48  11.01
560.2  282720.00  30752.00  10.88
561.6  285687.33  30613.04  10.72
563.0  288527.85  30380.83  10.53
564.4  291731.30  30114.37  10.32
565.8  294807.20  29777.93  10.10
567.2  298030.13  29394.34  9.86
568.6  301110.75  28957.41  9.62
570.0  304031.00  28470.87  9.36
571.4  307508.85  28023.43  9.11
572.8  310685.20  27563.20  8.87
574.2  313597.73  27107.15  8.64
575.6  316719.75  26716.97  8.44
577.0  319835.45  26368.36  8.24
578.4  323290.63  26095.42  8.07
579.8  326400.95  25842.47  7.92
581.2  329522.50  25634.97  7.78
582.5  332437.50  25458.00  7.66
583.9  335574.10  25336.23  7.55
585.3  338530.70  25226.64  7.45
586.7  341556.60  25163.60  7.37
588.1  344607.00  25120.51  7.29
589.5  347998.35  25138.84  7.22
590.9  351013.73  25168.73  7.17
592.3  353998.80  25224.18  7.13
593.7  357018.03  25298.00  7.09
595.0  360045.60  25364.24  7.04
596.4  363374.00  25455.42  7.01
597.8  366108.60  25471.48  6.96
599.2  369298.80  25498.72  6.90
600.6  372525.45  25493.16  6.84
602.0  375570.60  25418.16  6.77
603.3  378508.00  25289.33  6.68
604.7  381599.98  25123.55  6.58
606.1  384681.75  24904.15  6.47
607.5  388047.00  24683.21  6.36
608.9  391179.25  24423.89  6.24
610.2  394435.80  24164.91  6.13
611.6  397430.00  23892.00  6.01
613.0  400293.55  23621.70  5.90
614.4  403097.38  23371.36  5.80
615.8  406438.40  23180.63  5.70
617.1  409206.05  22993.97  5.62
618.5  412503.60  22884.02  5.55
619.9  415310.40  22778.66  5.48
621.3  418313.35  22738.91  5.44
622.6  421287.75  22740.90  5.40
624.0  424052.25  22771.75  5.37
625.4  427245.45  22857.00  5.35
626.8  430266.20  22957.31  5.34
628.1  433140.75  23092.53  5.33
629.5  435974.70  23232.56  5.33
630.9  438911.80  23383.77  5.33
632.2  442010.18  23532.18  5.32
633.6  444548.98  23616.49  5.31
635.0  447569.68  23676.05  5.29
636.3  450616.03  23682.53  5.26
637.7  453419.95  23589.66  5.20
639.1  456481.30  23435.79  5.13
640.4  459277.25  23202.12  5.05
641.8  462178.80  22941.36  4.96
643.2  464801.15  22618.73  4.87
644.5  467740.00  22297.33  4.77
645.9  470437.80  21959.42  4.67
647.2  473353.65  21671.91  4.58
648.6  476347.60  21412.43  4.50
650.0  479122.20  21169.20  4.42
651.3  481560.70  20942.76  4.35
652.7  484980.00  20744.40  4.28
654.0  487918.95  20539.34  4.21
655.4  490349.48  20329.19  4.15
656.8  492005.33  20102.60  4.09
658.1  494706.98  19905.06  4.02
659.5  498052.80  19722.24  3.96
660.8  501317.25  19544.70  3.90
662.2  504154.13  19379.21  3.84
663.5  507021.18  19255.29  3.80
664.9  509000.45  19170.40  3.77
666.2  511155.45  19119.01  3.74
667.6  513769.50  19152.00  3.73
668.9  516542.40  19261.44  3.73
670.3  519559.25  19390.93  3.73
671.6  521859.20  19577.49  3.75
673.0  524233.60  19797.97  3.78
674.3  526706.95  20056.96  3.81
675.7  529299.90  20377.32  3.85
677.0  531654.98  20718.40  3.90
678.4  533914.40  21116.88  3.96
679.7  536384.18  21568.53  4.02
681.1  539093.53  22121.87  4.10
682.4  541298.25  22729.95  4.20
683.8  543756.00  23464.45  4.32
685.1  546034.35  24371.96  4.46
686.4  548238.28  25471.20  4.65
687.8  550891.58  26885.25  4.88
689.1  553306.60  28711.48  5.19
690.5  555293.15  31040.54  5.59
691.8  558080.05  34090.98  6.11
693.1  560497.50  37937.80  6.77
694.5  562943.40  42633.72  7.57
695.8  565434.30  48215.67  8.53
697.1  567750.40  54677.44  9.63
698.5  570091.50  62046.38  10.88
699.8  572511.60  70265.76  12.27
701.1  574449.23  79126.39  13.77
702.5  576627.25  88606.45  15.37
703.8  579125.28  98555.71  17.02
705.1  581014.75  108686.22  18.71
706.5  583407.80  119053.56  20.41
707.8  585269.08  129401.99  22.11
709.1  587549.40  139773.88  23.79
710.5  589786.70  150019.57  25.44
711.8  591809.00  160051.73  27.04
713.1  593830.00  169895.87  28.61
714.4  595982.30  179563.40  30.13
715.8  598354.83  189036.07  31.59
717.1  600691.15  198231.10  33.00
718.4  602907.30  207131.46  34.36
719.7  605214.23  215706.45  35.64
721.0  607043.18  223788.14  36.87
722.4  608961.15  231583.62  38.03
723.7  611005.90  239081.89  39.13
725.0  612791.63  246148.60  40.17
726.3  615087.20  253089.20  41.15
727.6  616889.25  259464.30  42.06
729.0  618788.45  265544.30  42.91
730.3  620803.80  271355.95  43.71
731.6  622448.70  276631.89  44.44
732.9  624499.20  281813.70  45.13
734.2  626220.38  286534.05  45.76
735.5  628098.35  291076.57  46.34
736.8  630174.30  295431.41  46.88
738.1  632029.95  299441.25  47.38
739.5  633871.95  303178.06  47.83
740.8  635887.45  306769.94  48.24
742.1  637499.78  309996.49  48.63
743.4  639358.30  313130.86  48.98
744.7  641361.00  316174.13  49.30
746.0  642902.05  318797.34  49.59
747.3  644559.30  321280.68  49.85
748.6  646182.75  323601.23  50.08
749.9  648133.25  325894.30  50.28
751.2  649523.45  327844.01  50.47
752.5  651205.63  329801.45  50.64
753.8  652507.20  331548.78  50.81
755.1  654149.60  333303.83  50.95
756.4  655329.10  334732.02  51.08
757.7  657457.63  336514.38  51.18
759.0  661232.18  339065.08  51.28
760.3  664067.10  341061.67  51.36
761.6  666976.63  343058.09  51.43
762.9  668486.50  344278.73  51.50
764.2  669329.35  345092.35  51.56
765.5  670296.43  345912.19  51.61
766.8  670912.45  346538.00  51.65
768.1  672106.05  347389.56  51.69
769.3  673463.00  348305.41  51.72
770.6  674872.85  349286.37  51.76
771.9  676210.85  350130.13  51.78
773.2  677737.13  351078.39  51.80
774.5  678729.45  351739.00  51.82
775.8  679921.25  352490.74  51.84
777.1  681220.65  353288.88  51.86
778.4  682568.13  354124.83  51.88
779.6  683966.40  354950.16  51.90
780.9  684733.50  355482.00  51.92
782.2  685884.73  356139.67  51.92
783.5  686826.25  356747.33  51.94
784.8  687792.00  357299.25  51.95
786.0  688667.13  357850.60  51.96
787.3  689649.85  358430.43  51.97
788.6  690616.00  359038.82  51.99
789.9  691386.70  359526.97  52.00
791.2  692836.35  360352.37  52.01
792.4  694072.50  361072.80  52.02
793.7  695809.98  362003.78  52.03
795.0  696940.40  362660.25  52.04
796.2  698427.15  363496.38  52.04
797.5  699711.88  364259.83  52.06
798.8  701204.00  365118.25  52.07
800.0  702450.00  365810.67  52.08
801.3  703788.75  366565.50  52.08
802.6  704952.00  367200.00  52.09
803.8  706106.10  367901.03  52.10
805.1  707205.38  368537.75  52.11
806.4  708293.45  369176.57  52.12
807.7  709498.10  369843.90  52.13
808.9  710764.20  370554.46  52.13
810.2  711732.00  371095.20  52.14
811.4  712824.80  371778.40  52.16
812.7  714258.25  372580.10  52.16
814.0  715522.50  373343.74  52.18
815.2  716952.90  374180.82  52.19
816.5  718200.00  374849.42  52.19
817.7  719158.00  375339.37  52.19
819.0  719836.60  375816.93  52.21
820.2  720701.85  376342.48  52.22
821.5  721803.80  376978.08  52.23
822.7  722843.63  377582.99  52.24
824.0  723884.20  378168.96  52.24
825.2  724584.90  378600.04  52.25
826.5  725324.75  379023.67  52.26
827.7  726330.10  379675.42  52.27
829.0  727399.28  380195.54  52.27
830.2  728357.20  380769.07  52.28
831.5  729354.60  381284.67  52.28
832.7  730246.95  381811.68  52.29
834.0  730802.25  382137.21  52.29
835.2  731787.85  382720.80  52.30
836.4  732612.80  383194.51  52.31
837.7  733269.38  383709.75  52.33
838.9  734474.00  384360.24  52.33
840.1  735378.60  384831.92  52.33
841.4  736238.80  385398.63  52.35
842.6  737086.00  385901.41  52.36
843.8  737818.90  386391.72  52.37
845.1  738630.75  386907.40  52.38
846.3  739545.45  387463.44  52.39
847.5  740379.25  387990.63  52.40
848.8  741209.65  388525.83  52.42
850.0  742304.80  389111.65  52.42
851.2  743074.80  389621.23  52.43
852.5  744170.50  390281.73  52.45
853.7  744799.73  390711.51  52.46
854.9  745880.85  391357.72  52.47
856.1  746851.05  391897.17  52.47
857.4  747757.28  392363.48  52.47
858.6  748529.60  392842.24  52.48
859.8  749520.70  393465.19  52.50
861.0  750468.95  394025.15  52.50
862.2  751478.70  394579.08  52.51
863.5  752370.25  395082.09  52.51
864.7  753250.00  395580.83  52.52
865.9  754205.50  396059.65  52.51
867.1  754643.75  396445.00  52.53
868.3  755864.20  397095.69  52.54
869.5  756797.65  397647.41  52.54
870.8  757946.70  398212.68  52.54
872.0  758864.53  398698.93  52.54
873.2  759597.28  399128.11  52.54
874.4  760363.35  399578.22  52.55
875.6  761378.70  400224.86  52.57
876.8  762798.30  400935.92  52.56
878.0  763579.60  401408.65  52.57
879.2  764637.05  401900.63  52.56
880.4  765758.00  402472.53  52.56
881.6  766799.30  402892.84  52.54
882.8  767945.80  403562.66  52.55
884.0  768676.68  404046.67  52.56
885.2  770010.75  404654.97  52.55
886.5  771103.03  405345.57  52.57
887.7  772061.38  405801.90  52.56
888.8  773521.35  406520.58  52.55
890.0  774506.25  406896.00  52.54
891.2  775440.90  407410.64  52.54
892.4  776859.60  408128.38  52.54
893.6  778595.23  409038.90  52.54
894.8  780039.23  409849.58  52.54
896.0  781408.15  410538.71  52.54
897.2  783255.83  411428.16  52.53
898.4  785263.50  412424.60  52.52
899.6  786633.80  412972.40  52.50
900.8  786892.60  413181.60  52.51
902.0  787432.80  413487.44  52.51
903.2  787468.40  413615.40  52.52
904.3  788653.13  414092.25  52.51
905.5  790094.25  414671.40  52.48
906.7  791335.05  415288.77  52.48
907.9  792090.78  415776.89  52.49
909.1  793342.55  416221.45  52.46
910.2  793563.75  416367.00  52.47
911.4  793582.65  416387.73  52.47
912.6  794187.50  416647.33  52.46
913.8  795233.60  417169.57  52.46
915.0  795586.00  417229.57  52.44
916.2  795606.38  417273.83  52.45
917.3  796462.53  417627.34  52.44
918.5  796746.75  417687.66  52.42
919.7  797183.50  417702.43  52.40
920.8  797325.00  417762.86  52.40
922.0  797444.45  417729.51  52.38
923.2  797594.10  417927.67  52.40
924.4  798339.75  418072.58  52.37
925.5  799148.80  418355.89  52.35
926.7  800221.43  418662.03  52.32
927.9  801604.98  419235.84  52.30
929.0  804910.50  420770.52  52.28
930.2  809039.00  422841.71  52.26
931.4  814263.20  425444.35  52.25
932.5  818677.20  427573.15  52.23
933.7  821475.98  428734.65  52.19
934.9  822972.50  429292.50  52.16
936.0  822000.60  428727.15  52.16
937.2  819074.73  426895.60  52.12
938.3  815116.25  424730.80  52.11
939.5  812962.80  423220.20  52.06
940.7  813197.00  423000.27  52.02
941.8  816179.65  424230.56  51.98
943.0  818217.98  425037.73  51.95
944.2  819840.00  425682.40  51.92
945.3  819679.80  425228.24  51.88
946.5  817967.50  424058.83  51.84
947.6  818702.25  424291.13  51.82
948.8  817835.65  423209.85  51.75
949.9  818187.65  423007.50  51.70
951.1  818438.80  422537.83  51.63
952.2  817910.90  421685.79  51.56
953.4  817271.10  420993.20  51.51
954.5  816088.88  419751.15  51.43
955.7  816285.15  419017.78  51.33
956.8  816543.63  418794.21  51.29
958.0  815331.60  417872.28  51.25
959.1  815119.20  417191.04  51.18
960.3  814462.50  416558.33  51.15
961.4  815662.10  416568.60  51.07
962.6  815256.00  416086.08  51.04
963.7  815430.00  416182.29  51.04
964.9  815792.90  416061.13  51.00
966.0  815946.60  416070.48  50.99
967.2  816635.40  416123.12  50.96
968.3  817982.15  416700.29  50.94
969.5  818062.10  416735.79  50.94
970.6  818904.65  416847.25  50.90
971.8  818472.03  416617.83  50.90
972.9  819115.50  416843.00  50.89
974.0  820291.00  417025.36  50.84
975.2  819180.00  416324.25  50.82
976.3  819981.35  417030.18  50.86
977.5  819983.70  416543.53  50.80
978.6  820089.98  416791.02  50.82
979.7  820142.40  416481.71  50.78
980.9  820424.13  416659.34  50.79
982.0  819798.00  416275.21  50.78
983.2  820717.80  416357.39  50.73
984.3  818699.00  415545.06  50.76
985.4  818983.20  415296.65  50.71
986.6  820672.40  415507.10  50.63
987.7  818618.25  415402.40  50.74
988.9  821179.13  416251.25  50.69
990.0  819726.10  416472.15  50.81
993.1  855267.00  433132.13  50.64
996.9  855858.30  434356.84  50.75
1000.7  855802.85  435289.58  50.86
1004.5  854918.07  435748.03  50.97
1008.4  855950.48  437048.62  51.06
1012.2  857340.79  438501.83  51.15
1016.0  857675.45  439216.10  51.21
1019.8  856794.08  439390.90  51.28
1023.7  856051.46  439520.40  51.34
1027.5  854275.47  439123.97  51.40
1031.3  853165.73  438999.93  51.46
1035.1  852287.55  438966.67  51.50
1038.9  851949.40  439100.11  51.54
1042.7  851533.53  439203.55  51.58
1046.5  850801.88  439074.61  51.61
1050.3  849188.66  438405.45  51.63
1054.2  847145.20  437503.06  51.64
1058.0  846176.40  437106.40  51.66
1061.8  845000.50  436560.37  51.66
1065.6  843229.17  435645.92  51.66
1069.4  841334.35  434597.72  51.66
1073.2  839741.50  433639.92  51.64
1077.0  838340.80  432716.21  51.62
1080.8  837538.17  432053.11  51.59
1084.6  836656.33  431329.56  51.55
1088.4  835563.80  430515.07  51.52
1092.2  834139.13  429447.10  51.48
1096.0  832705.03  428366.74  51.44
1099.8  831197.00  427178.25  51.39
1103.6  829431.27  425869.08  51.34
1107.4  828015.44  424610.52  51.28
1111.2  826400.13  423290.57  51.22
1114.9  825207.00  422013.00  51.14
1118.7  824441.75  420769.15  51.04
1122.5  824146.48  419615.95  50.92
1126.3  821560.95  416941.70  50.75
1130.1  820899.48  414740.59  50.52
1133.9  817592.92  410522.81  50.21
1137.7  815037.80  406115.65  49.83
1141.4  811404.18  400666.76  49.38
1145.2  810655.42  396332.98  48.89
1149.0  808701.30  391687.30  48.43
1152.8  805466.70  387016.35  48.05
1156.6  801991.58  383113.13  47.77
1160.3  798775.50  380089.67  47.58
1164.1  794030.40  376946.19  47.47
1167.9  790921.00  374926.18  47.40
1171.7  788447.77  373442.99  47.36
1175.4  786226.03  372117.08  47.33
1179.2  784319.25  370904.00  47.29
1183.0  784527.75  370600.14  47.24
1186.7  784392.00  370168.81  47.19
1190.5  782724.17  369131.35  47.16
1194.3  779830.68  367614.59  47.14
1198.0  776901.85  366152.02  47.13
1201.8  774466.00  365116.89  47.14
1205.6  772783.13  364612.53  47.18
1209.3  771438.00  364435.33  47.24
1213.1  769868.42  364321.07  47.32
1216.8  767733.47  364116.41  47.43
1220.6  765397.17  363853.37  47.54
1224.3  762987.50  363509.26  47.64
1228.1  760814.32  363345.47  47.76
1231.9  758510.35  362936.02  47.85
1235.6  756166.95  362362.98  47.92
1239.4  753842.33  361775.87  47.99
1243.1  751671.00  361129.20  48.04
1246.9  749735.16  360463.83  48.08
1250.6  747666.40  359684.54  48.11
1254.3  745824.00  358922.13  48.12
1258.1  743793.33  358029.33  48.14
1261.8  741374.20  356841.33  48.13
1265.6  738996.29  355581.94  48.12
1269.3  736489.33  354165.36  48.09
1273.1  736928.04  354073.54  48.05
1276.8  737234.33  353867.42  48.00
1280.6  736940.99  353245.35  47.93
1284.3  734508.17  351469.55  47.85
1288.0  732574.27  349769.09  47.75
1291.8  730674.00  348003.60  47.63
1295.5  728706.78  346095.87  47.49
1299.2  726291.15  343807.53  47.34
1302.9  723466.33  341095.05  47.15
1306.7  720334.13  338035.60  46.93
1310.4  717379.97  334738.90  46.66
1314.1  714958.13  331431.25  46.36
1317.9  712476.92  327776.61  46.01
1321.6  709696.87  323713.46  45.61
1325.3  706878.23  319295.85  45.17
1329.0  704149.60  314736.08  44.70
1332.8  700350.00  309389.72  44.18
1336.5  696692.71  304055.68  43.64
1340.2  694640.25  299428.31  43.11
1343.9  693493.70  295199.65  42.57
1347.6  692272.10  291014.17  42.04
1351.4  691142.50  286955.00  41.52
1355.1  691313.98  283447.59  41.00
1358.8  689843.92  279087.65  40.46
1362.5  689440.68  274877.74  39.87
1366.2  687237.75  269298.89  39.19
1369.9  683279.00  262247.78  38.38
1373.6  679098.66  253879.55  37.38
1377.3  676269.03  244341.68  36.13
1381.0  673552.65  232791.00  34.56
1384.8  670060.50  218770.59  32.65
1388.4  665761.50  203262.32  30.53
1392.2  661634.90  186947.96  28.26
1395.9  659772.57  171183.69  25.95
1399.6  655936.99  155863.41  23.76
1403.3  653790.00  142649.60  21.82
1407.0  651729.38  131480.25  20.17
1410.7  650631.02  122674.65  18.85
1414.3  648787.50  115769.89  17.84
1418.1  646734.38  110695.60  17.12
1421.7  644966.47  107067.02  16.60
1425.4  643646.02  104694.94  16.27
1429.1  640185.00  102891.83  16.07
1432.8  638928.00  102116.73  15.98
1436.5  635674.00  101576.95  15.98
1440.2  632242.17  101382.41  16.04
1443.9  630023.67  101639.54  16.13
1447.6  626483.20  101862.40  16.26
1451.2  623511.55  102208.12  16.39
1454.9  621860.05  102875.34  16.54
1458.6  618141.98  103430.70  16.73
1462.3  617172.80  104769.66  16.98
1466.0  617188.83  106700.36  17.29
1469.7  615394.27  108758.22  17.67
1473.3  613166.40  111105.87  18.12
1477.0  608992.33  113329.40  18.61
1480.7  605845.54  115893.42  19.13
1484.4  602133.13  118404.22  19.66
1488.0  599039.93  121063.63  20.21
1491.7  595495.41  123616.57  20.76
1495.4  591991.80  126147.31  21.31
1499.0  588940.63  128718.71  21.86
1502.7  586104.16  131294.79  22.40
1506.4  583281.38  133811.66  22.94
1510.0  580515.00  136224.95  23.47
1513.7  577787.42  138547.98  23.98
1517.4  575254.63  140792.40  24.47
1521.0  572862.68  142992.34  24.96
1524.7  570365.69  145011.17  25.42
1528.3  567919.17  146938.92  25.87
1532.0  565336.70  148701.08  26.30
1535.7  562638.38  150295.75  26.71
1539.3  560007.83  151850.04  27.12
1543.0  558283.54  153549.67  27.50
1546.6  556885.92  155262.78  27.88
1550.3  555335.77  156803.15  28.24
1553.9  553020.20  158038.98  28.58
1557.6  550777.70  159212.19  28.91
1561.2  548243.19  160181.85  29.22
1564.9  545496.57  161049.94  29.52
1568.5  542776.00  161824.00  29.81
1572.2  540445.50  162629.19  30.09
1575.8  538613.35  163558.88  30.37
1579.5  536719.67  164402.70  30.63
1583.1  534412.67  165091.19  30.89
1586.8  532218.28  165752.59  31.14
1590.4  530067.85  166365.04  31.39
1594.0  527732.60  166869.61  31.62
1597.7  525503.83  167417.58  31.86
1601.3  523137.83  167880.15  32.09
1604.9  520447.03  168167.10  32.31
1608.6  517546.58  168288.30  32.52
1612.2  514819.54  168403.45  32.71
1615.8  512450.40  168535.47  32.89
1619.5  510205.42  168632.60  33.05
1623.1  507398.93  168506.25  33.21
1626.7  504549.77  168293.75  33.36
1630.3  501972.00  168102.80  33.49
1634.0  499553.60  167880.17  33.61
1637.6  497295.00  167644.26  33.71
1641.2  495093.78  167271.79  33.79
1644.8  492557.99  166646.57  33.83
1648.5  489907.55  165852.74  33.85
1652.1  487701.68  165036.37  33.84
1655.7  485805.50  164137.87  33.79
1659.3  484002.23  163181.55  33.72
1662.9  480752.58  161713.95  33.64
1666.6  477115.10  160175.15  33.57
1670.2  473764.78  158702.14  33.50
1673.8  470467.97  157285.26  33.43
1677.4  467964.90  156020.37  33.34
1681.0  466295.75  154933.50  33.23
1684.6  465385.71  153998.07  33.09
1688.2  463918.00  152718.22  32.92
1691.8  462177.48  151362.75  32.75
1695.4  461329.61  150246.63  32.57
1699.0  460470.60  149067.77  32.37
1702.6  459893.87  147913.90  32.16
1706.2  458411.00  146396.10  31.94
1709.8  456210.42  144679.74  31.71
1713.4  454624.30  143151.09  31.49
1717.0  452940.35  141666.94  31.28
1720.6  451224.18  140187.23  31.07
1724.2  449827.64  138800.87  30.86
1727.8  448478.81  137552.05  30.67
1731.4  447747.42  136630.76  30.52
1735.0  447684.32  136007.58  30.38
1738.6  447072.75  135158.83  30.23
1742.2  446115.48  134076.14  30.05
1745.8  444326.40  132661.10  29.86
1749.4  441942.61  130979.17  29.64
1753.0  438178.40  128867.02  29.41
1756.6  434337.75  126751.72  29.18
1760.1  431068.00  124871.91  28.97
1763.7  427208.98  122914.49  28.77
1767.3  424106.22  121301.62  28.60
1770.9  421474.63  119863.97  28.44
1774.5  418360.53  118359.52  28.29
1778.0  416124.19  117179.73  28.16
1781.6  413849.08  116076.33  28.05
1785.2  411216.37  114980.73  27.96
1788.8  408421.67  113945.65  27.90
1792.3  406038.42  113096.97  27.85
1795.9  405449.75  112804.95  27.82
1799.5  405681.25  112814.06  27.81
1803.1  406767.46  113093.98  27.80
1806.6  408049.10  113439.18  27.80
1810.2  409428.60  113829.57  27.80
1813.8  408740.67  113613.53  27.80
1817.3  408063.70  113358.79  27.78
1820.9  406931.25  112925.70  27.75
1824.5  405828.95  112435.17  27.71
1828.0  406161.18  112235.21  27.63
1831.6  406681.98  111997.09  27.54
1835.2  405940.96  111222.72  27.40
1838.7  406232.17  110501.61  27.20
1842.3  404673.50  109032.78  26.94
1845.8  403351.67  107276.91  26.60
1849.4  402923.03  105335.53  26.14
1852.9  401415.63  102566.43  25.55
1856.5  399997.65  99201.44  24.80
1860.0  399777.17  95382.86  23.86
1863.6  398894.57  90667.01  22.73
1867.1  398265.57  85200.63  21.39
1870.7  398745.65  78890.99  19.78
1874.2  398070.11  71361.40  17.93
1877.8  395198.28  63215.57  16.00
1881.3  392379.63  55043.21  14.03
1884.9  390065.34  47488.39  12.17
1888.4  387991.98  40590.39  10.46
1891.9  386332.07  34873.92  9.03
1895.5  384814.50  30390.91  7.90
1899.0  383849.85  27231.69  7.09
1901.3  398067.47  19724.44  4.96
1904.1  398138.58  17938.14  4.51
1906.8  396640.88  16658.02  4.20
1909.6  393403.60  15600.42  3.97
1912.4  390122.40  14857.91  3.81
1915.1  386636.97  14285.35  3.69
1917.9  383172.00  13894.30  3.63
1920.6  380598.97  13626.03  3.58
1923.3  378649.13  13462.91  3.56
1926.1  375958.95  13372.05  3.56
1928.8  372915.40  13328.47  3.57
1931.6  372385.85  13425.66  3.61
1934.3  369144.97  13487.49  3.65
1937.0  365782.20  13583.00  3.71
1939.8  362920.02  13715.23  3.78
1942.5  358846.35  13855.27  3.86
1945.2  355542.25  14048.61  3.95
1947.9  352966.25  14311.84  4.05
1950.7  348918.85  14524.23  4.16
1953.4  345504.70  14791.71  4.28
1956.1  342868.53  15120.58  4.41
1958.8  340649.75  15496.83  4.55
1961.5  337735.65  15848.82  4.69
1964.2  334350.47  16209.27  4.85
1966.9  331357.60  16600.53  5.01
1969.6  328610.57  17017.94  5.18
1972.3  326048.93  17464.93  5.36
1975.0  323557.33  17938.67  5.54
1977.7  321351.98  18438.17  5.74
1980.4  319108.53  18945.42  5.94
1983.1  316737.10  19466.16  6.15
1985.8  314608.80  19992.00  6.35
1988.4  312596.35  20546.72  6.57
1991.1  310752.40  21105.23  6.79
1993.8  309250.20  21693.93  7.02
1996.5  307687.10  22296.17  7.25
1999.1  306294.07  22883.34  7.47
2001.8  305056.97  23481.60  7.70
2004.5  303825.65  24083.28  7.93
2007.1  302292.67  24628.22  8.15
2009.8  300308.75  25132.92  8.37
2012.4  298982.73  25669.41  8.59
2015.1  297795.40  26195.53  8.80
2017.8  296598.67  26689.78  9.00
2020.4  295420.70  27184.87  9.20
2023.1  294947.60  27683.82  9.39
2025.7  294694.63  28176.11  9.56
2028.3  293828.73  28609.06  9.74
2031.0  293227.62  29025.61  9.90
2033.6  292948.50  29451.17  10.05
2036.2  292540.03  29834.78  10.20
2038.9  291512.00  30132.27  10.34
2041.5  290541.67  30402.78  10.46
2044.1  289750.00  30666.66  10.58
2046.8  288602.27  30891.93  10.70
2049.4  287772.20  31126.11  10.82
2052.0  287534.62  31412.05  10.92
2054.6  287138.67  31684.27  11.03
2057.2  286027.40  31897.77  11.15
2059.8  284529.00  32060.00  11.27
2062.4  283094.50  32246.57  11.39
2065.0  281712.15  32417.00  11.51
2067.6  279827.47  32531.56  11.63
2070.2  278397.20  32678.79  11.74
2072.8  277477.75  32882.97  11.85
2075.4  276394.33  33076.44  11.97
2078.0  275731.08  33310.84  12.08
2080.6  274476.20  33467.32  12.19
2083.2  273173.08  33602.17  12.30
2085.8  271828.20  33718.77  12.40
2088.4  270744.22  33881.58  12.51
2090.9  269029.50  33962.83  12.62
2093.5  267093.40  33997.47  12.73
2096.1  265293.60  34041.15  12.83
2098.7  263793.85  34122.70  12.94
2101.2  261850.40  34125.87  13.03
2103.8  260341.00  34216.69  13.14
2106.4  258893.23  34300.48  13.25
2108.9  257864.45  34416.30  13.35
2111.5  256928.00  34526.14  13.44
2114.0  256360.00  34695.56  13.53
2116.6  254148.40  34634.97  13.63
2119.1  253000.30  34727.23  13.73
2121.7  252434.53  34869.73  13.81
2124.2  252284.17  35042.50  13.89
2126.8  251129.95  35090.73  13.97
2129.3  250016.45  35107.38  14.04
2131.9  250217.33  35332.18  14.12
2134.4  249372.78  35385.93  14.19
2136.9  249077.30  35511.97  14.26
2139.4  247995.58  35508.00  14.32
2142.0  247563.98  35591.12  14.38
2144.5  246993.92  35689.20  14.45
2147.0  246522.47  35801.86  14.52
2149.5  246084.90  35903.03  14.59
2152.1  246432.33  36118.91  14.66
2154.6  246453.60  36292.53  14.73
2157.1  246354.77  36475.37  14.81
2159.6  245233.17  36490.94  14.88
2162.1  245042.37  36595.06  14.93
2164.6  244338.17  36654.64  15.00
2167.1  243376.07  36678.93  15.07
2169.6  243501.60  36844.39  15.13
2172.1  242680.60  36869.73  15.19
2174.6  242280.03  36963.27  15.26
2177.1  241146.42  36967.92  15.33
2179.5  240661.23  37044.69  15.39
2182.0  240357.67  37154.03  15.46
2184.5  239387.05  37160.52  15.52
2187.0  238577.30  37216.04  15.60
2189.5  237541.53  37216.84  15.67
2191.9  236297.60  37197.78  15.74
2194.4  234648.25  37083.83  15.80
2196.9  233529.27  37069.76  15.87
2199.3  232071.00  36973.73  15.93
2201.8  230923.93  36908.98  15.98
2204.3  230203.90  36898.90  16.03
2206.7  228977.65  36827.22  16.08
2209.2  227745.90  36736.35  16.13
2211.6  225790.10  36502.60  16.17
2214.1  225087.92  36441.53  16.19
2216.5  224750.48  36399.16  16.20
2219.0  223394.60  36197.46  16.20
2221.4  223445.70  36193.80  16.20
2223.9  222267.93  35947.60  16.17
2226.3  220981.00  35674.18  16.14
2228.7  220038.00  35374.44  16.08
2231.1  219429.57  35098.28  16.00
2233.6  218416.00  34752.53  15.91
2236.0  217352.30  34365.58  15.81
2238.4  216438.68  33940.47  15.68
2240.9  215720.20  33510.20  15.53
2243.3  214892.18  33034.97  15.37
2245.7  214047.80  32561.28  15.21
2248.1  213075.20  32032.00  15.03
2250.5  212288.27  31498.62  14.84
2252.9  211623.77  30968.42  14.63
2255.3  210866.73  30434.86  14.43
2257.7  209943.07  29927.33  14.25
2260.1  209052.40  29384.53  14.06
2262.5  207944.80  28844.93  13.87
2264.9  206966.23  28329.08  13.69
2267.3  206063.00  27837.33  13.51
2269.7  205135.10  27385.87  13.35
2272.1  204313.00  26959.17  13.20
2274.5  203567.73  26557.33  13.05
2276.8  202885.33  26198.76  12.91
2279.2  202111.40  25813.30  12.77
2281.6  201467.45  25513.52  12.66
2284.0  201098.70  25235.10  12.55
2286.3  200583.27  24934.47  12.43
2288.7  199994.77  24599.42  12.30
2291.1  199439.50  24278.00  12.17
2293.4  198721.10  23925.53  12.04
2295.8  198045.47  23588.65  11.91
2298.2  197252.60  23255.90  11.79
2300.5  196153.65  22853.67  11.65
2302.9  194726.60  22453.08  11.53
2305.2  193321.58  22076.75  11.42
2307.6  191828.00  21705.60  11.32
2309.9  190851.35  21408.48  11.22
2312.2  189847.67  21197.83  11.17
2314.6  188827.13  21005.97  11.12
2316.9  187714.27  20810.10  11.09
2319.2  186989.37  20619.81  11.03
2321.6  186281.25  20432.98  10.97
2323.9  185503.60  20218.13  10.90
2326.2  184555.50  19979.50  10.83
2328.6  183839.35  19745.83  10.74
2330.9  183566.53  19520.58  10.63
2333.2  183132.50  19309.42  10.54
2335.5  182516.53  19094.54  10.46
2337.8  182043.00  18854.67  10.36
2340.1  181451.40  18598.38  10.25
2342.4  180974.25  18358.65  10.14
2344.8  180211.97  18097.42  10.04
2347.1  179487.60  17854.27  9.95
2349.4  178931.47  17671.78  9.88
2351.6  178144.00  17467.33  9.81
2353.9  177095.20  17240.93  9.74
2356.2  176315.70  17061.15  9.68
2358.5  175478.65  16813.27  9.58
2360.8  174720.83  16611.81  9.51
2363.1  174316.08  16445.67  9.43
2365.4  173826.00  16267.50  9.36
2367.7  173212.47  16083.13  9.29
2369.9  172584.32  15883.70  9.20
2372.2  171407.70  15661.33  9.14
2374.5  170170.00  15370.83  9.03
2376.7  169210.60  15113.73  8.93
2379.0  168021.15  14859.90  8.84
2381.3  166590.97  14576.35  8.75
2383.5  165629.33  14319.67  8.65
2385.8  164934.00  14073.89  8.53
2388.0  164091.23  13882.20  8.46
2390.3  163378.78  13641.72  8.35
2392.5  162894.67  13418.17  8.24
2394.8  161926.08  13212.30  8.16
2397.0  161391.07  12979.96  8.04
2399.3  160765.00  12763.77  7.94
2401.5  159978.50  12505.77  7.82
2403.8  159256.10  12324.88  7.74
2406.0  158812.13  12113.08  7.63
2408.2  157951.50  11902.10  7.54
2410.4  157108.13  11676.02  7.43
2412.7  156695.40  11431.73  7.30
2414.9  156018.07  11239.27  7.20
2417.1  155928.27  11101.69  7.12
2419.3  155500.70  10901.72  7.01
2421.6  154585.20  10688.61  6.91
2423.8  153993.73  10484.20  6.81
2426.0  153630.00  10260.97  6.68
2428.2  153268.50  10106.25  6.59
2430.4  153384.32  9954.15  6.49
2432.6  153164.30  9803.63  6.40
2434.8  152564.80  9595.65  6.29
2437.0  152016.80  9307.57  6.12
2439.2  151570.47  9129.75  6.02
2441.4  150782.80  8980.40  5.96
2443.6  150620.73  8862.55  5.88
2445.7  150657.70  8748.84  5.81
2447.9  150601.10  8578.27  5.70
2450.1  149879.08  8433.89  5.63
2452.3  148965.30  8208.57  5.51
2454.5  148394.40  8039.73  5.42
2456.6  147631.08  7898.53  5.35
2458.8  146506.73  7695.02  5.25
2461.0  146069.73  7534.22  5.16
2463.1  145749.83  7422.78  5.09
2465.3  145042.67  7290.89  5.03
2467.5  144607.67  7145.67  4.94
2469.6  144214.58  7017.19  4.87
2471.8  143779.03  6893.69  4.79
2473.9  143218.83  6768.67  4.73
2476.1  142353.75  6700.84  4.71
2478.2  141573.65  6539.02  4.62
2480.4  140716.78  6491.76  4.61
2482.5  139753.75  6400.32  4.58
2484.6  138826.00  6286.67  4.53
2486.8  138084.43  6144.47  4.45
2488.9  137582.80  6006.27  4.37
2491.1  136031.63  5919.34  4.35
2493.2  134814.23  5850.27  4.34
2495.3  133350.40  5787.78  4.34
2497.4  131975.13  5601.07  4.24
2499.5  131000.07  5554.36  4.24
2501.7  131044.00  5490.33  4.19
2503.8  131354.07  5558.00  4.23
2505.9  132059.75  5530.30  4.19
2508.0  132862.50  5478.53  4.12
2510.1  133553.10  5425.70  4.06
2512.2  134364.25  5542.22  4.12
2514.3  135465.63  5599.53  4.13
2516.4  137179.58  5561.84  4.05
