/*** Spectra Vista SIG Data ***/
name= 13_20221020_QUPA_34_avg.sig
comm= Averaged Ref/Tar of files: HR.102022.0037_moc.sig,HR.102022.0038_moc.sig,HR.102022.0039_moc.sig
data=
337.3  3076.75  203.23  6.61
338.8  3174.60  187.82  5.92
340.3  3326.35  174.01  5.23
341.8  3520.83  178.55  5.07
343.2  3729.60  177.60  4.76
344.7  3838.50  182.79  4.76
346.2  4044.15  171.18  4.23
347.7  4207.78  168.54  4.01
349.2  4384.80  162.00  3.69
350.6  4627.35  153.90  3.33
352.1  4894.33  159.91  3.27
353.6  5170.30  161.93  3.13
355.1  5455.35  166.77  3.06
356.6  5735.63  159.19  2.78
358.0  5997.20  154.94  2.58
359.5  6272.70  153.03  2.44
361.0  6553.58  159.60  2.44
362.5  6908.90  161.71  2.34
364.0  7254.78  172.05  2.37
365.4  7587.00  171.28  2.26
366.9  7956.00  176.27  2.22
368.4  8291.60  179.24  2.16
369.9  8648.00  187.89  2.17
371.3  9024.60  200.88  2.23
372.8  9451.80  214.93  2.27
374.3  9863.13  215.00  2.18
375.8  10267.95  215.60  2.10
377.2  10679.30  217.76  2.04
378.7  11082.80  217.76  1.96
380.2  11486.30  225.45  1.96
381.7  11972.08  229.07  1.91
383.1  12423.95  225.87  1.82
384.6  12894.05  228.64  1.77
386.1  13350.35  226.49  1.70
387.6  13771.45  233.57  1.70
389.0  14230.80  245.03  1.72
390.5  14708.70  250.33  1.70
392.0  15235.20  254.43  1.67
393.4  15765.00  262.75  1.67
394.9  16286.40  265.97  1.63
396.4  16792.88  268.61  1.60
397.9  17322.50  275.77  1.59
399.3  17879.45  279.78  1.56
400.8  18419.58  291.98  1.59
402.2  19026.25  306.29  1.61
403.7  19597.05  314.12  1.60
405.2  20171.10  320.18  1.59
406.6  20740.80  322.59  1.56
408.1  21334.40  333.62  1.56
409.6  21884.15  344.93  1.58
411.0  22545.60  357.87  1.59
412.5  23178.23  376.83  1.63
414.0  23818.38  386.15  1.62
415.4  24486.00  397.50  1.62
416.9  25115.33  413.03  1.64
418.4  25790.18  428.64  1.66
419.8  26517.40  440.27  1.66
421.3  27218.78  453.26  1.67
422.7  27961.80  470.63  1.68
424.2  28704.38  486.96  1.70
425.7  29437.80  509.18  1.73
427.1  30178.28  524.49  1.74
428.6  30969.00  540.29  1.74
430.0  31700.58  554.97  1.75
431.5  32536.50  575.68  1.77
432.9  33387.35  591.58  1.77
434.4  34251.08  613.93  1.79
435.9  35070.00  632.00  1.80
437.3  35901.25  652.14  1.82
438.8  36733.95  668.41  1.82
440.2  37568.30  686.58  1.83
441.7  38511.60  707.01  1.84
443.1  39405.50  728.12  1.85
444.6  40348.00  753.56  1.87
446.0  41273.48  774.79  1.88
447.5  42213.05  797.66  1.89
448.9  43137.60  818.23  1.90
450.4  44120.65  843.60  1.91
451.8  44967.00  866.67  1.93
453.3  45880.18  890.34  1.94
454.7  46876.65  915.97  1.95
456.2  47729.03  937.09  1.96
457.6  48679.43  959.59  1.97
459.1  49648.95  983.51  1.98
460.5  50570.88  1003.76  1.98
462.0  51624.93  1029.19  1.99
463.4  52635.40  1051.64  2.00
464.8  53613.00  1076.97  2.01
466.3  54557.25  1097.96  2.01
467.7  55525.88  1123.32  2.02
469.2  56567.43  1144.77  2.02
470.6  57548.80  1169.49  2.03
472.0  58580.15  1194.36  2.04
473.5  59593.38  1217.44  2.04
474.9  60605.25  1244.50  2.05
476.4  61747.20  1274.06  2.06
477.8  62785.00  1296.72  2.07
479.2  63771.00  1322.95  2.07
480.7  64848.00  1349.62  2.08
482.1  65978.70  1376.19  2.09
483.6  67134.70  1406.47  2.09
485.0  68206.20  1437.85  2.11
486.4  69374.40  1471.63  2.12
487.9  70434.00  1508.46  2.14
489.3  71563.50  1544.02  2.16
490.7  72608.98  1583.29  2.18
492.2  73794.00  1629.60  2.21
493.6  74890.80  1678.47  2.24
495.0  75991.50  1735.50  2.28
496.5  77146.48  1795.94  2.33
497.9  78247.10  1860.23  2.38
499.3  79406.43  1932.91  2.43
500.7  80648.25  2023.09  2.51
502.2  81789.20  2119.09  2.59
503.6  83030.20  2231.71  2.69
505.0  84105.65  2359.35  2.81
506.5  85384.73  2511.75  2.94
507.9  86518.70  2682.62  3.10
509.3  87852.80  2874.02  3.27
510.7  89066.25  3094.93  3.47
512.2  90439.80  3347.17  3.70
513.6  91911.75  3642.17  3.96
515.0  93330.23  3969.45  4.25
516.4  94689.00  4329.45  4.57
517.8  96304.25  4737.93  4.92
519.3  97610.13  5168.88  5.30
520.7  99164.90  5646.76  5.69
522.1  100452.30  6134.36  6.11
523.5  101775.80  6649.49  6.53
524.9  103202.10  7180.93  6.96
526.3  104582.80  7712.10  7.37
527.8  106043.85  8256.60  7.79
529.2  107131.00  8785.32  8.20
530.6  108692.90  9352.59  8.60
532.0  110362.00  9916.00  8.98
533.4  111667.95  10429.48  9.34
534.8  112544.75  10886.06  9.67
536.3  114087.60  11380.26  9.98
537.7  115970.40  11890.80  10.25
539.1  117358.65  12342.61  10.52
540.5  118547.90  12764.97  10.77
541.9  120258.08  13231.74  11.00
543.3  121560.65  13652.99  11.23
544.7  122869.20  14071.94  11.45
546.1  124656.40  14537.23  11.66
547.5  125854.40  14925.87  11.86
549.0  127512.00  15343.43  12.03
550.4  128987.50  15720.95  12.19
551.8  130510.00  16069.17  12.31
553.2  131995.48  16367.94  12.40
554.6  133296.80  16599.39  12.45
556.0  134777.70  16799.53  12.46
557.4  136362.28  16964.47  12.44
558.8  137986.20  17098.20  12.39
560.2  139429.63  17170.13  12.31
561.6  141071.10  17226.07  12.21
563.0  142638.08  17233.87  12.08
564.4  144229.05  17212.58  11.93
565.8  145711.25  17145.71  11.77
567.2  147447.00  17066.90  11.57
568.6  148900.50  16920.46  11.36
570.0  150313.60  16719.63  11.12
571.4  151992.75  16511.85  10.86
572.8  153736.38  16291.24  10.60
574.2  155344.00  16056.53  10.34
575.6  156881.25  15831.43  10.09
577.0  158380.80  15624.13  9.86
578.4  160057.63  15457.00  9.66
579.8  161568.00  15296.72  9.47
581.2  163253.80  15175.38  9.30
582.5  164665.80  15047.31  9.14
583.9  166167.60  14948.91  9.00
585.3  167915.93  14891.49  8.87
586.7  169384.15  14829.69  8.76
588.1  170841.25  14785.57  8.65
589.5  172467.75  14775.83  8.57
590.9  174058.80  14785.52  8.49
592.3  175850.60  14832.90  8.43
593.7  177285.23  14868.38  8.39
595.0  178883.10  14930.74  8.35
596.4  180315.80  14983.77  8.31
597.8  181768.65  15032.51  8.27
599.2  183255.60  15069.37  8.22
600.6  184990.98  15094.05  8.16
602.0  186271.88  15048.79  8.08
603.3  188033.35  15001.78  7.98
604.7  189672.25  14904.45  7.86
606.1  191130.00  14754.17  7.72
607.5  192735.93  14578.81  7.56
608.9  194409.85  14375.16  7.39
610.2  195770.93  14127.75  7.22
611.6  197355.53  13885.70  7.04
613.0  198889.80  13642.17  6.86
614.4  200251.65  13394.32  6.69
615.8  201678.75  13168.07  6.53
617.1  203212.80  12972.40  6.38
618.5  204817.20  12811.16  6.25
619.9  206308.28  12679.14  6.15
621.3  207914.40  12591.21  6.06
622.6  209489.25  12526.78  5.98
624.0  210938.85  12493.90  5.92
625.4  212396.25  12490.74  5.88
626.8  213936.45  12526.15  5.86
628.1  215192.18  12562.79  5.84
629.5  216956.73  12647.13  5.83
630.9  218393.73  12723.44  5.83
632.2  219656.50  12786.22  5.82
633.6  221152.25  12838.86  5.81
635.0  222585.20  12854.13  5.77
636.3  224069.60  12823.42  5.72
637.7  225440.63  12723.47  5.64
639.1  227045.00  12573.33  5.54
640.4  228502.40  12362.40  5.41
641.8  229692.95  12090.44  5.26
643.2  231224.70  11803.80  5.10
644.5  232559.75  11485.33  4.94
645.9  234112.05  11164.89  4.77
647.2  235061.23  10832.78  4.61
648.6  236479.50  10545.43  4.46
650.0  237772.80  10281.60  4.32
651.3  238817.98  10023.44  4.20
652.7  241079.95  9821.50  4.07
654.0  243198.00  9611.46  3.95
655.4  244603.50  9365.95  3.83
656.8  244796.80  9054.06  3.70
658.1  246158.80  8749.23  3.55
659.5  248302.43  8449.50  3.40
660.8  249547.50  8123.57  3.26
662.2  250521.60  7786.67  3.11
663.5  251978.40  7490.92  2.97
664.9  253000.80  7223.54  2.86
666.2  253790.40  6991.94  2.76
667.6  255464.98  6835.70  2.68
668.9  256379.55  6716.74  2.62
670.3  258229.88  6654.97  2.58
671.6  259238.63  6616.43  2.55
673.0  260411.25  6618.54  2.54
674.3  261664.00  6653.15  2.54
675.7  263001.55  6719.21  2.55
677.0  264101.78  6800.48  2.57
678.4  265423.28  6928.43  2.61
679.7  266480.48  7079.46  2.66
681.1  267747.68  7286.85  2.72
682.4  268824.40  7560.30  2.81
683.8  270039.90  7924.43  2.93
685.1  271031.25  8405.40  3.10
686.4  272394.00  9070.29  3.33
687.8  273608.25  9968.00  3.64
689.1  274676.25  11177.98  4.07
690.5  276022.50  12803.36  4.64
691.8  276847.05  14889.15  5.38
693.1  278209.95  17554.83  6.31
694.5  279392.75  20758.83  7.43
695.8  280621.25  24472.50  8.72
697.1  281781.50  28621.67  10.16
698.5  282842.00  33142.00  11.72
699.8  283891.00  37949.31  13.37
701.1  285070.10  42944.29  15.06
702.5  285888.90  47962.78  16.78
703.8  286807.50  52980.00  18.47
705.1  287981.85  57954.74  20.12
706.5  288973.13  62784.25  21.73
707.8  289946.55  67448.04  23.26
709.1  290805.45  71888.63  24.72
710.5  291921.70  76217.55  26.11
711.8  292754.40  80290.62  27.43
713.1  293713.30  84228.16  28.68
714.4  294605.30  87970.31  29.86
715.8  295430.40  91517.07  30.98
717.1  296740.95  95051.36  32.03
718.4  297718.40  98306.13  33.02
719.7  298782.65  101441.45  33.95
721.0  299317.50  104237.14  34.82
722.4  300050.30  106951.43  35.64
723.7  301018.50  109574.23  36.40
725.0  302015.25  112075.37  37.11
726.3  302956.23  114405.42  37.76
727.6  303504.03  116446.63  38.37
729.0  304352.30  118489.50  38.93
730.3  305150.33  120365.93  39.44
731.6  306019.85  122154.83  39.92
732.9  306787.78  123783.10  40.35
734.2  307591.63  125323.39  40.74
735.5  308600.95  126851.28  41.11
736.8  309379.80  128196.68  41.44
738.1  310269.80  129483.37  41.73
739.5  311204.78  130731.49  42.01
740.8  311884.93  131792.05  42.26
742.1  312561.40  132798.72  42.49
743.4  313200.00  133723.81  42.70
744.7  314058.13  134705.43  42.89
746.0  314897.70  135627.33  43.07
747.3  315514.53  136371.57  43.22
748.6  316235.75  137132.24  43.36
749.9  316888.00  137812.38  43.49
751.2  317487.15  138438.10  43.60
752.5  318219.35  139100.57  43.71
753.8  318714.73  139620.45  43.81
755.1  319358.00  140169.71  43.89
756.4  319908.10  140655.86  43.97
757.7  320878.95  141294.22  44.03
759.0  322646.18  142246.90  44.09
760.3  323796.00  142914.52  44.14
761.6  325318.00  143728.67  44.18
762.9  325815.00  144083.14  44.22
764.2  326162.50  144350.52  44.26
765.5  326380.93  144565.73  44.29
766.8  326753.60  144828.34  44.32
768.1  327238.20  145126.06  44.35
769.3  327790.75  145441.63  44.37
770.6  328412.50  145792.52  44.39
771.9  329112.18  146150.43  44.41
773.2  329411.60  146351.96  44.43
774.5  329958.20  146652.63  44.45
775.8  330563.30  146964.65  44.46
777.1  331085.70  147249.14  44.47
778.4  331413.78  147419.25  44.48
779.6  332087.70  147770.05  44.50
780.9  332490.00  147994.29  44.51
782.2  332901.25  148219.24  44.52
783.5  333151.50  148366.52  44.53
784.8  333618.98  148605.86  44.54
786.0  333959.15  148784.27  44.55
787.3  334295.98  148966.68  44.56
788.6  334671.70  149147.10  44.57
789.9  335041.00  149352.80  44.58
791.2  335652.80  149649.55  44.58
792.4  336246.08  149942.04  44.59
793.7  336705.40  150160.04  44.60
795.0  337269.08  150437.49  44.60
796.2  337834.98  150713.86  44.61
797.5  338429.85  150997.53  44.62
798.8  339040.63  151299.76  44.63
800.0  339626.00  151594.97  44.64
801.3  339989.80  151788.47  44.65
802.6  340527.38  152054.55  44.65
803.8  341154.98  152343.15  44.66
805.1  341522.13  152535.33  44.66
806.4  341947.50  152744.71  44.67
807.7  342427.50  152980.27  44.68
808.9  342915.80  153240.43  44.69
810.2  343373.10  153461.53  44.69
811.4  343817.40  153670.84  44.70
812.7  344418.75  153953.27  44.70
814.0  345166.20  154312.50  44.71
815.2  345773.50  154610.19  44.71
816.5  346147.70  154819.10  44.73
817.7  346613.65  155027.22  44.73
819.0  347078.60  155257.19  44.73
820.2  347204.00  155336.76  44.74
821.5  347868.15  155649.90  44.74
822.7  348210.03  155819.30  44.75
824.0  348518.70  155976.94  44.75
825.2  348986.48  156199.24  44.76
826.5  349267.70  156349.68  44.76
827.7  349814.10  156611.81  44.77
829.0  350186.58  156792.41  44.77
830.2  350501.60  156940.17  44.78
831.5  350949.70  157165.32  44.78
832.7  351280.65  157309.75  44.78
834.0  351678.28  157485.38  44.78
835.2  352022.55  157660.04  44.79
836.4  352270.05  157824.54  44.80
837.7  352679.40  158031.71  44.81
838.9  353140.90  158227.85  44.81
840.1  353517.75  158422.69  44.81
841.4  353974.90  158631.78  44.81
842.6  354314.00  158817.89  44.82
843.8  354705.80  159001.33  44.83
845.1  355209.75  159255.83  44.83
846.3  355671.80  159448.16  44.83
847.5  356082.30  159656.60  44.84
848.8  356462.40  159856.00  44.85
850.0  356854.40  160043.90  44.85
851.2  357350.40  160292.83  44.86
852.5  357765.20  160492.80  44.86
853.7  358353.00  160751.14  44.86
854.9  358790.80  160981.83  44.87
856.1  359320.65  161183.72  44.86
857.4  359540.33  161307.23  44.86
858.6  360000.60  161549.80  44.87
859.8  360403.13  161729.64  44.87
861.0  360898.20  161941.37  44.87
862.2  361345.30  162132.23  44.87
863.5  361782.53  162324.50  44.87
864.7  362274.00  162547.94  44.87
865.9  362669.40  162759.26  44.88
867.1  363038.40  162918.14  44.88
868.3  363471.60  163115.97  44.88
869.5  363952.15  163324.75  44.88
870.8  364522.50  163549.71  44.87
872.0  365051.33  163781.71  44.87
873.2  365507.55  163988.47  44.87
874.4  365970.15  164192.79  44.87
875.6  366326.80  164374.49  44.87
876.8  366876.85  164595.13  44.86
878.0  367343.35  164816.36  44.87
879.2  367792.50  165000.89  44.86
880.4  368284.50  165243.00  44.87
881.6  368831.58  165420.64  44.85
882.8  369278.40  165599.31  44.84
884.0  369848.40  165852.96  44.84
885.2  370269.40  166062.04  44.85
886.5  370948.75  166318.74  44.84
887.7  371353.13  166494.81  44.83
888.8  371945.63  166781.16  44.84
890.0  372481.05  166999.92  44.83
891.2  373113.40  167241.12  44.82
892.4  373638.30  167488.35  44.83
893.6  374223.40  167704.06  44.81
894.8  375066.75  168064.83  44.81
896.0  375859.75  168413.07  44.81
897.2  376704.25  168741.86  44.79
898.4  377282.40  169038.57  44.80
899.6  377793.38  169256.89  44.80
900.8  378264.90  169392.87  44.78
902.0  378389.10  169459.73  44.78
903.2  378643.73  169547.06  44.78
904.3  378964.20  169679.83  44.77
905.5  379476.13  169908.65  44.77
906.7  379998.00  170141.90  44.77
907.9  380570.75  170345.23  44.76
909.1  380803.28  170424.77  44.75
910.2  380973.23  170453.05  44.74
911.4  381001.73  170487.67  44.75
912.6  381180.80  170528.86  44.74
913.8  381381.38  170602.08  44.73
915.0  381597.30  170741.20  44.74
916.2  381771.00  170786.57  44.74
917.3  381827.70  170749.39  44.72
918.5  381973.60  170777.93  44.71
919.7  382152.75  170789.49  44.69
920.8  382047.80  170753.42  44.69
922.0  382151.00  170709.00  44.67
923.2  382200.00  170755.00  44.68
924.4  382330.13  170820.64  44.68
925.5  382457.80  170858.68  44.67
926.7  383131.13  171039.83  44.64
927.9  383768.40  171330.34  44.64
929.0  385238.70  171857.18  44.61
930.2  387408.10  172729.36  44.59
931.4  389651.18  173713.37  44.58
932.5  392314.30  174739.62  44.54
933.7  393532.75  175242.33  44.53
934.9  394165.63  175457.08  44.51
936.0  393571.75  175191.72  44.51
937.2  391289.25  174132.19  44.50
938.3  389626.65  173262.91  44.47
939.5  387975.60  172406.74  44.44
940.7  388150.20  172391.14  44.41
941.8  389618.93  172918.93  44.38
943.0  390944.25  173428.64  44.36
944.2  391601.60  173639.27  44.34
945.3  391062.75  173270.50  44.31
946.5  390124.35  172763.10  44.28
947.6  390172.20  172628.90  44.24
948.8  389990.25  172386.59  44.20
949.9  390062.40  172264.40  44.16
951.1  389620.08  171859.47  44.11
952.2  389436.00  171515.43  44.04
953.4  389008.25  171188.50  44.01
954.5  388767.60  170886.86  43.96
955.7  388558.80  170605.20  43.91
956.8  388297.80  170231.78  43.84
958.0  387846.50  169816.67  43.78
959.1  387569.83  169530.22  43.74
960.3  387047.93  169239.70  43.73
961.4  386772.95  169054.71  43.71
962.6  386716.75  168966.67  43.69
963.7  386386.88  168643.41  43.65
964.9  386327.48  168449.73  43.60
966.0  386019.68  168241.44  43.58
967.2  386187.30  168225.82  43.56
968.3  385588.35  168133.63  43.60
969.5  385533.93  168011.26  43.58
970.6  385447.88  167900.46  43.56
971.8  385659.40  167820.58  43.52
972.9  385597.88  167739.16  43.50
974.0  385539.70  167854.02  43.54
975.2  385471.25  167736.04  43.51
976.3  385414.38  167789.70  43.53
977.5  385360.33  167801.65  43.54
978.6  385296.30  167699.06  43.52
979.7  385650.30  167624.80  43.47
980.9  385540.88  167529.37  43.45
982.0  384919.90  167525.40  43.52
983.2  384726.53  167486.08  43.53
984.3  384466.60  167335.03  43.52
985.4  384752.38  167290.83  43.48
986.6  383828.13  167100.49  43.54
987.7  384812.75  167342.30  43.49
988.9  384685.20  167097.43  43.44
990.0  384953.30  167509.61  43.51
993.1  388972.91  167680.70  43.11
996.9  387457.43  167499.10  43.23
1000.7  387367.34  167843.27  43.33
1004.5  387363.08  168233.82  43.43
1008.4  386985.67  168471.19  43.53
1012.2  386785.42  168755.05  43.63
1016.0  386403.60  168911.57  43.71
1019.8  385654.50  168912.98  43.80
1023.7  384349.08  168607.35  43.87
1027.5  382552.22  168087.78  43.94
1031.3  381419.40  167780.60  43.99
1035.1  380305.51  167455.02  44.03
1038.9  379820.10  167365.00  44.06
1042.7  379566.75  167376.51  44.10
1046.5  379438.00  167413.72  44.12
1050.3  379454.86  167507.31  44.14
1054.2  379131.08  167457.92  44.17
1058.0  378771.34  167332.18  44.18
1061.8  378734.77  167374.92  44.19
1065.6  378149.70  167126.92  44.20
1069.4  377258.80  166749.42  44.20
1073.2  375949.03  166133.27  44.19
1077.0  375252.45  165780.89  44.18
1080.8  375489.58  165804.91  44.16
1084.6  375653.60  165798.85  44.14
1088.4  376007.28  165903.02  44.12
1092.2  375599.25  165605.14  44.09
1096.0  374898.27  165190.17  44.06
1099.8  374234.25  164732.81  44.02
1103.6  373322.08  164173.66  43.98
1107.4  372155.98  163476.76  43.93
1111.2  371844.80  163160.91  43.88
1114.9  371303.92  162694.42  43.82
1118.7  371049.53  162280.45  43.74
1122.5  370679.40  161760.36  43.64
1126.3  369831.06  160909.70  43.51
1130.1  369483.33  160088.08  43.33
1133.9  367805.90  158452.50  43.08
1137.7  366225.00  156652.51  42.77
1141.4  364136.28  154475.39  42.42
1145.2  363220.54  152630.31  42.02
1149.0  361958.33  150775.84  41.66
1152.8  360173.05  148867.69  41.33
1156.6  358337.47  147257.92  41.09
1160.3  356556.33  145940.90  40.93
1164.1  354242.87  144624.53  40.83
1167.9  352594.79  143746.58  40.77
1171.7  351327.38  143086.50  40.73
1175.4  349836.23  142380.94  40.70
1179.2  348423.45  141681.09  40.66
1183.0  348113.00  141398.19  40.62
1186.7  348197.50  141282.17  40.58
1190.5  347906.47  141065.80  40.55
1194.3  346951.10  140634.95  40.53
1198.0  345456.38  140028.12  40.53
1201.8  343776.55  139378.26  40.54
1205.6  342727.33  139053.72  40.57
1209.3  342183.03  139006.94  40.62
1213.1  341749.73  139020.35  40.68
1216.8  341156.57  139036.81  40.75
1220.6  340032.00  138831.73  40.83
1224.3  338765.67  138557.79  40.90
1228.1  337269.00  138211.14  40.98
1231.9  335658.08  137762.74  41.04
1235.6  333917.85  137234.25  41.10
1239.4  332344.50  136787.32  41.16
1243.1  330958.04  136353.19  41.20
1246.9  329669.38  135930.73  41.23
1250.6  328628.33  135573.44  41.25
1254.3  327455.06  135154.22  41.27
1258.1  326225.43  134684.45  41.29
1261.8  324775.20  134109.07  41.29
1265.6  323648.08  133615.15  41.28
1269.3  322945.93  133255.36  41.26
1273.1  323314.43  133305.60  41.23
1276.8  323030.80  133053.20  41.19
1280.6  321768.67  132394.64  41.15
1284.3  319718.00  131366.34  41.09
1288.0  318515.33  130624.77  41.01
1291.8  318125.53  130142.16  40.91
1295.5  317455.60  129506.88  40.80
1299.2  316289.48  128609.78  40.66
1302.9  314648.39  127435.35  40.50
1306.7  312862.55  126126.12  40.31
1310.4  311125.07  124719.45  40.09
1314.1  309507.00  123300.65  39.84
1317.9  308105.63  121820.92  39.54
1321.6  306537.45  120187.79  39.21
1325.3  304850.18  118391.78  38.84
1329.0  303542.28  116692.62  38.44
1332.8  301639.80  114637.60  38.00
1336.5  299990.00  112668.00  37.56
1340.2  299860.17  111284.33  37.11
1343.9  299832.29  109928.01  36.66
1347.6  299992.65  108648.81  36.22
1351.4  301490.50  107913.21  35.79
1355.1  303618.70  107398.03  35.37
1358.8  305456.00  106701.72  34.93
1362.5  305739.85  105333.91  34.45
1366.2  303797.65  102951.63  33.89
1369.9  300561.38  99833.34  33.22
1373.6  297655.11  96354.05  32.37
1377.3  296105.70  92672.01  31.30
1381.0  295607.50  88503.26  29.94
1384.8  293670.00  83046.79  28.28
1388.4  290417.17  76713.15  26.41
1392.2  288132.92  70325.52  24.41
1395.9  286671.23  64125.18  22.37
1399.6  284861.64  58228.08  20.44
1403.3  283366.35  53047.05  18.72
1407.0  281642.30  48607.20  17.26
1410.7  279814.43  44989.49  16.08
1414.3  277883.61  42139.18  15.16
1418.1  276198.08  40016.11  14.49
1421.7  274753.91  38463.75  14.00
1425.4  273391.95  37351.74  13.66
1429.1  272106.75  36592.50  13.45
1432.8  270447.07  36044.50  13.33
1436.5  269649.57  35792.14  13.27
1440.2  269038.70  35716.60  13.28
1443.9  267943.87  35668.45  13.31
1447.6  266404.60  35633.40  13.38
1451.2  265165.63  35680.91  13.46
1454.9  263716.05  35741.02  13.55
1458.6  262444.08  35944.04  13.70
1462.3  261204.17  36279.73  13.89
1466.0  259837.34  36751.17  14.14
1469.7  258141.11  37345.88  14.47
1473.3  257076.50  38157.69  14.84
1477.0  255035.10  38920.71  15.26
1480.7  253350.28  39800.40  15.71
1484.4  251315.93  40632.24  16.17
1488.0  249714.67  41559.05  16.64
1491.7  248116.70  42470.09  17.12
1495.4  246443.47  43375.52  17.60
1499.0  244890.50  44256.07  18.07
1502.7  243612.83  45190.07  18.55
1506.4  242196.37  46053.33  19.01
1510.0  240742.23  46880.49  19.47
1513.7  239242.50  47654.55  19.92
1517.4  237861.67  48418.00  20.36
1521.0  236598.40  49173.13  20.78
1524.7  235360.67  49865.06  21.19
1528.3  234065.38  50519.07  21.58
1532.0  232812.07  51138.63  21.97
1535.7  231404.88  51662.70  22.33
1539.3  230115.39  52187.62  22.68
1543.0  229134.31  52755.38  23.02
1546.6  228431.67  53345.66  23.35
1550.3  227427.35  53823.54  23.67
1553.9  226357.67  54256.88  23.97
1557.6  225093.00  54608.72  24.26
1561.2  223799.85  54903.21  24.53
1564.9  222467.83  55172.00  24.80
1568.5  221133.73  55404.42  25.05
1572.2  219938.70  55656.07  25.31
1575.8  218820.00  55906.00  25.55
1579.5  217805.10  56145.92  25.78
1583.1  216733.56  56362.53  26.01
1586.8  215404.00  56482.00  26.22
1590.4  214162.70  56610.47  26.43
1594.0  212818.23  56691.65  26.64
1597.7  212015.15  56908.23  26.84
1601.3  211094.10  57080.70  27.04
1604.9  210120.84  57210.15  27.23
1608.6  208757.18  57193.83  27.40
1612.2  207345.60  57143.86  27.56
1615.8  205879.70  57049.94  27.71
1619.5  204602.83  56984.77  27.85
1623.1  203256.90  56872.27  27.98
1626.7  202050.55  56772.44  28.10
1630.3  200845.33  56656.74  28.21
1634.0  199724.00  56536.00  28.31
1637.6  198705.73  56405.32  28.39
1641.2  197655.40  56204.01  28.44
1644.8  196402.11  55897.22  28.46
1648.5  195310.50  55595.65  28.47
1652.1  194340.30  55284.09  28.45
1655.7  193389.80  54949.94  28.41
1659.3  192553.33  54651.17  28.38
1662.9  191122.50  54197.62  28.36
1666.6  189660.87  53752.75  28.34
1670.2  188227.03  53295.14  28.31
1673.8  186746.78  52794.56  28.27
1677.4  185544.30  52342.27  28.21
1681.0  184720.30  51934.74  28.12
1684.6  184294.50  51593.29  28.00
1688.2  183596.25  51113.84  27.84
1691.8  182908.32  50661.51  27.70
1695.4  182484.20  50253.80  27.54
1699.0  182115.50  49857.33  27.38
1702.6  181732.33  49441.81  27.21
1706.2  181098.34  48928.64  27.02
1709.8  180116.47  48336.26  26.84
1713.4  179361.12  47804.73  26.65
1717.0  178460.25  47269.53  26.49
1720.6  177625.05  46764.99  26.33
1724.2  176876.18  46301.62  26.18
1727.8  176145.20  45876.70  26.04
1731.4  175692.00  45541.38  25.92
1735.0  175524.25  45304.36  25.81
1738.6  175311.15  45014.68  25.68
1742.2  174763.41  44599.75  25.52
1745.8  174158.92  44126.64  25.34
1749.4  173208.75  43531.72  25.13
1753.0  171721.00  42792.11  24.92
1756.6  170041.67  42029.00  24.72
1760.1  168668.63  41376.23  24.53
1763.7  166903.33  40648.67  24.35
1767.3  165437.85  40033.82  24.20
1770.9  164167.15  39486.71  24.05
1774.5  162679.23  38926.60  23.93
1778.0  161487.42  38469.64  23.82
1781.6  160362.75  38058.97  23.73
1785.2  159204.90  37671.97  23.66
1788.8  158006.40  37316.41  23.62
1792.3  156735.77  36966.95  23.59
1795.9  156186.98  36803.77  23.56
1799.5  155993.00  36747.29  23.56
1803.1  157090.73  37011.68  23.56
1806.6  159346.43  37536.99  23.56
1810.2  161178.27  37960.30  23.55
1813.8  161976.70  38135.51  23.54
1817.3  161403.00  37987.09  23.54
1820.9  160088.92  37648.58  23.52
1824.5  158625.90  37256.28  23.49
1828.0  157426.50  36895.77  23.44
1831.6  156906.95  36652.91  23.36
1835.2  156640.83  36414.41  23.25
1838.7  156422.27  36102.88  23.08
1842.3  156240.00  35712.86  22.86
1845.8  155011.63  34972.04  22.56
1849.4  154378.60  34208.59  22.16
1852.9  153530.53  33222.34  21.64
1856.5  152479.78  31986.98  20.98
1860.0  151418.33  30504.58  20.15
1863.6  151355.96  28966.01  19.14
1867.1  151966.15  27275.85  17.95
1870.7  152877.38  25254.88  16.52
1874.2  151898.85  22624.97  14.89
1877.8  149247.60  19674.91  13.18
1881.3  146262.13  16722.59  11.43
1884.9  144327.52  14094.55  9.77
1888.4  142731.20  11745.01  8.23
1891.9  141065.00  9781.72  6.93
1895.5  139570.55  8266.46  5.92
1899.0  138802.50  7206.64  5.19
1901.3  178102.67  5971.44  3.35
1904.1  178020.00  5256.75  2.95
1906.8  176955.00  4700.00  2.66
1909.6  174670.65  4265.92  2.44
1912.4  172584.42  3951.58  2.29
1915.1  171041.75  3730.83  2.18
1917.9  169443.50  3572.05  2.11
1920.6  168098.57  3467.89  2.06
1923.3  166693.80  3396.17  2.04
1926.1  164928.83  3341.64  2.03
1928.8  163269.33  3324.44  2.04
1931.6  161972.78  3320.61  2.05
1934.3  160785.60  3358.35  2.09
1937.0  159645.00  3400.87  2.13
1939.8  158390.50  3447.97  2.18
1942.5  156805.00  3512.67  2.24
1945.2  154795.85  3573.90  2.31
1947.9  153138.77  3662.16  2.39
1950.7  151852.13  3756.91  2.47
1953.4  149973.20  3855.02  2.57
1956.1  148500.83  3967.56  2.67
1958.8  147184.70  4093.12  2.78
1961.5  145626.80  4225.87  2.90
1964.2  144034.80  4361.93  3.03
1966.9  142401.75  4503.88  3.16
1969.6  141111.00  4662.00  3.30
1972.3  139676.60  4826.77  3.46
1975.0  138582.15  5006.15  3.61
1977.7  137434.20  5172.44  3.76
1980.4  136260.30  5362.28  3.94
1983.1  135134.48  5549.61  4.11
1985.8  134188.80  5744.90  4.28
1988.4  133128.67  5942.44  4.46
1991.1  132176.33  6146.93  4.65
1993.8  131274.92  6350.48  4.84
1996.5  130637.28  6577.39  5.03
1999.1  129939.33  6784.19  5.22
2001.8  129232.37  6998.75  5.42
2004.5  128530.35  7205.45  5.61
2007.1  127786.45  7407.28  5.80
2009.8  127022.23  7608.84  5.99
2012.4  126423.73  7809.57  6.18
2015.1  125856.73  8008.86  6.36
2017.8  125053.83  8178.64  6.54
2020.4  124536.68  8361.04  6.71
2023.1  124173.23  8544.12  6.88
2025.7  123924.67  8738.89  7.05
2028.3  123578.00  8912.22  7.21
2031.0  123164.40  9065.40  7.36
2033.6  122870.10  9216.20  7.50
2036.2  122609.10  9358.30  7.63
2038.9  122000.10  9468.50  7.76
2041.5  121632.37  9585.43  7.88
2044.1  121060.50  9674.40  7.99
2046.8  120677.70  9778.80  8.10
2049.4  120016.50  9862.90  8.22
2052.0  119725.27  9961.82  8.32
2054.6  119315.00  10053.75  8.43
2057.2  118738.40  10124.84  8.53
2059.8  118389.07  10232.55  8.64
2062.4  117491.95  10288.57  8.76
2065.0  116948.07  10378.11  8.87
2067.6  116036.27  10419.32  8.98
2070.2  115417.38  10486.15  9.09
2072.8  114772.35  10547.16  9.19
2075.4  114318.75  10619.58  9.29
2078.0  113682.68  10683.46  9.40
2080.6  113097.60  10753.60  9.51
2083.2  112371.13  10797.61  9.61
2085.8  111864.53  10864.98  9.71
2088.4  111211.67  10912.11  9.81
2090.9  110411.12  10938.54  9.91
2093.5  109495.67  10955.41  10.01
2096.1  108702.53  10987.95  10.11
2098.7  107912.03  11014.30  10.21
2101.2  106939.67  11015.65  10.30
2103.8  106241.00  11047.67  10.40
2106.4  105568.53  11065.13  10.48
2108.9  104904.80  11102.98  10.58
2111.5  104040.20  11100.07  10.67
2114.0  103385.20  11120.45  10.76
2116.6  102847.50  11144.58  10.84
2119.1  102271.93  11168.73  10.92
2121.7  101771.25  11197.08  11.00
2124.2  101360.20  11230.10  11.08
2126.8  100551.60  11210.46  11.15
2129.3  100126.40  11231.73  11.22
2131.9  99519.20  11237.60  11.29
2134.4  99093.45  11251.30  11.35
2136.9  98693.83  11275.91  11.43
2139.4  98136.27  11278.40  11.49
2142.0  97684.07  11281.36  11.55
2144.5  97401.60  11317.83  11.62
2147.0  97158.93  11348.31  11.68
2149.5  96658.67  11354.27  11.75
2152.1  96481.00  11387.87  11.80
2154.6  96387.73  11433.07  11.86
2157.1  95847.33  11420.78  11.92
2159.6  95420.42  11414.72  11.96
2162.1  95249.70  11441.73  12.01
2164.6  94995.80  11459.29  12.06
2167.1  94670.98  11463.86  12.11
2169.6  94332.58  11462.46  12.15
2172.1  93866.07  11452.41  12.20
2174.6  93519.20  11453.60  12.25
2177.1  93083.98  11452.54  12.30
2179.5  92663.57  11450.18  12.36
2182.0  92172.30  11441.28  12.41
2184.5  91628.25  11413.26  12.46
2187.0  91003.37  11386.03  12.51
2189.5  90309.78  11354.71  12.57
2191.9  89509.00  11305.00  12.63
2194.4  88862.75  11265.82  12.68
2196.9  88089.60  11212.80  12.73
2199.3  87425.33  11177.89  12.79
2201.8  86500.13  11099.24  12.83
2204.3  86003.82  11063.38  12.86
2206.7  85350.25  11018.87  12.91
2209.2  84878.07  10990.27  12.95
2211.6  84239.10  10932.90  12.98
2214.1  83928.25  10911.83  13.00
2216.5  83360.53  10843.89  13.01
2219.0  83012.87  10804.16  13.02
2221.4  82605.83  10749.67  13.01
2223.9  82129.83  10663.72  12.98
2226.3  81624.08  10574.47  12.96
2228.7  81053.22  10459.86  12.90
2231.1  80437.50  10329.00  12.84
2233.6  79834.20  10181.67  12.75
2236.0  79263.92  10019.14  12.64
2238.4  78748.25  9873.69  12.54
2240.9  78284.60  9724.73  12.42
2243.3  77738.27  9542.62  12.28
2245.7  77152.30  9362.95  12.14
2248.1  76653.63  9195.91  12.00
2250.5  76122.92  9014.95  11.84
2252.9  75487.53  8807.21  11.67
2255.3  74913.55  8626.65  11.52
2257.7  74430.00  8456.67  11.36
2260.1  73915.57  8290.88  11.22
2262.5  73290.00  8103.33  11.06
2264.9  72758.53  7936.75  10.91
2267.3  72130.00  7773.33  10.78
2269.7  71617.93  7632.02  10.66
2272.1  71058.23  7489.13  10.54
2274.5  70472.35  7354.39  10.44
2276.8  69976.43  7238.71  10.34
2279.2  69385.20  7102.00  10.24
2281.6  68946.60  7003.04  10.16
2284.0  68467.90  6894.93  10.07
2286.3  67974.40  6779.20  9.97
2288.7  67556.23  6663.29  9.86
2291.1  67007.87  6535.69  9.75
2293.4  66569.07  6426.93  9.65
2295.8  65930.30  6289.87  9.54
2298.2  65308.50  6147.90  9.41
2300.5  64635.75  6020.25  9.31
2302.9  63870.33  5890.00  9.22
2305.2  63118.40  5757.70  9.12
2307.6  62436.47  5626.02  9.01
2309.9  61648.67  5507.66  8.93
2312.2  61049.33  5421.56  8.88
2314.6  60433.65  5330.25  8.82
2316.9  59719.50  5230.20  8.76
2319.2  59141.83  5152.23  8.71
2321.6  58478.93  5049.76  8.64
2323.9  57927.08  4965.28  8.57
2326.2  57383.33  4879.32  8.50
2328.6  56858.45  4793.07  8.43
2330.9  56343.00  4700.50  8.34
2333.2  55858.83  4607.28  8.25
2335.5  55404.60  4529.67  8.18
2337.8  54941.08  4446.33  8.09
2340.1  54358.78  4349.28  8.00
2342.4  53906.67  4264.72  7.91
2344.8  53469.83  4188.36  7.83
2347.1  52892.23  4108.85  7.77
2349.4  52340.18  4028.43  7.70
2351.6  51734.27  3947.64  7.63
2353.9  51227.77  3869.02  7.55
2356.2  50703.12  3794.49  7.48
2358.5  50097.60  3718.40  7.42
2360.8  49504.00  3643.73  7.36
2363.1  49072.92  3574.38  7.28
2365.4  48590.00  3495.47  7.19
2367.7  48096.60  3423.80  7.12
2369.9  47551.85  3354.85  7.06
2372.2  46921.60  3268.00  6.96
2374.5  46338.60  3187.80  6.88
2376.7  45688.35  3113.27  6.81
2379.0  45055.90  3028.54  6.72
2381.3  44438.33  2943.89  6.62
2383.5  43906.13  2878.58  6.56
2385.8  43277.80  2796.54  6.46
2388.0  42751.40  2725.80  6.38
2390.3  42221.60  2650.22  6.28
2392.5  41712.00  2580.00  6.19
2394.8  41236.80  2508.73  6.08
2397.0  40768.00  2450.93  6.01
2399.3  40290.28  2379.81  5.91
2401.5  39824.75  2307.08  5.79
2403.8  39302.48  2237.53  5.69
2406.0  38764.83  2168.78  5.59
2408.2  38335.00  2119.33  5.53
2410.4  37924.37  2059.75  5.43
2412.7  37511.50  2006.48  5.35
2414.9  37153.05  1939.67  5.22
2417.1  36741.10  1883.83  5.13
2419.3  36300.80  1826.13  5.03
2421.6  35895.42  1769.59  4.93
2423.8  35515.70  1733.21  4.88
2426.0  35158.87  1679.18  4.78
2428.2  34770.40  1628.98  4.68
2430.4  34459.60  1588.00  4.61
2432.6  34200.00  1537.78  4.50
2434.8  33897.87  1488.16  4.39
2437.0  33516.17  1446.32  4.32
2439.2  33142.87  1401.23  4.23
2441.4  32815.43  1349.70  4.11
2443.6  32579.70  1317.19  4.04
2445.7  32306.52  1286.52  3.98
2447.9  32022.25  1247.86  3.90
2450.1  31710.85  1203.62  3.80
2452.3  31339.00  1157.57  3.69
2454.5  30962.22  1115.76  3.60
2456.6  30573.47  1084.27  3.55
2458.8  30187.30  1048.67  3.47
2461.0  29900.17  1013.97  3.39
2463.1  29580.15  979.70  3.31
2465.3  29295.93  960.92  3.28
2467.5  29057.50  934.17  3.21
2469.6  28804.08  899.97  3.12
2471.8  28501.63  865.96  3.04
2473.9  28175.67  849.70  3.02
2476.1  27800.50  829.11  2.98
2478.2  27450.47  797.21  2.90
2480.4  27154.15  787.97  2.90
2482.5  26801.65  758.68  2.83
2484.6  26476.08  742.81  2.81
2486.8  26203.30  727.43  2.78
2488.9  25884.67  726.03  2.80
2491.1  25513.60  698.14  2.74
2493.2  25131.53  686.57  2.73
2495.3  24723.40  668.06  2.70
2497.4  24375.40  649.37  2.66
2499.5  24032.25  631.15  2.63
2501.7  23910.50  608.03  2.54
2503.8  23837.97  596.23  2.50
2505.9  23762.92  597.92  2.52
2508.0  23787.63  589.73  2.48
2510.1  23784.83  584.19  2.46
2512.2  23891.70  581.08  2.43
2514.3  24089.85  575.83  2.39
2516.4  24309.80  597.57  2.46
