/*** Spectra Vista SIG Data ***/
name= 61_20220722_CECA_33_avg.sig
comm= Averaged Ref/Tar of files: HR.072222.0057_moc.sig,HR.072222.0058_moc.sig,HR.072222.0059_moc.sig
data=
337.3  3225.63  284.52  8.82
338.8  3367.00  275.77  8.19
340.3  3513.75  281.10  8.00
341.8  3703.73  274.35  7.41
343.2  3907.20  272.32  6.97
344.7  4051.75  267.27  6.60
346.2  4207.55  250.55  5.95
347.7  4365.08  251.68  5.77
349.2  4536.00  241.92  5.33
350.6  4810.98  254.63  5.29
352.1  5072.95  247.69  4.88
353.6  5343.80  249.84  4.68
355.1  5623.73  255.93  4.55
356.6  5932.28  253.46  4.27
358.0  6156.70  263.71  4.28
359.5  6427.20  263.68  4.10
361.0  6733.13  263.34  3.91
362.5  7084.55  269.33  3.80
364.0  7426.83  279.10  3.76
365.4  7783.70  292.24  3.75
366.9  8149.38  294.67  3.62
368.4  8455.25  309.12  3.66
369.9  8810.15  313.49  3.56
371.3  9211.50  327.52  3.56
372.8  9637.65  339.84  3.53
374.3  10051.25  344.00  3.42
375.8  10456.60  352.15  3.37
377.2  10867.60  355.08  3.27
378.7  11271.10  355.08  3.15
380.2  11674.60  365.84  3.13
381.7  12188.28  367.54  3.02
383.1  12666.50  388.08  3.06
384.6  13190.78  392.04  2.97
386.1  13674.65  407.18  2.98
387.6  14148.75  406.05  2.87
389.0  14659.60  410.93  2.80
390.5  15160.05  417.72  2.76
392.0  15711.30  423.20  2.69
393.4  16316.78  441.42  2.71
394.9  16834.50  455.88  2.71
396.4  17388.00  472.65  2.72
397.9  17911.88  485.17  2.71
399.3  18461.93  486.24  2.63
400.8  19017.78  495.18  2.60
402.2  19664.55  507.37  2.58
403.7  20247.08  516.81  2.55
405.2  20834.00  530.32  2.55
406.6  21413.60  541.33  2.53
408.1  21967.20  560.48  2.55
409.6  22586.55  576.55  2.55
411.0  23250.15  594.95  2.56
412.5  23886.28  610.87  2.56
414.0  24511.13  627.55  2.56
415.4  25201.50  646.60  2.57
416.9  25847.78  668.20  2.59
418.4  26518.50  694.71  2.62
419.8  27227.20  723.15  2.66
421.3  27931.78  748.65  2.68
422.7  28692.60  774.88  2.70
424.2  29463.75  801.00  2.72
425.7  30203.90  825.87  2.73
427.1  30937.88  848.22  2.74
428.6  31728.50  878.33  2.77
430.0  32444.15  906.45  2.79
431.5  33282.75  935.30  2.81
432.9  34134.50  964.95  2.83
434.4  35010.30  991.29  2.83
435.9  35812.00  1015.47  2.84
437.3  36643.75  1043.17  2.85
438.8  37467.00  1071.52  2.86
440.2  38309.43  1099.56  2.87
441.7  39248.60  1129.17  2.88
443.1  40121.00  1162.47  2.90
444.6  41068.50  1194.72  2.91
446.0  41961.15  1224.84  2.92
447.5  42911.00  1256.31  2.93
448.9  43821.30  1288.28  2.94
450.4  44807.00  1324.35  2.96
451.8  45656.00  1353.73  2.97
453.3  46560.08  1385.95  2.98
454.7  47535.40  1421.14  2.99
456.2  48377.05  1449.46  3.00
457.6  49329.90  1479.72  3.00
459.1  50288.55  1510.17  3.00
460.5  51199.50  1537.23  3.00
462.0  52233.55  1568.90  3.00
463.4  53238.20  1596.51  3.00
464.8  54195.75  1622.45  2.99
466.3  55146.30  1651.21  2.99
467.7  56117.03  1683.37  3.00
469.2  57158.58  1711.52  2.99
470.6  58110.80  1742.20  3.00
472.0  59129.08  1771.57  3.00
473.5  60101.88  1800.47  3.00
474.9  61104.00  1831.60  3.00
476.4  62208.00  1862.40  2.99
477.8  63263.50  1898.53  3.00
479.2  64235.00  1931.40  3.01
480.7  65325.68  1970.53  3.02
482.1  66441.10  2007.59  3.02
483.6  67597.10  2046.12  3.03
485.0  68654.93  2082.47  3.03
486.4  69825.45  2124.30  3.04
487.9  70872.75  2166.45  3.06
489.3  72019.98  2212.68  3.07
490.7  73065.45  2263.72  3.10
492.2  74279.10  2318.68  3.12
493.6  75344.95  2371.35  3.15
495.0  76444.88  2425.80  3.17
496.5  77586.73  2488.88  3.21
497.9  78672.68  2551.49  3.24
499.3  79787.98  2629.76  3.30
500.7  81029.15  2713.18  3.35
502.2  82139.60  2807.09  3.42
503.6  83351.40  2916.11  3.50
505.0  84398.65  3029.62  3.59
506.5  85680.23  3163.82  3.69
507.9  86844.85  3318.82  3.82
509.3  88163.60  3492.80  3.96
510.7  89373.38  3689.40  4.13
512.2  90758.25  3912.11  4.31
513.6  92198.75  4169.15  4.52
515.0  93572.05  4459.06  4.77
516.4  94915.80  4776.03  5.03
517.8  96487.88  5147.15  5.33
519.3  97764.95  5528.66  5.66
520.7  99249.20  5953.45  6.00
522.1  100508.20  6387.51  6.36
523.5  101831.40  6838.80  6.72
524.9  103216.05  7307.94  7.08
526.3  104554.10  7754.74  7.42
527.8  106014.15  8207.10  7.74
529.2  107160.80  8630.08  8.05
530.6  108664.00  9059.19  8.34
532.0  110306.00  9467.73  8.58
533.4  111600.08  9812.01  8.79
534.8  112544.75  10088.03  8.96
536.3  114203.70  10397.40  9.10
537.7  116109.00  10710.00  9.22
539.1  117481.90  10951.17  9.32
540.5  118656.35  11156.69  9.40
541.9  120340.50  11407.62  9.48
543.3  121606.95  11615.13  9.55
544.7  122857.80  11819.52  9.62
546.1  124600.03  12067.26  9.68
547.5  125809.60  12251.31  9.74
549.0  127512.00  12471.07  9.78
550.4  128945.00  12648.00  9.81
551.8  130415.28  12801.21  9.82
553.2  131890.73  12928.94  9.80
554.6  133182.40  12998.61  9.76
556.0  134653.50  13041.00  9.68
557.4  136197.08  13052.18  9.58
558.8  137799.90  13029.96  9.46
560.2  139201.38  12949.38  9.30
561.6  140810.48  12854.72  9.13
563.0  142334.30  12716.65  8.93
564.4  143870.35  12548.87  8.72
565.8  145350.00  12343.42  8.49
567.2  147038.50  12130.30  8.25
568.6  148498.13  11875.50  8.00
570.0  149885.58  11604.23  7.74
571.4  151550.75  11350.56  7.49
572.8  153246.88  11110.17  7.25
574.2  154817.60  10872.96  7.02
575.6  156318.75  10656.00  6.82
577.0  157793.20  10460.79  6.63
578.4  159466.13  10302.72  6.46
579.8  160913.93  10154.61  6.31
581.2  162594.03  10034.75  6.17
582.5  163952.10  9915.36  6.05
583.9  165424.20  9811.31  5.93
585.3  167152.73  9743.52  5.83
586.7  168590.50  9669.70  5.74
588.1  170016.75  9611.08  5.65
589.5  171622.50  9572.97  5.58
590.9  173203.20  9548.00  5.51
592.3  174959.55  9541.35  5.45
593.7  176347.28  9534.98  5.41
595.0  177921.23  9536.67  5.36
596.4  179305.70  9536.38  5.32
597.8  180735.73  9534.29  5.28
599.2  182226.00  9530.40  5.23
600.6  183924.98  9530.04  5.18
602.0  185171.03  9495.95  5.13
603.3  186908.70  9466.93  5.07
604.7  188523.55  9421.16  5.00
606.1  189957.00  9350.88  4.92
607.5  191538.38  9274.05  4.84
608.9  193187.50  9190.57  4.76
610.2  194509.35  9090.90  4.67
611.6  196037.63  8994.19  4.59
613.0  197545.95  8899.27  4.50
614.4  198883.95  8803.72  4.43
615.8  200289.38  8718.45  4.35
617.1  201786.90  8641.64  4.28
618.5  203366.80  8589.92  4.22
619.9  204815.78  8543.07  4.17
621.3  206391.83  8520.39  4.13
622.6  207918.50  8505.43  4.09
624.0  209347.50  8503.68  4.06
625.4  210781.73  8516.75  4.04
626.8  212343.95  8542.17  4.02
628.1  213618.35  8566.80  4.01
629.5  215403.38  8610.63  4.00
630.9  216917.53  8644.72  3.99
632.2  218213.63  8661.78  3.97
633.6  219765.13  8676.67  3.95
635.0  221260.80  8666.51  3.92
636.3  222737.50  8626.93  3.87
637.7  224068.00  8555.45  3.82
639.1  225680.00  8474.67  3.76
640.4  227106.08  8363.81  3.68
641.8  228266.95  8235.15  3.61
643.2  229800.73  8120.86  3.53
644.5  231118.00  7998.37  3.46
645.9  232802.10  7903.98  3.40
647.2  234603.43  7825.84  3.34
648.6  236418.75  7778.70  3.29
650.0  237859.20  7724.16  3.25
651.3  238270.18  7657.03  3.21
652.7  239259.00  7621.87  3.19
654.0  241159.90  7602.80  3.15
655.4  242690.40  7573.45  3.12
656.8  243094.30  7512.19  3.09
658.1  244388.20  7469.81  3.06
659.5  246609.30  7455.77  3.02
660.8  248220.00  7422.00  2.99
662.2  249065.60  7365.12  2.96
663.5  250649.40  7336.08  2.93
664.9  251984.20  7316.57  2.90
666.2  252724.80  7308.24  2.89
667.6  254415.70  7331.53  2.88
668.9  255523.60  7376.19  2.89
670.3  256596.50  7431.48  2.90
671.6  258154.50  7513.65  2.91
673.0  259327.13  7613.95  2.94
674.3  260536.90  7720.27  2.96
675.7  261809.50  7843.98  3.00
677.0  262912.43  7990.67  3.04
678.4  264255.95  8161.00  3.09
679.7  265313.15  8340.13  3.14
681.1  266577.70  8544.50  3.21
682.4  267675.20  8766.33  3.27
683.8  268912.80  9019.75  3.35
685.1  269902.88  9307.25  3.45
686.4  271195.20  9646.64  3.56
687.8  272429.00  10065.90  3.69
689.1  273452.50  10579.13  3.87
690.5  274793.25  11267.38  4.10
691.8  275588.45  12160.47  4.41
693.1  276873.60  13366.52  4.83
694.5  278005.00  14908.83  5.36
695.8  279210.75  16841.07  6.03
697.1  280348.25  19194.93  6.85
698.5  281411.90  22012.95  7.82
699.8  282507.83  25287.16  8.95
701.1  283641.58  29020.98  10.23
702.5  284423.15  33112.42  11.64
703.8  285367.50  37542.00  13.16
705.1  286501.80  42287.57  14.76
706.5  287541.13  47223.18  16.42
707.8  288538.50  52319.86  18.13
709.1  289398.98  57491.34  19.87
710.5  290537.55  62783.85  21.61
711.8  291394.10  68053.65  23.35
713.1  292397.60  73355.11  25.09
714.4  293311.90  78626.83  26.81
715.8  294137.00  83815.29  28.50
717.1  295444.65  89069.22  30.15
718.4  296374.40  94124.80  31.76
719.7  297501.58  99111.75  33.31
721.0  298012.50  103779.00  34.82
722.4  298764.95  108375.30  36.27
723.7  299750.10  112878.54  37.66
725.0  300765.38  117242.82  38.98
726.3  301723.68  121389.44  40.23
727.6  302294.30  125193.60  41.41
729.0  303206.05  128936.31  42.52
730.3  303976.05  132436.73  43.57
731.6  304862.35  135782.47  44.54
732.9  305670.58  138908.30  45.44
734.2  306516.38  141864.43  46.28
735.5  307518.80  144738.35  47.07
736.8  308337.00  147331.84  47.78
738.1  309170.40  149789.27  48.45
739.5  310141.08  152138.11  49.05
740.8  310856.98  154218.61  49.61
742.1  311595.18  156178.30  50.12
743.4  312325.00  158013.33  50.59
744.7  313277.70  159851.18  51.03
746.0  314137.20  161509.92  51.41
747.3  314697.73  162893.74  51.76
748.6  315411.75  164250.67  52.07
749.9  316134.00  165509.07  52.35
751.2  316859.55  166683.59  52.60
752.5  317748.65  167865.57  52.83
753.8  318375.75  168833.89  53.03
755.1  319124.00  169776.53  53.20
756.4  319752.25  170586.48  53.35
757.7  320722.50  171556.12  53.49
759.0  322541.28  172878.70  53.60
760.3  323743.20  173842.24  53.70
761.6  325318.00  174967.71  53.78
762.9  325895.25  175508.53  53.85
764.2  326297.00  175922.41  53.91
765.5  326597.13  176264.26  53.97
766.8  327080.00  176654.93  54.01
768.1  327621.80  177073.41  54.05
769.3  328233.15  177501.94  54.08
770.6  328943.55  177959.51  54.10
771.9  329647.50  178441.67  54.13
773.2  330093.20  178726.88  54.14
774.5  330759.00  179112.27  54.15
775.8  331486.50  179527.78  54.16
777.1  332105.95  179886.59  54.17
778.4  332473.08  180112.39  54.17
779.6  333246.98  180569.47  54.18
780.9  333720.00  180860.00  54.20
782.2  334232.25  181145.07  54.20
783.5  334615.50  181353.00  54.20
784.8  335160.23  181666.11  54.20
786.0  335610.10  181899.39  54.20
787.3  336027.10  182139.53  54.20
788.6  336517.55  182395.44  54.20
789.9  337005.20  182664.16  54.20
791.2  337705.03  183028.07  54.20
792.4  338389.45  183420.14  54.20
793.7  338909.80  183691.09  54.20
795.0  339569.18  184044.08  54.20
796.2  340230.73  184422.55  54.21
797.5  340999.50  184824.97  54.20
798.8  341717.73  185198.96  54.20
800.0  342372.98  185576.59  54.20
801.3  342913.90  185847.61  54.20
802.6  343534.73  186176.97  54.19
803.8  344240.50  186534.24  54.19
805.1  344720.25  186810.63  54.19
806.4  345224.10  187086.24  54.19
807.7  345813.30  187388.64  54.19
808.9  346421.30  187713.03  54.19
810.2  346972.15  187989.06  54.18
811.4  347506.60  188277.52  54.18
812.7  348115.63  188630.00  54.19
814.0  348993.15  189092.48  54.18
815.2  349614.50  189444.80  54.19
816.5  350079.28  189668.20  54.18
817.7  350598.70  189939.77  54.18
819.0  351076.00  190229.89  54.18
820.2  351296.00  190338.13  54.18
821.5  351975.95  190732.89  54.19
822.7  352375.33  190915.62  54.18
824.0  352741.50  191097.00  54.17
825.2  353224.80  191367.36  54.18
826.5  353522.45  191545.69  54.18
827.7  354088.33  191850.27  54.18
829.0  354474.38  192080.45  54.19
830.2  354803.75  192235.23  54.18
831.5  355312.75  192482.39  54.17
832.7  355609.28  192652.67  54.18
834.0  355919.73  192817.01  54.17
835.2  356277.08  193025.87  54.18
836.4  356538.05  193205.25  54.19
837.7  356961.20  193421.73  54.19
838.9  357381.68  193658.39  54.19
840.1  357775.65  193876.38  54.19
841.4  358185.50  194135.21  54.20
842.6  358533.40  194346.72  54.21
843.8  358866.40  194536.37  54.21
845.1  359304.90  194802.53  54.22
846.3  359698.50  195028.51  54.22
847.5  360162.60  195253.52  54.21
848.8  360479.40  195494.00  54.23
850.0  360801.35  195693.54  54.24
851.2  361347.75  195975.90  54.23
852.5  361751.80  196183.59  54.23
853.7  362202.75  196463.40  54.24
854.9  362624.60  196695.97  54.24
856.1  363069.85  196949.05  54.25
857.4  363202.88  197045.19  54.25
858.6  363707.70  197300.10  54.25
859.8  364080.00  197524.50  54.25
861.0  364548.60  197776.80  54.25
862.2  365041.20  198014.95  54.24
863.5  365445.60  198208.27  54.24
864.7  365904.00  198469.04  54.24
865.9  366266.00  198669.33  54.24
867.1  366597.60  198850.53  54.24
868.3  366989.55  199071.06  54.24
869.5  367507.70  199342.79  54.24
870.8  367965.00  199603.80  54.25
872.0  368530.95  199890.28  54.24
873.2  368946.15  200105.68  54.24
874.4  369366.08  200312.19  54.23
875.6  369757.13  200490.53  54.22
876.8  370264.15  200732.47  54.21
878.0  370691.00  201000.53  54.22
879.2  371263.80  201280.30  54.21
880.4  371796.75  201513.95  54.20
881.6  372214.58  201762.12  54.21
882.8  372616.80  201947.52  54.20
884.0  373224.83  202262.29  54.19
885.2  373865.10  202516.84  54.17
886.5  374413.90  202814.93  54.17
887.7  374954.13  203060.39  54.16
888.8  375505.35  203409.38  54.17
890.0  376086.60  203685.84  54.16
891.2  376674.00  203953.67  54.15
892.4  377344.28  204265.74  54.13
893.6  377884.70  204557.47  54.13
894.8  378879.00  205014.33  54.11
896.0  379730.50  205487.20  54.11
897.2  380532.75  205879.27  54.10
898.4  381374.40  206250.44  54.08
899.6  381844.50  206545.05  54.09
900.8  382271.05  206717.34  54.08
902.0  382560.15  206827.04  54.06
903.2  382876.20  207022.29  54.07
904.3  383368.20  207193.52  54.05
905.5  383947.13  207454.40  54.03
906.7  384651.50  207765.53  54.01
907.9  385291.90  207991.61  53.98
909.1  385591.05  208170.90  53.99
910.2  385710.23  208270.10  54.00
911.4  385918.65  208397.67  54.00
912.6  386285.90  208482.56  53.97
913.8  386680.05  208611.71  53.95
915.0  387095.10  208833.10  53.95
916.2  387348.00  208884.00  53.93
917.3  387480.60  208883.22  53.91
918.5  387567.90  208940.60  53.91
919.7  387809.40  209041.72  53.90
920.8  388033.93  209079.83  53.88
922.0  388349.50  209149.97  53.86
923.2  388615.50  209209.00  53.83
924.4  388972.13  209278.35  53.80
925.5  389192.20  209327.60  53.79
926.7  389822.75  209632.95  53.78
927.9  390709.20  210017.04  53.75
929.0  392154.75  210699.18  53.73
930.2  394462.80  211801.11  53.69
931.4  397005.98  213003.18  53.65
932.5  399672.15  214327.39  53.63
933.7  401180.35  214961.29  53.58
934.9  401773.75  215207.42  53.56
936.0  401449.75  214959.98  53.55
937.2  399396.30  213805.52  53.53
938.3  397984.15  212837.67  53.48
939.5  396604.80  211860.96  53.42
940.7  396917.10  211918.32  53.39
941.8  398565.60  212591.71  53.34
943.0  399906.75  213188.00  53.31
944.2  400551.45  213530.03  53.31
945.3  400325.25  213136.30  53.24
946.5  399694.50  212644.98  53.20
947.6  400088.60  212516.08  53.12
948.8  400079.55  212263.35  53.06
949.9  400327.20  212191.84  53.00
951.1  400047.38  211754.40  52.93
952.2  399840.00  211398.40  52.87
953.4  399578.00  210980.50  52.80
954.5  399718.80  210684.24  52.71
955.7  399697.20  210401.52  52.64
956.8  399628.60  210055.60  52.56
958.0  399364.50  209627.60  52.49
959.1  399307.53  209322.32  52.42
960.3  399006.63  209001.28  52.38
961.4  398969.55  208780.77  52.33
962.6  399183.75  208774.30  52.30
963.7  399143.78  208558.96  52.25
964.9  399129.75  208484.63  52.23
966.0  398878.43  208414.62  52.25
967.2  399130.65  208396.74  52.21
968.3  398884.50  208215.90  52.20
969.5  398953.53  208078.35  52.16
970.6  399017.95  208112.98  52.16
971.8  399133.53  208200.18  52.16
972.9  399023.55  208150.00  52.16
974.0  399553.40  208228.37  52.12
975.2  399116.25  208177.22  52.16
976.3  399396.85  208135.71  52.11
977.5  399352.80  208097.10  52.11
978.6  398899.70  207998.65  52.14
979.7  399241.50  208228.51  52.16
980.9  399068.63  208207.10  52.17
982.0  398838.45  208106.32  52.18
983.2  398521.50  207980.54  52.19
984.3  398061.60  207804.11  52.20
985.4  398059.60  207747.00  52.19
986.6  398567.13  207819.90  52.14
987.7  399161.70  208451.11  52.22
988.9  399162.60  208566.48  52.25
990.0  399507.30  208898.41  52.29
993.1  346322.03  178174.17  51.45
996.9  346902.30  178987.25  51.60
1000.7  347955.88  179951.47  51.72
1004.5  348494.33  180644.40  51.84
1008.4  348120.83  180912.32  51.97
1012.2  348059.42  181265.97  52.08
1016.0  348034.80  181604.53  52.18
1019.8  348099.68  182001.05  52.28
1023.7  348076.85  182260.32  52.36
1027.5  347924.80  182429.16  52.43
1031.3  348227.13  182786.07  52.49
1035.1  348229.12  182945.87  52.54
1038.9  348316.10  183091.99  52.56
1042.7  348219.83  183159.83  52.60
1046.5  348075.50  183164.15  52.62
1050.3  348135.58  183250.97  52.64
1054.2  347874.33  183166.04  52.65
1058.0  347407.14  182928.41  52.66
1061.8  347273.51  182884.90  52.66
1065.6  347095.23  182767.61  52.66
1069.4  347193.87  182779.45  52.64
1073.2  346913.53  182568.69  52.63
1077.0  346428.45  182247.94  52.61
1080.8  345825.00  181826.84  52.58
1084.6  344681.52  181111.99  52.54
1088.4  343993.30  180629.65  52.51
1092.2  343219.50  180050.47  52.46
1096.0  342741.84  179600.23  52.40
1099.8  342359.77  179187.14  52.34
1103.6  341747.30  178667.62  52.28
1107.4  340927.85  177992.16  52.21
1111.2  340737.70  177664.28  52.14
1114.9  340158.58  177074.68  52.06
1118.7  339577.43  176421.89  51.95
1122.5  338923.00  175641.05  51.82
1126.3  337841.06  174568.50  51.67
1130.1  337391.07  173589.72  51.45
1133.9  335923.00  171798.81  51.14
1137.7  334639.70  169839.06  50.75
1141.4  332937.58  167455.22  50.30
1145.2  332273.50  165437.11  49.79
1149.0  331241.46  163331.04  49.31
1152.8  329731.05  161226.47  48.90
1156.6  328199.67  159492.54  48.60
1160.3  326602.00  158080.15  48.40
1164.1  324338.93  156629.65  48.29
1167.9  322646.88  155651.21  48.24
1171.7  321441.75  155010.00  48.22
1175.4  320357.10  154465.84  48.22
1179.2  319423.30  153951.70  48.20
1183.0  319145.00  153722.14  48.17
1186.7  318574.20  153352.04  48.14
1190.5  317543.47  152766.35  48.11
1194.3  316408.90  152167.34  48.09
1198.0  315304.55  151649.30  48.10
1201.8  313930.93  151031.20  48.11
1205.6  312756.00  150578.07  48.15
1209.3  311844.07  150317.22  48.20
1213.1  310971.23  150079.42  48.26
1216.8  310067.91  149886.50  48.34
1220.6  309108.80  149658.67  48.42
1224.3  308018.08  149354.01  48.49
1228.1  306927.40  149079.76  48.57
1231.9  305807.85  148732.92  48.64
1235.6  304475.55  148258.83  48.69
1239.4  303252.25  147834.02  48.75
1243.1  302083.13  147390.82  48.79
1246.9  300944.74  146918.21  48.82
1250.6  300042.60  146527.29  48.84
1254.3  299024.55  146070.26  48.85
1258.1  298109.23  145629.43  48.85
1261.8  296898.40  145021.02  48.85
1265.6  295536.15  144287.90  48.82
1269.3  294071.88  143486.12  48.79
1273.1  293967.50  143296.70  48.75
1276.8  294298.00  143274.04  48.68
1280.6  294256.30  143052.72  48.62
1284.3  293002.40  142202.84  48.53
1288.0  291586.64  141216.39  48.43
1291.8  290271.07  140204.00  48.30
1295.5  288931.87  139130.28  48.15
1299.2  287765.84  138077.52  47.98
1302.9  286459.74  136859.32  47.78
1306.7  285041.17  135519.61  47.54
1310.4  283667.42  134076.96  47.27
1314.1  282436.55  132610.11  46.95
1317.9  281323.75  131068.56  46.59
1321.6  280027.99  129325.69  46.18
1325.3  278495.70  127351.57  45.73
1329.0  277209.10  125424.74  45.25
1332.8  275228.80  123065.80  44.71
1336.5  273548.13  120811.92  44.16
1340.2  273212.33  119149.09  43.61
1343.9  272867.92  117464.10  43.05
1347.6  272352.60  115720.75  42.49
1351.4  272645.00  114381.63  41.95
1355.1  273125.97  113128.33  41.42
1358.8  273344.00  111701.33  40.86
1362.5  272904.60  109878.06  40.26
1366.2  271206.95  107285.99  39.56
1369.9  269382.88  104334.78  38.73
1373.6  267571.85  100894.81  37.71
1377.3  265911.60  96865.57  36.43
1381.0  264810.00  92199.01  34.82
1384.8  262843.75  86315.62  32.84
1388.4  260592.27  79847.41  30.64
1392.2  258861.25  73177.12  28.27
1395.9  257361.50  66530.46  25.85
1399.6  255799.98  60260.26  23.56
1403.3  254670.43  54789.22  21.51
1407.0  253570.70  50165.24  19.78
1410.7  252414.53  46438.80  18.40
1414.3  251235.13  43584.94  17.35
1418.1  250141.08  41511.78  16.60
1421.7  249286.74  40066.35  16.07
1425.4  248402.05  39093.82  15.74
1429.1  247583.63  38497.05  15.55
1432.8  246209.76  38099.43  15.47
1436.5  245425.43  37983.50  15.48
1440.2  244583.47  38008.86  15.54
1443.9  243374.08  38066.22  15.64
1447.6  241887.80  38143.36  15.77
1451.2  240910.27  38322.81  15.91
1454.9  239733.60  38509.38  16.06
1458.6  238735.08  38815.77  16.26
1462.3  237692.03  39240.34  16.51
1466.0  236446.17  39797.91  16.83
1469.7  234899.06  40476.05  17.23
1473.3  233951.33  41408.78  17.70
1477.0  232191.07  42310.48  18.22
1480.7  230707.08  43318.27  18.78
1484.4  228923.34  44292.16  19.35
1488.0  227494.67  45348.63  19.93
1491.7  225981.14  46367.68  20.52
1495.4  224387.59  47368.66  21.11
1499.0  222908.50  48351.75  21.69
1502.7  221713.92  49388.98  22.28
1506.4  220400.42  50357.64  22.85
1510.0  219134.77  51288.77  23.41
1513.7  217790.71  52163.45  23.95
1517.4  216591.00  53026.51  24.48
1521.0  215498.00  53884.07  25.00
1524.7  214376.50  54664.79  25.50
1528.3  213174.50  55391.30  25.98
1532.0  212032.33  56075.21  26.45
1535.7  210722.07  56661.31  26.89
1539.3  209571.65  57254.05  27.32
1543.0  208668.13  57870.43  27.73
1546.6  208039.00  58526.31  28.13
1550.3  207125.10  59054.38  28.51
1553.9  206121.60  59524.05  28.88
1557.6  204959.33  59904.04  29.23
1561.2  203781.60  60227.69  29.56
1564.9  202553.40  60520.44  29.88
1568.5  201349.98  60772.86  30.18
1572.2  200282.75  61040.56  30.48
1575.8  199262.00  61306.22  30.77
1579.5  198345.85  61566.99  31.04
1583.1  197428.79  61817.91  31.31
1586.8  196280.00  61978.89  31.58
1590.4  195287.87  62162.77  31.83
1594.0  194042.66  62244.65  32.08
1597.7  192976.00  62369.64  32.32
1601.3  191731.05  62421.08  32.56
1604.9  190519.33  62444.43  32.78
1608.6  189292.38  62438.69  32.99
1612.2  188383.80  62496.74  33.18
1615.8  187376.80  62498.20  33.35
1619.5  186344.17  62474.79  33.53
1623.1  185128.17  62354.52  33.68
1626.7  183952.93  62225.57  33.83
1630.3  182837.17  62085.56  33.96
1634.0  181706.00  61915.33  34.07
1637.6  180644.13  61723.64  34.17
1641.2  179559.00  61475.66  34.24
1644.8  178301.12  61114.39  34.28
1648.5  177244.98  60774.01  34.29
1652.1  176306.40  60424.32  34.27
1655.7  175426.80  60082.45  34.25
1659.3  174628.88  59782.10  34.23
1662.9  173315.00  59323.03  34.23
1666.6  171993.13  58876.37  34.23
1670.2  170724.40  58427.10  34.22
1673.8  169425.09  57946.38  34.20
1677.4  168403.30  57522.71  34.16
1681.0  167689.55  57151.20  34.08
1684.6  167310.00  56834.07  33.97
1688.2  166658.70  56337.21  33.80
1691.8  166065.59  55880.91  33.65
1695.4  165657.20  55463.85  33.48
1699.0  165348.63  55047.98  33.29
1702.6  165091.33  54633.89  33.09
1706.2  164571.98  54119.99  32.89
1709.8  163754.06  53530.44  32.69
1713.4  163116.65  53002.51  32.49
1717.0  162338.50  52448.42  32.31
1720.6  161594.18  51905.75  32.12
1724.2  160936.28  51383.46  31.93
1727.8  160267.45  50859.21  31.73
1731.4  159780.50  50398.42  31.54
1735.0  159577.18  50040.37  31.36
1738.6  159335.85  49641.10  31.16
1742.2  158805.33  49105.05  30.92
1745.8  158208.64  48522.01  30.67
1749.4  157329.98  47830.15  30.40
1753.0  155923.60  46981.18  30.13
1756.6  154366.92  46104.85  29.87
1760.1  153144.79  45348.83  29.61
1763.7  151554.67  44503.42  29.36
1767.3  150232.50  43771.93  29.14
1770.9  149104.14  43109.83  28.91
1774.5  147748.28  42425.77  28.71
1778.0  146690.73  41853.28  28.53
1781.6  145652.10  41342.91  28.38
1785.2  144600.60  40859.65  28.26
1788.8  143510.40  40424.62  28.17
1792.3  142385.97  40000.32  28.09
1795.9  141950.14  39798.83  28.04
1799.5  141470.00  39612.55  28.00
1803.1  140751.68  39365.78  27.97
1806.6  141101.57  39412.62  27.93
1810.2  142233.70  39666.27  27.89
1813.8  143318.35  39907.33  27.85
1817.3  143527.40  39900.10  27.80
1820.9  142932.32  39663.96  27.75
1824.5  141863.75  39283.53  27.69
1828.0  141077.75  38956.40  27.61
1831.6  140387.55  38613.43  27.50
1835.2  139754.17  38228.42  27.35
1838.7  139389.20  37828.88  27.14
1842.3  139050.00  37350.47  26.86
1845.8  138282.54  36629.61  26.49
1849.4  137820.35  35838.38  26.00
1852.9  137153.10  34822.75  25.39
1856.5  136282.53  33534.95  24.61
1860.0  135535.52  32024.90  23.63
1863.6  135346.68  30397.99  22.46
1867.1  135279.20  28527.26  21.09
1870.7  135243.90  26284.02  19.43
1874.2  134482.05  23562.41  17.52
1877.8  133218.53  20684.13  15.53
1881.3  131827.75  17796.63  13.50
1884.9  130923.74  15169.70  11.59
1888.4  129912.72  12756.62  9.82
1891.9  128934.47  10736.74  8.33
1895.5  127865.95  9153.63  7.16
1899.0  127335.13  8039.76  6.31
1901.3  157270.75  6253.30  3.98
1904.1  157122.00  5603.44  3.57
1906.8  156383.10  5090.10  3.25
1909.6  154709.89  4721.50  3.05
1912.4  153069.79  4439.96  2.90
1915.1  151846.61  4227.71  2.78
1917.9  150459.50  4096.25  2.72
1920.6  149283.80  4024.81  2.70
1923.3  148093.58  3988.43  2.69
1926.1  146661.35  3957.83  2.70
1928.8  145310.00  3956.33  2.72
1931.6  144183.83  3979.20  2.76
1934.3  143121.78  4024.83  2.81
1937.0  142065.70  4095.11  2.88
1939.8  140954.69  4172.90  2.96
1942.5  139664.25  4259.75  3.05
1945.2  138065.40  4347.20  3.15
1947.9  136766.88  4452.30  3.26
1950.7  135732.25  4575.68  3.37
1953.4  134160.79  4696.21  3.50
1956.1  132951.56  4826.04  3.63
1958.8  131875.09  4972.77  3.77
1961.5  130561.80  5131.30  3.93
1964.2  129210.90  5289.38  4.09
1966.9  127808.63  5445.84  4.26
1969.6  126704.25  5622.75  4.44
1972.3  125429.93  5798.35  4.62
1975.0  124466.40  6000.30  4.82
1977.7  123468.60  6195.91  5.02
1980.4  122433.08  6401.86  5.23
1983.1  121434.06  6611.59  5.44
1985.8  120575.48  6840.38  5.67
1988.4  119632.50  7063.33  5.90
1991.1  118777.40  7284.38  6.13
1993.8  117979.40  7500.81  6.36
1996.5  117404.24  7748.54  6.60
1999.1  116777.38  7989.81  6.84
2001.8  116142.08  8227.57  7.08
2004.5  115522.91  8455.38  7.32
2007.1  114874.16  8680.28  7.56
2009.8  114206.05  8900.97  7.79
2012.4  113681.84  9127.20  8.03
2015.1  113195.95  9336.95  8.25
2017.8  112483.70  9526.89  8.47
2020.4  112020.98  9732.52  8.69
2023.1  111693.75  9928.34  8.89
2025.7  111462.00  10122.67  9.08
2028.3  111156.50  10313.33  9.28
2031.0  110816.70  10489.47  9.47
2033.6  110566.13  10657.50  9.64
2036.2  110331.23  10811.93  9.80
2038.9  109789.65  10929.38  9.95
2041.5  109483.51  11061.45  10.10
2044.1  108980.55  11164.28  10.24
2046.8  108641.25  11275.20  10.38
2049.4  108047.48  11351.33  10.51
2052.0  107767.15  11462.50  10.64
2054.6  107401.88  11556.57  10.76
2057.2  106896.00  11634.98  10.88
2059.8  106627.45  11741.97  11.01
2062.4  105829.05  11795.83  11.15
2065.0  105350.20  11886.07  11.28
2067.6  104547.70  11930.94  11.41
2070.2  104011.63  11998.49  11.54
2072.8  103423.25  12061.69  11.66
2075.4  103018.13  12138.44  11.78
2078.0  102435.63  12186.88  11.90
2080.6  101923.80  12234.20  12.00
2083.2  101307.60  12275.53  12.12
2085.8  100854.63  12342.78  12.24
2088.4  100249.50  12384.34  12.35
2090.9  99531.35  12402.85  12.46
2093.5  98723.63  12402.65  12.56
2096.1  98015.41  12417.44  12.67
2098.7  97297.38  12435.01  12.78
2101.2  96435.65  12427.53  12.89
2103.8  95833.05  12447.18  12.99
2106.4  95223.90  12458.10  13.08
2108.9  94614.75  12475.57  13.19
2111.5  93841.85  12462.47  13.28
2114.0  93265.45  12477.75  13.38
2116.6  92800.31  12503.75  13.47
2119.1  92313.00  12518.80  13.56
2121.7  91861.88  12532.19  13.64
2124.2  91477.98  12558.25  13.73
2126.8  90755.99  12536.02  13.81
2129.3  90387.00  12555.40  13.89
2131.9  89845.80  12548.80  13.97
2134.4  89453.59  12567.00  14.05
2136.9  89097.61  12592.13  14.13
2139.4  88637.85  12597.32  14.21
2142.0  88232.20  12601.75  14.28
2144.5  87969.83  12638.00  14.37
2147.0  87756.60  12674.17  14.44
2149.5  87307.70  12680.87  14.52
2152.1  87149.56  12731.63  14.61
2154.6  87060.40  12784.00  14.68
2157.1  86573.25  12771.17  14.75
2159.6  86198.56  12775.71  14.82
2162.1  86042.78  12794.60  14.87
2164.6  85830.50  12809.50  14.92
2167.1  85542.75  12815.34  14.98
2169.6  85231.13  12820.39  15.04
2172.1  84803.55  12804.33  15.10
2174.6  84512.00  12813.48  15.16
2177.1  84113.96  12808.68  15.23
2179.5  83731.21  12803.43  15.29
2182.0  83287.46  12788.46  15.35
2184.5  82796.19  12763.68  15.42
2187.0  82253.95  12727.93  15.47
2189.5  81630.16  12683.96  15.54
2191.9  80925.75  12625.50  15.60
2194.4  80356.09  12589.29  15.67
2196.9  79682.40  12528.00  15.72
2199.3  79097.50  12474.83  15.77
2201.8  78277.90  12390.53  15.83
2204.3  77851.08  12356.73  15.87
2206.7  77265.86  12297.73  15.92
2209.2  76837.98  12270.16  15.97
2211.6  76277.03  12209.18  16.01
2214.1  76013.03  12186.27  16.03
2216.5  75475.95  12118.67  16.06
2219.0  75155.60  12078.93  16.07
2221.4  74813.81  12019.00  16.07
2223.9  74382.44  11949.59  16.07
2226.3  73943.63  11865.29  16.05
2228.7  73428.23  11748.82  16.00
2231.1  72868.95  11612.70  15.94
2233.6  72324.60  11477.97  15.87
2236.0  71831.38  11332.27  15.78
2238.4  71377.69  11183.52  15.67
2240.9  70976.15  11035.93  15.55
2243.3  70491.90  10864.58  15.41
2245.7  69975.86  10683.81  15.27
2248.1  69539.93  10507.36  15.11
2250.5  69057.21  10325.27  14.95
2252.9  68471.00  10121.15  14.78
2255.3  67975.91  9922.64  14.60
2257.7  67575.00  9737.50  14.41
2260.1  67130.53  9556.75  14.24
2262.5  66570.00  9375.00  14.08
2264.9  66092.16  9192.15  13.91
2267.3  65535.00  9005.00  13.74
2269.7  65083.73  8844.38  13.59
2272.1  64584.96  8684.45  13.45
2274.5  64070.54  8528.26  13.31
2276.8  63638.39  8383.95  13.17
2279.2  63103.95  8230.95  13.04
2281.6  62717.85  8098.63  12.91
2284.0  62289.23  7961.33  12.78
2286.3  61864.00  7833.07  12.66
2288.7  61489.51  7713.88  12.55
2291.1  60985.55  7575.23  12.42
2293.4  60583.60  7440.77  12.28
2295.8  60015.53  7294.98  12.16
2298.2  59468.51  7146.68  12.02
2300.5  58870.80  6994.01  11.88
2302.9  58179.25  6835.50  11.75
2305.2  57528.08  6687.28  11.62
2307.6  56924.79  6545.93  11.50
2309.9  56210.75  6401.50  11.39
2312.2  55645.00  6290.42  11.30
2314.6  55090.46  6184.13  11.23
2316.9  54430.65  6062.51  11.14
2319.2  53896.30  5955.65  11.05
2321.6  53328.80  5843.22  10.96
2323.9  52812.50  5744.79  10.88
2326.2  52317.95  5636.61  10.77
2328.6  51845.06  5533.28  10.67
2330.9  51368.63  5439.00  10.59
2333.2  50927.00  5344.59  10.49
2335.5  50509.35  5243.00  10.38
2337.8  50077.80  5143.65  10.27
2340.1  49544.03  5035.82  10.16
2342.4  49148.13  4956.25  10.08
2344.8  48772.94  4866.11  9.98
2347.1  48256.08  4767.76  9.88
2349.4  47765.51  4668.31  9.77
2351.6  47244.98  4580.18  9.69
2353.9  46778.58  4501.60  9.62
2356.2  46298.14  4413.32  9.53
2358.5  45754.80  4314.80  9.43
2360.8  45200.40  4228.00  9.35
2363.1  44796.56  4150.17  9.26
2365.4  44375.10  4056.70  9.14
2367.7  43947.00  3972.90  9.04
2369.9  43444.16  3881.55  8.93
2372.2  42871.00  3798.33  8.86
2374.5  42333.64  3707.55  8.76
2376.7  41750.30  3615.69  8.66
2379.0  41182.00  3513.27  8.53
2381.3  40608.75  3421.25  8.42
2383.5  40136.80  3335.20  8.31
2385.8  39562.48  3250.54  8.22
2388.0  39081.60  3168.30  8.11
2390.3  38590.40  3082.37  7.99
2392.5  38151.00  3003.00  7.87
2394.8  37724.78  2931.23  7.77
2397.0  37282.70  2857.40  7.66
2399.3  36842.40  2777.80  7.54
2401.5  36419.25  2698.07  7.41
2403.8  35933.88  2614.21  7.28
2406.0  35471.31  2548.52  7.18
2408.2  35099.90  2483.98  7.08
2410.4  34697.43  2409.28  6.94
2412.7  34307.00  2340.54  6.82
2414.9  33955.76  2283.33  6.72
2417.1  33575.63  2219.33  6.61
2419.3  33187.20  2153.60  6.49
2421.6  32830.94  2089.27  6.36
2423.8  32491.23  2026.05  6.24
2426.0  32143.49  1973.47  6.14
2428.2  31791.20  1911.00  6.01
2430.4  31501.95  1855.98  5.89
2432.6  31250.00  1810.00  5.79
2434.8  30967.23  1757.72  5.68
2437.0  30638.08  1712.75  5.59
2439.2  30290.85  1655.79  5.47
2441.4  30000.15  1591.70  5.31
2443.6  29771.46  1547.47  5.20
2445.7  29529.85  1513.28  5.12
2447.9  29266.75  1464.73  5.00
2450.1  28988.66  1426.07  4.92
2452.3  28628.60  1369.32  4.78
2454.5  28295.75  1333.24  4.71
2456.6  27937.70  1287.57  4.61
2458.8  27606.15  1254.83  4.55
2461.0  27334.00  1221.81  4.47
2463.1  27052.09  1185.83  4.38
2465.3  26779.00  1152.38  4.30
2467.5  26527.88  1121.00  4.23
2469.6  26301.81  1088.92  4.14
2471.8  26016.38  1058.68  4.07
2473.9  25735.94  1033.21  4.01
2476.1  25411.75  1001.00  3.94
2478.2  25077.88  967.32  3.86
2480.4  24797.93  940.19  3.79
2482.5  24455.93  929.00  3.80
2484.6  24146.38  899.94  3.73
2486.8  23915.03  875.28  3.66
2488.9  23627.65  852.30  3.61
2491.1  23300.20  836.97  3.59
2493.2  22920.15  822.28  3.59
2495.3  22546.88  801.67  3.56
2497.4  22242.15  776.83  3.49
2499.5  21932.46  764.66  3.49
2501.7  21815.25  760.04  3.48
2503.8  21714.95  748.07  3.44
2505.9  21640.31  734.58  3.39
2508.0  21624.33  726.94  3.36
2510.1  21647.78  715.34  3.30
2512.2  21717.23  720.24  3.32
2514.3  21840.33  740.35  3.39
2516.4  22014.75  753.53  3.42
