/*** Spectra Vista SIG Data ***/
name= 7_20220926_BENI_QUPA_36_avg.sig
comm= Averaged Ref/Tar of files: HR.092622.0018_moc.sig,HR.092622.0019_moc.sig
data=
337.3  6217.05  435.48  7.00
338.8  6445.40  412.29  6.40
340.3  6900.33  424.01  6.14
341.8  7076.55  388.82  5.49
343.2  7461.30  411.14  5.51
344.7  7814.63  390.12  4.99
346.2  8142.75  397.15  4.88
347.7  8627.35  382.18  4.43
349.2  8920.80  365.04  4.09
350.6  9350.40  388.21  4.15
352.1  9834.25  390.14  3.97
353.6  10320.00  393.15  3.81
355.1  10777.05  389.65  3.62
356.6  11453.20  399.75  3.49
358.0  11968.43  389.00  3.25
359.5  12499.88  383.27  3.07
361.0  13164.60  393.08  2.99
362.5  13784.33  413.61  3.00
364.0  14483.20  444.52  3.07
365.4  15159.05  450.51  2.97
366.9  15764.93  456.62  2.90
368.4  16462.60  461.20  2.80
369.9  17278.00  457.32  2.65
371.3  18121.13  499.74  2.76
372.8  18805.90  519.50  2.76
374.3  19725.00  544.04  2.76
375.8  20496.10  535.80  2.61
377.2  21323.25  559.60  2.62
378.7  22176.18  577.92  2.61
380.2  23040.83  570.94  2.48
381.7  23948.50  578.75  2.42
383.1  24938.93  589.02  2.36
384.6  25866.90  605.37  2.34
386.1  26837.03  614.63  2.29
387.6  27759.60  638.41  2.30
389.0  28833.75  654.57  2.27
390.5  29862.35  674.84  2.26
392.0  30998.25  696.41  2.25
393.4  32109.38  726.59  2.26
394.9  33085.00  747.51  2.26
396.4  34256.20  767.68  2.24
397.9  35370.60  801.60  2.27
399.3  36352.53  806.11  2.22
400.8  37577.10  842.78  2.24
402.2  38806.35  874.97  2.25
403.7  40048.35  916.20  2.29
405.2  41259.50  940.44  2.28
406.6  42491.40  986.25  2.32
408.1  43584.75  1010.06  2.32
409.6  44785.43  1022.94  2.28
411.0  46009.70  1067.79  2.32
412.5  47402.95  1109.91  2.34
414.0  48782.30  1157.70  2.37
415.4  50116.50  1199.70  2.39
416.9  51484.30  1225.46  2.38
418.4  52816.55  1269.30  2.40
419.8  54191.55  1300.88  2.40
421.3  55682.55  1356.30  2.44
422.7  57155.80  1407.05  2.46
424.2  58700.03  1454.28  2.48
425.7  60182.38  1499.03  2.49
427.1  61707.00  1543.77  2.50
428.6  63172.60  1588.75  2.51
430.0  64705.58  1634.35  2.53
431.5  66411.80  1678.48  2.53
432.9  68100.00  1732.50  2.54
434.4  69839.28  1782.32  2.55
435.9  71544.00  1842.80  2.58
437.3  73245.38  1885.81  2.57
438.8  74910.03  1935.34  2.58
440.2  76582.28  1990.64  2.60
441.7  78500.90  2047.34  2.61
443.1  80335.80  2099.64  2.61
444.6  82154.30  2165.65  2.64
446.0  84026.33  2228.81  2.65
447.5  85975.00  2284.29  2.66
448.9  87736.00  2349.36  2.68
450.4  89700.00  2405.00  2.68
451.8  91505.25  2462.25  2.69
453.3  93391.13  2532.56  2.71
454.7  95242.05  2594.81  2.72
456.2  97038.90  2656.47  2.74
457.6  98983.35  2709.38  2.74
459.1  100842.00  2768.75  2.75
460.5  102731.85  2822.31  2.75
462.0  104791.50  2882.93  2.75
463.4  106836.28  2949.79  2.76
464.8  108813.60  3005.69  2.76
466.3  110790.90  3067.21  2.77
467.7  112852.80  3128.00  2.77
469.2  114735.90  3185.86  2.78
470.6  116800.25  3246.48  2.78
472.0  118890.63  3302.93  2.78
473.5  120937.35  3360.28  2.78
474.9  123148.50  3435.88  2.79
476.4  125266.80  3498.04  2.79
477.8  127400.00  3569.60  2.80
479.2  129503.53  3634.44  2.81
480.7  131678.33  3700.70  2.81
482.1  133928.30  3777.06  2.82
483.6  136179.90  3839.04  2.82
485.0  138504.23  3913.31  2.83
486.4  140627.68  3993.07  2.84
487.9  142916.75  4068.81  2.85
489.3  145109.63  4160.61  2.87
490.7  147342.55  4253.68  2.89
492.2  149649.75  4351.92  2.91
493.6  151942.70  4459.27  2.93
495.0  154296.68  4564.40  2.96
496.5  156492.00  4685.85  2.99
497.9  158843.25  4814.83  3.03
499.3  161170.00  4957.52  3.08
500.7  163517.40  5111.79  3.13
502.2  165906.55  5298.24  3.19
503.6  168269.40  5482.08  3.26
505.0  170573.15  5708.70  3.35
506.5  173098.65  5957.98  3.44
507.9  175605.70  6248.69  3.56
509.3  177936.53  6568.99  3.69
510.7  180592.43  6941.11  3.84
512.2  183292.20  7354.23  4.01
513.6  186173.38  7835.88  4.21
515.0  188973.05  8374.38  4.43
516.4  191854.80  8998.16  4.69
517.8  194701.25  9676.09  4.97
519.3  197662.40  10414.49  5.27
520.7  200377.40  11185.33  5.58
522.1  203067.80  11995.40  5.91
523.5  205694.10  12826.18  6.24
524.9  208614.90  13689.44  6.56
526.3  211270.95  14530.17  6.88
527.8  214086.38  15361.81  7.18
529.2  216720.00  16161.74  7.46
530.6  219545.10  16937.69  7.71
532.0  222570.73  17681.73  7.94
533.4  225046.90  18340.12  8.15
534.8  227540.78  18942.31  8.32
536.3  230606.10  19536.93  8.47
537.7  233721.50  20096.32  8.60
539.1  236680.60  20610.25  8.71
540.5  239544.75  21100.37  8.81
541.9  242509.13  21588.55  8.90
543.3  245077.00  22038.77  8.99
544.7  248050.00  22528.00  9.08
546.1  250873.70  23002.00  9.17
547.5  253843.20  23487.84  9.25
549.0  257028.80  23969.33  9.33
550.4  259930.13  24405.62  9.39
551.8  262865.38  24784.16  9.43
553.2  265785.45  25096.55  9.44
554.6  268670.00  25328.88  9.43
556.0  271639.20  25477.29  9.38
557.4  274779.20  25547.62  9.30
558.8  277674.80  25519.37  9.19
560.2  280900.00  25458.29  9.06
561.6  283840.43  25321.46  8.92
563.0  286674.05  25116.11  8.76
564.4  289863.70  24904.62  8.59
565.8  292905.35  24619.47  8.41
567.2  296086.68  24303.76  8.21
568.6  299143.80  23920.27  8.00
570.0  302066.38  23471.08  7.77
571.4  305487.73  23031.71  7.54
572.8  308673.60  22576.39  7.31
574.2  311574.38  22118.48  7.10
575.6  314665.38  21707.80  6.90
577.0  317728.13  21340.16  6.72
578.4  321168.75  21048.13  6.55
579.8  324237.60  20774.47  6.41
581.2  327342.00  20545.65  6.28
582.5  330232.50  20327.79  6.16
583.9  333349.50  20156.95  6.05
585.3  336263.60  20019.18  5.95
586.7  339269.70  19912.86  5.87
588.1  342277.00  19830.30  5.79
589.5  345643.35  19804.88  5.73
590.9  348655.05  19787.01  5.68
592.3  351615.38  19800.66  5.63
593.7  354609.85  19854.07  5.60
595.0  357561.00  19921.08  5.57
596.4  360886.50  20013.72  5.55
597.8  363548.40  20061.36  5.52
599.2  366738.45  20128.63  5.49
600.6  369967.95  20156.03  5.45
602.0  372964.80  20132.85  5.40
603.3  375882.00  20074.23  5.34
604.7  378872.58  19972.21  5.27
606.1  381928.35  19822.21  5.19
607.5  385267.60  19629.13  5.09
608.9  388376.45  19416.32  5.00
610.2  391604.40  19183.52  4.90
611.6  394542.50  18938.86  4.80
613.0  397410.15  18684.28  4.70
614.4  400165.25  18450.45  4.61
615.8  403431.70  18251.35  4.52
617.1  406185.98  18056.74  4.45
618.5  409462.13  17940.24  4.38
619.9  412244.85  17826.03  4.32
621.3  415218.38  17756.65  4.28
622.6  418187.25  17723.00  4.24
624.0  420912.00  17699.67  4.21
625.4  424027.43  17734.80  4.18
626.8  427027.90  17794.07  4.17
628.1  429870.00  17874.76  4.16
629.5  432648.83  17973.30  4.15
630.9  435600.35  18070.14  4.15
632.2  438654.95  18168.48  4.14
633.6  441168.00  18231.01  4.13
635.0  444140.28  18270.98  4.11
636.3  447165.83  18283.22  4.09
637.7  449920.83  18219.26  4.05
639.1  452958.55  18139.05  4.00
640.4  455686.50  17986.66  3.95
641.8  458553.60  17816.25  3.89
643.2  461173.40  17625.44  3.82
644.5  464100.00  17424.00  3.75
645.9  466796.75  17233.63  3.69
647.2  469696.15  17067.99  3.63
648.6  472584.00  16914.59  3.58
650.0  475396.20  16771.73  3.53
651.3  477833.45  16646.72  3.48
652.7  481263.00  16539.39  3.44
654.0  484235.55  16414.94  3.39
655.4  486558.45  16273.40  3.34
656.8  488083.58  16106.57  3.30
658.1  490654.50  15933.51  3.25
659.5  493992.00  15790.22  3.20
660.8  497270.55  15638.22  3.14
662.2  500033.33  15468.95  3.09
663.5  502863.53  15313.00  3.05
664.9  504894.93  15189.84  3.01
666.2  506983.10  15103.18  2.98
667.6  509537.25  15083.42  2.96
668.9  512308.80  15128.64  2.95
670.3  515143.13  15177.75  2.95
671.6  517534.40  15266.43  2.95
673.0  519908.80  15400.89  2.96
674.3  522344.90  15560.60  2.98
675.7  524858.40  15748.90  3.00
677.0  527221.35  15982.77  3.03
678.4  529483.40  16243.39  3.07
679.7  531950.55  16555.82  3.11
681.1  534564.75  16915.49  3.16
682.4  536806.50  17305.95  3.22
683.8  539179.50  17775.71  3.30
685.1  541407.30  18315.36  3.38
686.4  543597.60  18978.72  3.49
687.8  546154.65  19804.86  3.63
689.1  548566.90  20868.10  3.80
690.5  550579.65  22220.79  4.04
691.8  553330.80  24084.25  4.35
693.1  555756.00  26541.22  4.78
694.5  558136.40  29683.54  5.32
695.8  560539.90  33642.76  6.00
697.1  562812.30  38372.35  6.82
698.5  565205.50  43911.68  7.77
699.8  567628.40  50206.03  8.84
701.1  569525.25  57100.68  10.03
702.5  571639.13  64528.37  11.29
703.8  574142.90  72404.74  12.61
705.1  576009.35  80455.03  13.97
706.5  578324.95  88775.12  15.35
707.8  580192.13  97111.12  16.74
709.1  582558.50  105572.29  18.12
710.5  584795.80  114010.11  19.50
711.8  586735.00  122398.89  20.86
713.1  588713.00  130748.26  22.21
714.4  590819.30  139062.95  23.54
715.8  593142.75  147379.27  24.85
717.1  595426.85  155573.01  26.13
718.4  597714.30  163635.14  27.38
719.7  599959.80  171544.88  28.59
721.0  601733.13  179138.95  29.77
722.4  603548.55  186596.27  30.92
723.7  605612.35  193843.31  32.01
725.0  607382.70  200760.95  33.05
726.3  609783.20  207601.09  34.05
727.6  611535.00  213990.47  34.99
729.0  613365.55  220141.80  35.89
730.3  615398.13  226032.53  36.73
731.6  616970.90  231447.96  37.51
732.9  618987.85  236738.94  38.25
734.2  620639.25  241617.99  38.93
735.5  622483.40  246297.40  39.57
736.8  624513.23  250778.39  40.16
738.1  626366.10  254936.92  40.70
739.5  628191.00  258792.43  41.20
740.8  630178.45  262484.87  41.65
742.1  631815.13  265833.78  42.07
743.4  633617.60  269042.84  42.46
744.7  635579.00  272104.00  42.81
746.0  637081.70  274800.85  43.13
747.3  638694.70  277321.74  43.42
748.6  640265.05  279670.79  43.68
749.9  642102.93  281955.70  43.91
751.2  643457.43  283884.15  44.12
752.5  645088.63  285822.65  44.31
753.8  646456.05  287524.79  44.48
755.1  648113.33  289232.50  44.63
756.4  649298.78  290639.95  44.76
757.7  651352.63  292307.40  44.88
759.0  655091.18  294646.64  44.98
760.3  657829.55  296480.25  45.07
761.6  660745.63  298319.51  45.15
762.9  662268.75  299438.78  45.21
764.2  663075.90  300203.14  45.27
765.5  664010.25  300995.34  45.33
766.8  664587.60  301565.51  45.38
768.1  665733.60  302352.48  45.42
769.3  667031.05  303178.81  45.45
770.6  668533.45  304058.55  45.48
771.9  669822.15  304821.24  45.51
773.2  671290.43  305681.56  45.54
774.5  672183.30  306275.10  45.56
775.8  673375.95  306945.55  45.58
777.1  674605.75  307651.51  45.60
778.4  675998.88  308385.95  45.62
779.6  677389.80  309140.11  45.64
780.9  678156.30  309604.91  45.65
782.2  679192.30  310191.79  45.67
783.5  680194.00  310746.10  45.68
784.8  681090.38  311208.98  45.69
786.0  681954.38  311706.98  45.71
787.3  682803.93  312182.99  45.72
788.6  683817.13  312741.12  45.73
789.9  684571.90  313183.33  45.75
791.2  686004.40  313908.49  45.76
792.4  687222.25  314537.26  45.77
793.7  688864.33  315349.36  45.78
795.0  689973.65  315926.48  45.79
796.2  691376.40  316642.95  45.80
797.5  692695.00  317304.84  45.81
798.8  694222.38  318083.63  45.82
800.0  695450.00  318660.00  45.82
801.3  696701.25  319344.53  45.84
802.6  697824.00  319902.17  45.84
803.8  698954.55  320491.61  45.85
805.1  700039.50  321026.98  45.86
806.4  701110.25  321548.68  45.86
807.7  702318.48  322161.11  45.87
808.9  703570.85  322775.89  45.88
810.2  704428.20  323276.40  45.89
811.4  705496.40  323865.75  45.91
812.7  706912.05  324565.16  45.91
814.0  708246.00  325213.35  45.92
815.2  709732.50  325933.08  45.92
816.5  710885.00  326524.50  45.93
817.7  711744.00  326976.66  45.94
819.0  712492.20  327372.36  45.95
820.2  713345.10  327848.93  45.96
821.5  714516.40  328414.65  45.96
822.7  715450.40  328941.25  45.98
824.0  716475.50  329470.31  45.98
825.2  717252.90  329819.55  45.98
826.5  718066.85  330239.77  45.99
827.7  719146.20  330807.79  46.00
829.0  720013.05  331278.36  46.01
830.2  720857.40  331766.67  46.02
831.5  721847.70  332242.41  46.03
832.7  722720.70  332691.79  46.03
834.0  723463.65  333050.13  46.04
835.2  724539.35  333564.14  46.04
836.4  725248.80  333976.94  46.05
837.7  726001.88  334366.07  46.06
838.9  727085.80  334999.00  46.07
840.1  727971.75  335462.40  46.08
841.4  729051.60  335995.19  46.09
842.6  729897.70  336441.78  46.09
843.8  730645.50  336868.82  46.11
845.1  731367.45  337328.41  46.12
846.3  732307.80  337803.33  46.13
847.5  733284.50  338304.48  46.14
848.8  734130.75  338758.50  46.14
850.0  735248.20  339357.03  46.16
851.2  736180.55  339838.18  46.16
852.5  737307.10  340457.33  46.18
853.7  737966.70  340829.82  46.18
854.9  739087.05  341399.65  46.19
856.1  740101.20  341901.65  46.20
857.4  741048.53  342341.76  46.20
858.6  741875.40  342809.64  46.21
859.8  742930.30  343406.92  46.22
861.0  743938.30  343885.37  46.22
862.2  745006.50  344385.36  46.23
863.5  745970.13  344871.25  46.23
864.7  747068.75  345349.11  46.23
865.9  747954.38  345826.36  46.24
867.1  748475.00  346205.36  46.25
868.3  749634.55  346749.95  46.26
869.5  750799.65  347314.19  46.26
870.8  752032.35  347893.77  46.26
872.0  753040.08  348367.80  46.26
873.2  753865.05  348784.87  46.27
874.4  754727.55  349218.32  46.27
875.6  755840.83  349758.63  46.27
876.8  757196.55  350363.17  46.27
878.0  758069.90  350907.70  46.29
879.2  759223.40  351395.10  46.28
880.4  760280.00  351886.80  46.28
881.6  761258.60  352383.73  46.29
882.8  762674.25  352980.08  46.28
884.0  763518.93  353433.59  46.29
885.2  764957.50  354071.02  46.29
886.5  766158.93  354633.23  46.29
887.7  767230.40  355074.11  46.28
888.8  768803.65  355667.92  46.26
890.0  769728.75  356160.00  46.27
891.2  770785.28  356631.52  46.27
892.4  772136.48  357359.74  46.28
893.6  773802.10  358136.82  46.28
894.8  775566.30  358850.83  46.27
896.0  777064.80  359544.77  46.27
897.2  778845.38  360373.86  46.27
898.4  780782.10  361323.06  46.28
899.6  782288.90  361850.37  46.26
900.8  782693.60  362091.77  46.26
902.0  783384.85  362355.44  46.26
903.2  783578.60  362449.10  46.26
904.3  784485.00  362965.34  46.27
905.5  785862.00  363559.82  46.26
906.7  787263.00  364144.69  46.25
907.9  788418.38  364662.76  46.25
909.1  789615.75  365119.92  46.24
910.2  789783.75  365215.50  46.24
911.4  790234.20  365254.40  46.22
912.6  790550.00  365468.29  46.23
913.8  791542.85  365967.74  46.23
915.0  792343.80  366204.71  46.22
916.2  792570.68  366257.21  46.21
917.3  793382.43  366605.24  46.21
918.5  793367.40  366730.04  46.22
919.7  793767.75  366746.45  46.20
920.8  794135.70  366868.22  46.20
922.0  794213.75  366899.83  46.20
923.2  794866.35  367092.80  46.18
924.4  795573.50  367444.94  46.19
925.5  796623.40  367714.28  46.16
926.7  797659.35  367913.97  46.12
927.9  798714.23  368521.07  46.14
929.0  801967.50  369926.69  46.13
930.2  806037.00  371879.19  46.14
931.4  811197.45  374170.41  46.13
932.5  816173.60  376192.73  46.09
933.7  819246.30  377361.12  46.06
934.9  820706.25  377816.25  46.04
936.0  819702.68  377300.53  46.03
937.2  816754.40  375769.53  46.01
938.3  812773.00  373848.80  46.00
939.5  810587.70  372754.98  45.99
940.7  810784.98  372495.42  45.94
941.8  814069.75  373673.34  45.90
943.0  816063.83  374545.14  45.90
944.2  818010.00  375139.55  45.86
945.3  817451.40  374731.99  45.84
946.5  815710.00  373734.50  45.82
947.6  816788.50  374045.17  45.79
948.8  815890.28  373122.93  45.73
949.9  816603.55  373123.44  45.69
951.1  816827.70  372820.05  45.64
952.2  816681.58  372122.53  45.57
953.4  816021.45  371669.72  45.55
954.5  814398.38  370533.45  45.50
955.7  814135.90  369904.35  45.44
956.8  814792.33  369674.41  45.37
958.0  813996.45  368933.74  45.32
959.1  813758.40  368452.80  45.28
960.3  813537.50  368123.57  45.25
961.4  814245.20  368137.61  45.21
962.6  813808.80  367630.15  45.17
963.7  813947.40  367529.48  45.15
964.9  814274.68  367497.21  45.13
966.0  815427.55  367472.57  45.07
967.2  815568.60  367741.20  45.09
968.3  816883.45  368394.11  45.10
969.5  816929.05  368354.56  45.09
970.6  817148.60  368285.50  45.07
971.8  817258.58  368230.07  45.06
972.9  818482.00  368534.10  45.03
974.0  818967.95  368923.04  45.05
975.2  817796.25  368294.95  45.04
976.3  818524.90  368669.11  45.04
977.5  818448.15  368268.77  45.00
978.6  818464.43  368001.30  44.96
979.7  818417.60  367752.00  44.93
980.9  819507.45  368267.64  44.94
982.0  818822.05  368072.57  44.95
983.2  818637.40  367993.04  44.95
984.3  816486.30  367150.15  44.97
985.4  816629.80  366726.96  44.91
986.6  816919.33  366764.79  44.90
987.7  817293.63  366958.97  44.90
988.9  816967.95  367495.21  44.98
990.0  816766.80  367883.27  45.04
993.1  846301.20  380556.77  44.97
996.9  846850.90  381838.33  45.09
1000.7  846908.83  382715.34  45.19
1004.5  846035.47  383165.57  45.29
1008.4  846754.22  384396.95  45.40
1012.2  847965.13  385696.06  45.48
1016.0  847931.38  386451.71  45.58
1019.8  846981.38  386706.05  45.66
1023.7  846316.81  386970.64  45.72
1027.5  844652.33  386860.36  45.80
1031.3  843801.34  386869.89  45.85
1035.1  843246.53  387016.65  45.90
1038.9  842982.29  387194.87  45.93
1042.7  842673.30  387381.18  45.97
1046.5  841941.63  387319.51  46.00
1050.3  840312.62  386792.54  46.03
1054.2  838309.18  386111.44  46.06
1058.0  837284.40  385776.00  46.07
1061.8  836034.08  385387.38  46.10
1065.6  834324.67  384613.69  46.10
1069.4  832651.23  383879.93  46.10
1073.2  831213.50  383217.48  46.10
1077.0  829840.00  382521.54  46.10
1080.8  828787.67  381896.82  46.08
1084.6  827566.67  381170.04  46.06
1088.4  826248.48  380458.41  46.05
1092.2  824697.53  379574.80  46.03
1096.0  823378.63  378732.34  46.00
1099.8  822035.00  377768.90  45.96
1103.6  820322.85  376671.17  45.92
1107.4  818980.73  375652.49  45.87
1111.2  817517.45  374630.05  45.83
1114.9  816351.00  373612.50  45.77
1118.7  815523.58  372599.61  45.69
1122.5  815215.92  371683.12  45.59
1126.3  812583.45  369539.55  45.48
1130.1  812008.23  367805.61  45.30
1133.9  808689.59  364313.09  45.05
1137.7  806078.80  360721.54  44.75
1141.4  802596.30  356231.87  44.38
1145.2  801842.72  352677.48  43.98
1149.0  799917.15  348792.30  43.60
1152.8  796650.15  344736.61  43.27
1156.6  793229.35  341218.99  43.02
1160.3  790077.60  338439.54  42.84
1164.1  785471.20  335478.32  42.71
1167.9  782342.92  333556.37  42.64
1171.7  779823.53  332052.12  42.58
1175.4  777608.98  330798.98  42.54
1179.2  775799.25  329689.77  42.50
1183.0  776015.50  329345.58  42.44
1186.7  775751.67  328842.50  42.39
1190.5  773933.08  327827.22  42.36
1194.3  770977.90  326445.45  42.34
1198.0  768126.53  325224.82  42.34
1201.8  765739.33  324302.00  42.35
1205.6  764018.29  323800.17  42.38
1209.3  762594.00  323638.72  42.44
1213.1  761015.38  323425.71  42.50
1216.8  758973.87  323182.06  42.58
1220.6  756826.67  322899.11  42.66
1224.3  754554.17  322545.54  42.75
1228.1  752566.77  322395.59  42.84
1231.9  750366.50  322070.91  42.92
1235.6  748050.05  321555.06  42.99
1239.4  745799.07  321122.53  43.06
1243.1  743718.60  320576.60  43.10
1246.9  741733.85  320013.44  43.14
1250.6  739650.97  319374.89  43.18
1254.3  737827.20  318747.09  43.20
1258.1  735863.33  318019.14  43.22
1261.8  733421.97  317031.15  43.23
1265.6  730888.99  315929.22  43.23
1269.3  728193.07  314648.77  43.21
1273.1  728558.66  314584.06  43.18
1276.8  729078.67  314526.95  43.14
1280.6  728859.42  314124.48  43.10
1284.3  726541.78  312722.75  43.04
1288.0  724483.28  311311.12  42.97
1291.8  722358.00  309752.10  42.88
1295.5  720293.72  308109.79  42.78
1299.2  717954.90  306202.38  42.65
1302.9  715205.43  303919.81  42.49
1306.7  712255.95  301363.54  42.31
1310.4  709384.27  298526.72  42.08
1314.1  707049.38  295768.93  41.83
1317.9  704635.75  292707.19  41.54
1321.6  701891.34  289232.13  41.21
1325.3  699043.50  285438.51  40.83
1329.0  696352.07  281550.50  40.43
1332.8  692556.25  276939.65  39.99
1336.5  688925.71  272361.26  39.53
1340.2  686939.85  268413.94  39.07
1343.9  685848.55  264821.77  38.61
1347.6  684835.73  261249.96  38.15
1351.4  683856.25  257877.33  37.71
1355.1  684146.10  255018.82  37.28
1358.8  682607.79  251403.66  36.83
1362.5  682201.57  247924.73  36.34
1366.2  679879.58  243261.96  35.78
1369.9  675990.00  237349.71  35.11
1373.6  671968.92  230405.18  34.29
1377.3  669231.93  222442.57  33.24
1381.0  666480.93  212621.51  31.90
1384.8  662907.10  200528.94  30.25
1388.4  658664.55  186982.91  28.39
1392.2  654523.80  172538.74  26.36
1395.9  652631.52  158422.82  24.27
1399.6  648794.58  144529.22  22.28
1403.3  646573.20  132309.78  20.46
1407.0  644452.88  121788.56  18.90
1410.7  643267.07  113296.44  17.61
1414.3  641487.50  106488.75  16.60
1418.1  639515.63  101304.69  15.84
1421.7  637749.70  97410.65  15.27
1425.4  636370.91  94657.36  14.87
1429.1  632945.25  92476.13  14.61
1432.8  631606.95  91299.20  14.46
1436.5  628311.13  90300.67  14.37
1440.2  624883.17  89725.64  14.36
1443.9  622657.35  89553.89  14.38
1447.6  619123.20  89400.35  14.44
1451.2  616168.85  89452.16  14.52
1454.9  614530.82  89793.48  14.61
1458.6  610887.55  90108.00  14.75
1462.3  609995.53  91127.59  14.94
1466.0  609997.17  92656.92  15.19
1469.7  608207.60  94325.00  15.51
1473.3  606015.67  96273.10  15.89
1477.0  601938.08  98148.09  16.31
1480.7  598794.58  100334.27  16.76
1484.4  595104.90  102457.51  17.22
1488.0  592039.47  104769.74  17.70
1491.7  588525.98  106979.79  18.18
1495.4  585030.53  109198.53  18.67
1499.0  582068.18  111444.52  19.15
1502.7  579267.28  113714.79  19.63
1506.4  576569.33  115899.73  20.10
1510.0  573825.42  118020.85  20.57
1513.7  571191.75  120060.18  21.02
1517.4  568666.00  122045.75  21.46
1521.0  566297.42  123990.10  21.89
1524.7  563774.28  125759.77  22.31
1528.3  561368.93  127460.77  22.71
1532.0  558819.75  129037.11  23.09
1535.7  556151.63  130444.96  23.45
1539.3  553561.70  131795.40  23.81
1543.0  551862.50  133324.63  24.16
1546.6  550461.25  134828.21  24.49
1550.3  548915.70  136189.65  24.81
1553.9  546569.87  137280.03  25.12
1557.6  544362.83  138330.96  25.41
1561.2  541882.42  139184.78  25.69
1564.9  539205.43  139972.78  25.96
1568.5  536501.33  140667.43  26.22
1572.2  534124.50  141402.28  26.47
1575.8  532339.40  142252.93  26.72
1579.5  530505.38  143027.71  26.96
1583.1  528238.32  143676.98  27.20
1586.8  526026.02  144309.47  27.43
1590.4  523922.75  144879.06  27.65
1594.0  521542.08  145390.24  27.88
1597.7  519310.78  145901.43  28.10
1601.3  516912.98  146345.31  28.31
1604.9  514222.87  146636.29  28.52
1608.6  511470.68  146813.22  28.70
1612.2  508862.54  146964.66  28.88
1615.8  506609.40  147147.69  29.05
1619.5  504450.16  147303.85  29.20
1623.1  501722.93  147246.59  29.35
1626.7  498902.62  147115.11  29.49
1630.3  496343.40  146973.22  29.61
1634.0  493922.22  146838.58  29.73
1637.6  491705.00  146645.36  29.82
1641.2  489470.57  146331.55  29.90
1644.8  486976.70  145772.02  29.93
1648.5  484331.43  145089.75  29.96
1652.1  482155.12  144424.27  29.95
1655.7  480250.33  143726.54  29.93
1659.3  478459.80  143008.54  29.89
1662.9  475202.50  141845.62  29.85
1666.6  471675.33  140613.30  29.81
1670.2  468288.98  139416.75  29.77
1673.8  465048.33  138200.86  29.72
1677.4  462553.65  137105.62  29.64
1681.0  460905.68  136152.37  29.54
1684.6  460026.88  135276.92  29.41
1688.2  458530.80  134074.20  29.24
1691.8  456865.52  132897.92  29.09
1695.4  456028.65  131923.36  28.93
1699.0  455119.70  130911.19  28.76
1702.6  454538.53  129944.66  28.59
1706.2  453063.80  128674.96  28.40
1709.8  450959.34  127246.80  28.22
1713.4  449384.00  125969.17  28.03
1717.0  447718.37  124747.69  27.86
1720.6  446026.72  123519.00  27.69
1724.2  444611.02  122383.68  27.53
1727.8  443290.70  121338.21  27.37
1731.4  442567.52  120542.00  27.24
1735.0  442507.63  119989.54  27.12
1738.6  441896.63  119231.44  26.98
1742.2  440953.88  118270.35  26.82
1745.8  439259.73  117022.63  26.64
1749.4  436888.58  115541.14  26.45
1753.0  433128.40  113694.26  26.25
1756.6  429306.50  111866.25  26.06
1760.1  426058.40  110231.40  25.87
1763.7  422287.96  108519.75  25.70
1767.3  419228.24  107120.00  25.55
1770.9  416611.00  105881.29  25.41
1774.5  413551.78  104602.91  25.29
1778.0  411375.10  103621.99  25.19
1781.6  409105.93  102697.85  25.10
1785.2  406507.93  101742.86  25.03
1788.8  403766.04  100880.41  24.98
1792.3  401491.11  100201.75  24.96
1795.9  400978.93  100013.28  24.94
1799.5  401145.94  100065.07  24.94
1803.1  401946.08  100330.52  24.96
1806.6  403149.03  100623.55  24.96
1810.2  404769.23  101041.88  24.96
1813.8  404508.67  100978.54  24.96
1817.3  404152.10  100905.81  24.97
1820.9  403321.88  100672.10  24.96
1824.5  402276.31  100341.19  24.94
1828.0  402625.34  100286.34  24.91
1831.6  403204.18  100199.63  24.85
1835.2  402483.72  99622.29  24.75
1838.7  402675.58  99059.50  24.60
1842.3  400970.50  97850.63  24.40
1845.8  399606.26  96389.88  24.12
1849.4  399164.03  94753.65  23.74
1852.9  397657.29  92414.74  23.24
1856.5  396155.72  89512.06  22.60
1860.0  395959.32  86258.96  21.78
1863.6  395133.98  82176.37  20.80
1867.1  394584.83  77435.35  19.62
1870.7  394991.26  71852.37  18.19
1874.2  394054.78  65134.45  16.53
1877.8  391108.45  57787.72  14.78
1881.3  388222.30  50294.84  12.96
1884.9  385941.35  43233.06  11.20
1888.4  383858.47  36674.99  9.55
1891.9  382135.38  31145.87  8.15
1895.5  380474.97  26761.98  7.03
1899.0  379425.68  23565.51  6.21
1901.3  397222.13  16272.67  4.10
1904.1  397331.00  14573.21  3.67
1906.8  395740.45  13313.55  3.36
1909.6  392380.00  12254.77  3.12
1912.4  388895.60  11450.14  2.94
1915.1  385284.60  10912.20  2.83
1917.9  381618.60  10485.45  2.75
1920.6  378900.77  10209.42  2.69
1923.3  376517.40  10030.57  2.66
1926.1  373449.45  9912.53  2.65
1928.8  369974.80  9835.80  2.66
1931.6  369056.12  9861.14  2.67
1934.3  365422.90  9905.50  2.71
1937.0  361636.80  9940.50  2.75
1939.8  358517.27  10059.62  2.81
1942.5  354194.22  10163.90  2.87
1945.2  350749.67  10331.75  2.95
1947.9  348144.12  10525.24  3.02
1950.7  344107.42  10747.03  3.12
1953.4  340723.47  10983.62  3.22
1956.1  338123.40  11264.25  3.33
1958.8  335987.75  11579.46  3.45
1961.5  333124.05  11891.95  3.57
1964.2  329827.93  12204.50  3.70
1966.9  326912.53  12545.20  3.84
1969.6  324249.50  12946.92  3.99
1972.3  321746.78  13353.30  4.15
1975.0  319238.00  13784.67  4.32
1977.7  317043.10  14225.50  4.49
1980.4  314878.67  14660.80  4.66
1983.1  312548.27  15120.67  4.84
1985.8  310447.20  15616.20  5.03
1988.4  308444.95  16117.20  5.23
1991.1  306672.10  16635.85  5.42
1993.8  305190.20  17153.50  5.62
1996.5  303667.70  17691.45  5.83
1999.1  302291.68  18203.73  6.02
2001.8  301021.07  18732.28  6.22
2004.5  299797.00  19263.90  6.43
2007.1  298322.13  19770.80  6.63
2009.8  296368.33  20232.92  6.83
2012.4  295089.52  20689.09  7.01
2015.1  293933.50  21168.94  7.20
2017.8  292788.77  21620.16  7.38
2020.4  291678.35  22055.33  7.56
2023.1  291193.05  22486.27  7.72
2025.7  290921.78  22946.35  7.89
2028.3  290117.73  23317.45  8.04
2031.0  289525.30  23682.42  8.18
2033.6  289255.00  24049.25  8.31
2036.2  288864.33  24380.07  8.44
2038.9  287872.00  24616.80  8.55
2041.5  286958.33  24833.34  8.65
2044.1  286145.83  25062.50  8.76
2046.8  285000.98  25250.62  8.86
2049.4  284120.53  25446.90  8.96
2052.0  283946.47  25673.11  9.04
2054.6  283557.33  25901.47  9.13
2057.2  282491.00  26091.48  9.24
2059.8  281001.00  26239.50  9.34
2062.4  279647.77  26396.94  9.44
2065.0  278281.00  26554.58  9.54
2067.6  276420.07  26649.24  9.64
2070.2  274947.73  26806.99  9.75
2072.8  274062.25  26997.21  9.85
2075.4  273050.00  27156.83  9.95
2078.0  272427.00  27381.26  10.05
2080.6  271121.63  27530.95  10.15
2083.2  269826.37  27658.38  10.25
2085.8  268518.95  27787.03  10.35
2088.4  267473.68  27939.39  10.45
2090.9  265783.00  28014.50  10.54
2093.5  263904.80  28055.40  10.63
2096.1  262140.45  28131.68  10.73
2098.7  260700.25  28186.13  10.81
2101.2  258790.20  28215.90  10.90
2103.8  257278.42  28312.84  11.00
2106.4  255828.27  28377.74  11.09
2108.9  254856.78  28486.90  11.18
2111.5  253949.50  28597.92  11.26
2114.0  253326.67  28751.67  11.35
2116.6  251141.37  28729.07  11.44
2119.1  250070.80  28817.60  11.52
2121.7  249524.50  28959.18  11.61
2124.2  249380.33  29114.75  11.67
2126.8  248210.60  29160.58  11.75
2129.3  247114.65  29204.86  11.82
2131.9  247340.00  29404.14  11.89
2134.4  246520.52  29447.43  11.95
2136.9  246228.27  29567.14  12.01
2139.4  245148.67  29567.59  12.06
2142.0  244708.60  29678.00  12.13
2144.5  244193.58  29753.55  12.18
2147.0  243732.42  29828.59  12.24
2149.5  243352.90  29960.94  12.31
2152.1  243722.27  30132.27  12.36
2154.6  243785.60  30299.20  12.43
2157.1  243690.97  30411.72  12.48
2159.6  242569.37  30388.35  12.53
2162.1  242417.83  30486.77  12.58
2164.6  241774.85  30512.88  12.62
2167.1  240800.03  30510.63  12.67
2169.6  240929.40  30699.68  12.74
2172.1  240099.40  30723.45  12.80
2174.6  239732.50  30798.72  12.85
2177.1  238689.92  30778.50  12.89
2179.5  238189.43  30861.15  12.96
2182.0  237867.17  30960.34  13.02
2184.5  236907.50  30994.38  13.08
2187.0  236125.40  31045.02  13.15
2189.5  235118.15  31066.78  13.21
2191.9  233886.40  31081.88  13.29
2194.4  232249.50  31019.63  13.36
2196.9  231210.28  31013.22  13.41
2199.3  229783.70  30955.65  13.47
2201.8  228608.45  30946.83  13.54
2204.3  227863.20  30968.25  13.59
2206.7  226650.05  30906.83  13.64
2209.2  225462.60  30864.38  13.69
2211.6  223531.93  30657.93  13.72
2214.1  222870.43  30630.66  13.74
2216.5  222551.52  30638.04  13.77
2219.0  221199.73  30487.23  13.78
2221.4  221244.00  30488.18  13.78
2223.9  220091.73  30292.17  13.76
2226.3  218857.22  30069.01  13.74
2228.7  217915.53  29822.00  13.69
2231.1  217266.90  29574.47  13.61
2233.6  216185.60  29280.80  13.54
2236.0  215147.75  28931.32  13.45
2238.4  214283.30  28538.37  13.32
2240.9  213610.40  28139.80  13.17
2243.3  212748.48  27744.43  13.04
2245.7  211892.40  27301.74  12.88
2248.1  210967.47  26832.00  12.72
2250.5  210226.13  26375.80  12.55
2252.9  209526.27  25925.10  12.37
2255.3  208792.27  25482.30  12.20
2257.7  207882.03  25000.62  12.03
2260.1  207007.60  24566.00  11.87
2262.5  205928.40  24111.60  11.71
2264.9  205004.33  23699.19  11.56
2267.3  204061.00  23294.70  11.42
2269.7  203121.43  22883.89  11.27
2272.1  202323.50  22547.67  11.14
2274.5  201575.93  22241.77  11.03
2276.8  200879.73  21916.27  10.91
2279.2  200148.30  21638.05  10.81
2281.6  199582.65  21380.70  10.71
2284.0  199197.90  21161.25  10.62
2286.3  198697.47  20893.47  10.52
2288.7  198153.58  20675.58  10.43
2291.1  197609.50  20419.75  10.33
2293.4  196909.80  20123.85  10.22
2295.8  196186.47  19844.83  10.12
2298.2  195405.90  19546.85  10.00
2300.5  194266.65  19215.95  9.89
2302.9  192959.80  18882.68  9.79
2305.2  191552.92  18586.79  9.70
2307.6  190082.67  18246.67  9.60
2309.9  189026.40  18025.38  9.54
2312.2  188078.50  17820.33  9.47
2314.6  187046.97  17656.02  9.44
2316.9  185955.67  17439.45  9.38
2319.2  185250.08  17277.98  9.33
2321.6  184625.42  17088.20  9.26
2323.9  183833.60  16883.70  9.18
2326.2  182941.90  16673.87  9.11
2328.6  182248.40  16518.80  9.06
2330.9  181956.00  16362.34  8.99
2333.2  181499.25  16176.13  8.91
2335.5  180962.60  15945.48  8.81
2337.8  180467.80  15787.80  8.75
2340.1  179864.47  15562.77  8.65
2342.4  179479.80  15381.90  8.57
2344.8  178699.75  15177.50  8.49
2347.1  177995.60  14975.95  8.41
2349.4  177384.40  14829.20  8.36
2351.6  176624.00  14630.00  8.28
2353.9  175567.20  14401.40  8.20
2356.2  174805.75  14228.38  8.14
2358.5  173985.88  14063.43  8.08
2360.8  173256.25  13933.33  8.04
2363.1  172879.08  13791.21  7.98
2365.4  172408.50  13628.25  7.90
2367.7  171937.33  13491.74  7.85
2369.9  171169.35  13275.72  7.76
2372.2  170023.35  13046.45  7.67
2374.5  168767.50  12813.75  7.59
2376.7  167874.50  12606.75  7.51
2379.0  166674.20  12383.25  7.43
2381.3  165276.47  12115.31  7.33
2383.5  164299.33  11925.67  7.26
2385.8  163586.50  11723.25  7.17
2388.0  162775.60  11523.13  7.08
2390.3  162091.25  11288.91  6.96
2392.5  161627.92  11119.25  6.88
2394.8  160641.33  10896.59  6.78
2397.0  160235.87  10709.67  6.68
2399.3  159693.23  10547.16  6.60
2401.5  158893.90  10328.35  6.50
2403.8  158105.33  10156.77  6.42
2406.0  157588.93  9913.02  6.29
2408.2  156768.15  9749.78  6.22
2410.4  155968.17  9586.09  6.15
2412.7  155538.20  9389.10  6.04
2414.9  154952.73  9188.50  5.93
2417.1  154901.00  9029.14  5.83
2419.3  154456.33  8849.64  5.73
2421.6  153581.40  8615.95  5.61
2423.8  152979.13  8398.63  5.49
2426.0  152662.70  8250.50  5.40
2428.2  152344.50  8085.00  5.31
2430.4  152322.02  7967.25  5.23
2432.6  152205.90  7846.90  5.16
2434.8  151538.85  7694.63  5.08
2437.0  150978.10  7484.75  4.96
2439.2  150579.00  7374.03  4.90
2441.4  149840.80  7127.80  4.76
2443.6  149723.80  7047.34  4.71
2445.7  149813.13  6886.47  4.60
2447.9  149682.00  6761.95  4.52
2450.1  148880.33  6591.75  4.43
2452.3  148023.33  6425.56  4.34
2454.5  147440.53  6268.27  4.25
2456.6  146802.08  6182.96  4.21
2458.8  145602.80  5979.87  4.11
2461.0  145151.50  5862.57  4.04
2463.1  144744.17  5782.58  4.00
2465.3  144316.00  5740.67  3.98
2467.5  143797.33  5525.00  3.84
2469.6  143465.42  5394.00  3.76
2471.8  143094.73  5322.33  3.72
2473.9  142526.58  5268.79  3.70
2476.1  141652.50  5064.59  3.58
2478.2  140785.82  5002.74  3.55
2480.4  140078.25  4868.82  3.48
2482.5  139105.62  4820.49  3.47
2484.6  138088.00  4715.00  3.41
2486.8  137337.13  4608.35  3.36
2488.9  136740.80  4504.70  3.29
2491.1  135521.83  4503.23  3.32
2493.2  134212.00  4344.69  3.24
2495.3  132569.05  4340.83  3.27
2497.4  131275.00  4332.08  3.30
2499.5  130468.27  4210.09  3.23
2501.7  130410.50  4117.75  3.16
2503.8  130798.27  4168.50  3.19
2505.9  131392.30  4243.08  3.23
2508.0  132272.00  4182.71  3.16
2510.1  133047.60  4246.20  3.19
2512.2  133844.67  4208.63  3.14
2514.3  135034.90  4253.50  3.15
2516.4  136507.68  4423.34  3.24
