/*** Spectra Vista SIG Data ***/
name= 43_20220926_ACSA_40_avg.sig
comm= Averaged Ref/Tar of files: HR.092722.0044_moc.sig,HR.092722.0045_moc.sig,HR.092722.0046_moc.sig
data=
337.3  3076.75  215.99  7.02
338.8  3270.80  221.72  6.78
340.3  3373.20  212.83  6.31
341.8  3520.83  215.13  6.11
343.2  3729.60  210.58  5.65
344.7  3881.15  212.03  5.46
346.2  4125.85  214.75  5.21
347.7  4286.43  211.61  4.94
349.2  4498.20  213.12  4.74
350.6  4737.53  216.51  4.57
352.1  5037.23  219.11  4.35
353.6  5309.10  213.82  4.03
355.1  5590.05  221.62  3.96
356.6  5899.50  229.43  3.89
358.0  6188.60  239.70  3.87
359.5  6458.10  245.14  3.80
361.0  6763.05  247.10  3.65
362.5  7143.10  256.79  3.59
364.0  7484.18  266.27  3.56
365.4  7868.00  272.71  3.47
366.9  8232.25  282.30  3.43
368.4  8591.63  294.57  3.43
369.9  8945.28  305.00  3.41
371.3  9371.70  321.16  3.43
372.8  9823.50  337.31  3.43
374.3  10239.38  341.44  3.33
375.8  10645.25  348.55  3.27
377.2  11082.80  357.39  3.22
378.7  11513.20  361.74  3.14
380.2  11916.70  366.10  3.07
381.7  12431.50  376.55  3.03
383.1  12909.05  384.23  2.98
384.6  13406.58  396.66  2.96
386.1  13890.85  411.29  2.96
387.6  14337.40  418.88  2.92
389.0  14820.40  427.78  2.89
390.5  15345.90  434.16  2.83
392.0  15896.45  446.88  2.81
393.4  16448.15  459.19  2.79
394.9  17017.20  476.26  2.80
396.4  17569.13  493.84  2.81
397.9  18091.25  500.79  2.77
399.3  18689.85  509.64  2.73
400.8  19242.10  520.10  2.70
402.2  19885.50  537.53  2.70
403.7  20463.75  553.49  2.70
405.2  21070.75  570.23  2.71
406.6  21645.60  588.84  2.72
408.1  22283.60  602.02  2.70
409.6  22893.85  620.87  2.71
411.0  23570.40  630.74  2.68
412.5  24219.48  648.75  2.68
414.0  24877.88  665.58  2.68
415.4  25559.25  689.57  2.70
416.9  26252.55  707.48  2.69
418.4  26948.03  731.17  2.71
419.8  27700.40  756.60  2.73
421.3  28430.88  780.06  2.74
422.7  29197.20  803.55  2.75
424.2  29953.13  829.93  2.77
425.7  30725.50  851.64  2.77
427.1  31491.75  879.42  2.79
428.6  32317.50  908.30  2.81
430.0  33081.50  931.31  2.82
431.5  33954.38  958.90  2.82
432.9  34823.05  986.57  2.83
434.4  35712.23  1021.03  2.86
435.9  36568.00  1051.07  2.87
437.3  37427.50  1078.00  2.88
438.8  38308.65  1105.78  2.89
440.2  39185.30  1132.93  2.89
441.7  40159.80  1164.65  2.90
443.1  41061.75  1196.03  2.91
444.6  42037.90  1231.90  2.93
446.0  42999.15  1265.37  2.94
447.5  43970.85  1300.87  2.96
448.9  44917.80  1332.51  2.97
450.4  45946.60  1365.67  2.97
451.8  46826.00  1402.39  2.99
453.3  47762.98  1435.76  3.01
454.7  48773.85  1470.46  3.01
456.2  49646.65  1501.60  3.02
457.6  50617.58  1535.10  3.03
459.1  51621.05  1565.88  3.03
460.5  52563.75  1595.45  3.04
462.0  53640.15  1631.63  3.04
463.4  54690.40  1666.83  3.05
464.8  55680.38  1702.00  3.06
466.3  56646.98  1734.43  3.06
467.7  57623.05  1767.82  3.07
469.2  58706.83  1802.27  3.07
470.6  59712.50  1835.33  3.07
472.0  60775.85  1871.31  3.08
473.5  61811.00  1903.92  3.08
474.9  62842.50  1941.94  3.09
476.4  63993.60  1979.93  3.09
477.8  65061.50  2015.64  3.10
479.2  66062.00  2051.13  3.10
480.7  67164.00  2085.92  3.11
482.1  68319.60  2124.29  3.11
483.6  69518.95  2165.30  3.11
485.0  70594.58  2208.20  3.13
486.4  71789.70  2259.41  3.15
487.9  72876.38  2299.89  3.16
489.3  74022.58  2347.87  3.17
490.7  75082.78  2393.86  3.19
492.2  76307.70  2449.02  3.21
493.6  77410.60  2502.50  3.23
495.0  78536.25  2563.69  3.26
496.5  79729.28  2631.58  3.30
497.9  80829.90  2704.39  3.35
499.3  82003.90  2784.76  3.40
500.7  83255.95  2875.31  3.45
502.2  84431.80  2969.92  3.52
503.6  85687.40  3082.27  3.60
505.0  86771.95  3201.38  3.69
506.5  88103.33  3345.62  3.80
507.9  89276.15  3499.69  3.92
509.3  90605.60  3681.11  4.06
510.7  91830.38  3874.93  4.22
512.2  93219.00  4104.56  4.40
513.6  94724.35  4365.41  4.61
515.0  96161.00  4652.12  4.84
516.4  97566.53  4961.25  5.08
517.8  99214.00  5317.19  5.36
519.3  100551.80  5684.16  5.65
520.7  102129.45  6089.00  5.96
522.1  103428.98  6503.03  6.29
523.5  104764.30  6933.32  6.62
524.9  106271.10  7378.88  6.94
526.3  107754.15  7822.94  7.26
527.8  109266.30  8272.01  7.57
529.2  110230.20  8679.46  7.87
530.6  111712.95  9123.46  8.17
532.0  113414.00  9566.27  8.43
533.4  114763.05  9958.36  8.68
534.8  115652.63  10288.54  8.90
536.3  117273.90  10665.60  9.09
537.7  119259.00  11064.84  9.28
539.1  120723.38  11400.04  9.44
540.5  121921.90  11698.60  9.60
541.9  123696.38  12046.95  9.74
543.3  124963.70  12340.60  9.88
544.7  126300.60  12640.10  10.01
546.1  128095.28  12984.72  10.14
547.5  129348.80  13266.56  10.26
549.0  130977.00  13577.67  10.37
550.4  132483.13  13856.62  10.46
551.8  134067.45  14121.65  10.53
553.2  135577.93  14347.96  10.58
554.6  136926.40  14519.39  10.60
556.0  138462.30  14669.99  10.59
557.4  140079.28  14796.51  10.56
558.8  141743.25  14894.63  10.51
560.2  143216.50  14945.24  10.44
561.6  144876.23  14981.62  10.34
563.0  146471.93  14982.84  10.23
564.4  148079.80  14966.33  10.11
565.8  149600.00  14921.34  9.97
567.2  151370.75  14869.91  9.82
568.6  152848.13  14765.25  9.66
570.0  154286.55  14613.47  9.47
571.4  156003.90  14463.40  9.27
572.8  157774.75  14307.49  9.07
574.2  159398.40  14140.27  8.87
575.6  160965.00  13977.64  8.68
577.0  162494.00  13826.57  8.51
578.4  164232.25  13714.35  8.35
579.8  165767.85  13599.29  8.20
581.2  167478.68  13521.14  8.07
582.5  168912.90  13432.60  7.95
583.9  170439.20  13368.61  7.84
585.3  172244.70  13337.26  7.74
586.7  173737.20  13297.13  7.65
588.1  175218.38  13273.99  7.58
589.5  176877.75  13280.52  7.51
590.9  178498.00  13303.31  7.45
592.3  180318.40  13354.16  7.41
593.7  181784.85  13394.82  7.37
595.0  183410.33  13459.41  7.34
596.4  184874.20  13517.46  7.31
597.8  186371.05  13575.84  7.28
599.2  187902.00  13632.83  7.26
600.6  189654.73  13687.69  7.22
602.0  190970.63  13687.87  7.17
603.3  192762.30  13700.98  7.11
604.7  194431.15  13678.12  7.03
606.1  195932.40  13614.29  6.95
607.5  197595.75  13533.51  6.85
608.9  199299.25  13432.47  6.74
610.2  200675.48  13295.07  6.63
611.6  202283.33  13162.35  6.51
613.0  203846.15  13024.68  6.39
614.4  205227.75  12877.86  6.27
615.8  206680.50  12744.23  6.17
617.1  208225.50  12629.82  6.07
618.5  209864.00  12541.52  5.98
619.9  211367.85  12472.18  5.90
621.3  212994.68  12432.14  5.84
622.6  214582.75  12413.94  5.79
624.0  216068.25  12413.12  5.74
625.4  217553.33  12431.47  5.71
626.8  219112.08  12473.37  5.69
628.1  220384.18  12518.28  5.68
629.5  222145.58  12601.34  5.67
630.9  223610.75  12668.80  5.67
632.2  224867.83  12718.64  5.66
633.6  226392.50  12764.32  5.64
635.0  227831.20  12769.28  5.60
636.3  229346.10  12737.25  5.55
637.7  230687.88  12660.58  5.49
639.1  232347.50  12560.33  5.41
640.4  233822.58  12417.61  5.31
641.8  235022.63  12235.76  5.21
643.2  236578.13  12055.98  5.10
644.5  237943.50  11849.81  4.98
645.9  239499.45  11655.30  4.87
647.2  240573.90  11456.26  4.76
648.6  242149.50  11307.21  4.67
650.0  243540.00  11173.58  4.59
651.3  244410.10  11039.04  4.52
652.7  246519.75  10958.41  4.45
654.0  248556.60  10877.94  4.38
655.4  249887.30  10756.74  4.30
656.8  250017.80  10569.77  4.23
658.1  251447.90  10413.25  4.14
659.5  253833.30  10270.77  4.05
660.8  255330.00  10084.28  3.95
662.2  256345.60  9873.49  3.85
663.5  257936.75  9697.06  3.76
664.9  258945.70  9524.26  3.68
666.2  259717.80  9367.77  3.61
667.6  261425.75  9277.21  3.55
668.9  262348.68  9195.99  3.51
670.3  264181.63  9167.57  3.47
671.6  265234.50  9150.27  3.45
673.0  266429.25  9169.87  3.44
674.3  267675.20  9212.33  3.44
675.7  268983.88  9274.66  3.45
677.0  270048.53  9348.88  3.46
678.4  271325.98  9459.63  3.49
679.7  272383.18  9600.17  3.52
681.1  273641.70  9776.28  3.57
682.4  274747.20  10004.99  3.64
683.8  275940.60  10290.81  3.73
685.1  276938.63  10648.87  3.85
686.4  278232.60  11130.23  4.00
687.8  279437.75  11760.29  4.21
689.1  280505.75  12587.78  4.49
690.5  281811.15  13696.08  4.86
691.8  282600.65  15124.61  5.35
693.1  283940.40  16994.40  5.99
694.5  285103.00  19313.45  6.77
695.8  286331.50  22097.18  7.72
697.1  287491.75  25327.03  8.81
698.5  288517.00  28966.50  10.04
699.8  289582.43  32952.39  11.38
701.1  290738.85  37224.58  12.80
702.5  291503.85  41612.48  14.28
703.8  292432.50  46094.57  15.76
705.1  293565.68  50613.44  17.24
706.5  294589.25  55069.99  18.69
707.8  295556.40  59447.38  20.11
709.1  296364.38  63701.94  21.49
710.5  297458.30  67929.45  22.84
711.8  298284.80  71997.57  24.14
713.1  299243.70  76028.13  25.41
714.4  300158.00  79944.86  26.63
715.8  300938.50  83756.89  27.83
717.1  302239.05  87603.06  28.98
718.4  303184.00  91255.68  30.10
719.7  304244.08  94849.21  31.18
721.0  304762.50  98156.57  32.21
722.4  305484.85  101421.74  33.20
723.7  306431.85  104633.51  34.15
725.0  307423.80  107744.42  35.05
726.3  308365.75  110702.99  35.90
727.6  308867.90  113378.73  36.71
729.0  309785.53  116056.39  37.46
730.3  310561.20  118545.86  38.17
731.6  311436.95  120945.74  38.83
732.9  312210.85  123173.74  39.45
734.2  312967.88  125283.77  40.03
735.5  313988.18  127368.83  40.56
736.8  314736.00  129241.97  41.06
738.1  315575.60  131015.48  41.52
739.5  316523.28  132740.78  41.94
740.8  317220.48  134241.88  42.32
742.1  317888.03  135656.10  42.67
743.4  318475.00  136965.00  43.01
744.7  319344.88  138304.50  43.31
746.0  320195.85  139549.34  43.58
747.3  320747.15  140599.48  43.83
748.6  321488.75  141639.47  44.06
749.9  322166.00  142575.83  44.26
751.2  322717.15  143433.50  44.45
752.5  323423.20  144308.65  44.62
753.8  323903.65  145038.84  44.78
755.1  324532.00  145769.87  44.92
756.4  325103.10  146436.66  45.04
757.7  326067.88  147254.96  45.16
759.0  327838.73  148387.79  45.26
760.3  328970.40  149211.54  45.36
761.6  330478.40  150176.76  45.44
762.9  330951.00  150647.85  45.52
764.2  331273.50  151030.43  45.59
765.5  331488.65  151341.03  45.65
766.8  331840.00  151705.28  45.72
768.1  332334.60  152093.49  45.77
769.3  332850.70  152508.18  45.82
770.6  333443.50  152940.27  45.87
771.9  334099.15  153381.75  45.91
773.2  334410.00  153670.24  45.95
774.5  334963.20  154043.96  45.99
775.8  335554.35  154440.37  46.03
777.1  336041.20  154786.50  46.06
778.4  336327.75  155023.23  46.09
779.6  337022.05  155455.81  46.13
780.9  337410.00  155750.00  46.16
782.2  337801.75  156035.84  46.19
783.5  338031.50  156240.17  46.22
784.8  338458.50  156535.52  46.25
786.0  338787.40  156769.05  46.27
787.3  339111.65  157005.69  46.30
788.6  339477.28  157254.60  46.32
789.9  339806.60  157511.97  46.35
791.2  340376.18  157857.21  46.38
792.4  340961.50  158216.88  46.40
793.7  341381.40  158478.23  46.42
795.0  341936.93  158810.95  46.44
796.2  342489.58  159141.04  46.47
797.5  343117.73  159492.26  46.48
798.8  343690.33  159829.58  46.50
800.0  344228.08  160170.22  46.53
801.3  344610.60  160417.40  46.55
802.6  345148.43  160729.06  46.57
803.8  345690.33  161060.16  46.59
805.1  346112.38  161304.47  46.60
806.4  346481.40  161548.72  46.63
807.7  346929.08  161829.15  46.65
808.9  347395.05  162116.58  46.67
810.2  347842.25  162391.17  46.69
811.4  348268.50  162657.06  46.70
812.7  348846.88  162990.99  46.72
814.0  349651.55  163398.03  46.73
815.2  350240.75  163737.14  46.75
816.5  350544.30  163967.01  46.77
817.7  350941.50  164226.91  46.80
819.0  351380.15  164503.77  46.82
820.2  351516.00  164612.80  46.83
821.5  352199.20  164978.77  46.84
822.7  352511.15  165193.38  46.86
824.0  352787.40  165381.20  46.88
825.2  353224.80  165644.65  46.89
826.5  353475.18  165842.05  46.92
827.7  353992.28  166155.07  46.94
829.0  354376.93  166387.06  46.95
830.2  354655.40  166566.91  46.97
831.5  355162.30  166840.45  46.98
832.7  355456.50  167029.64  46.99
834.0  355764.55  167248.60  47.01
835.2  356119.50  167468.21  47.03
836.4  356378.00  167658.22  47.05
837.7  356744.40  167895.08  47.06
838.9  357216.45  168163.91  47.08
840.1  357607.58  168393.01  47.09
841.4  358014.80  168641.85  47.10
842.6  358360.00  168883.34  47.13
843.8  358690.60  169108.99  47.15
845.1  359186.20  169408.64  47.16
846.3  359578.30  169653.14  47.18
847.5  359979.90  169901.14  47.20
848.8  360417.60  170144.82  47.21
850.0  360801.35  170382.94  47.22
851.2  361347.75  170687.75  47.24
852.5  361751.80  170922.87  47.25
853.7  362268.00  171225.32  47.26
854.9  362690.70  171477.25  47.28
856.1  363136.80  171757.36  47.30
857.4  363338.53  171906.01  47.31
858.6  363845.00  172193.81  47.33
859.8  364218.75  172416.70  47.34
861.0  364759.20  172675.95  47.34
862.2  365112.28  172941.04  47.37
863.5  365517.43  173164.60  47.38
864.7  366049.20  173458.69  47.39
865.9  366486.20  173669.99  47.39
867.1  366745.90  173858.45  47.41
868.3  367214.10  174096.82  47.41
869.5  367659.00  174354.52  47.42
870.8  368194.50  174627.64  47.43
872.0  368762.93  174914.31  47.43
873.2  369180.60  175146.80  47.44
874.4  369603.00  175392.95  47.45
875.6  369916.68  175599.97  47.47
876.8  370425.45  175860.78  47.48
878.0  370854.30  176118.27  47.49
879.2  371429.10  176376.67  47.49
880.4  371964.00  176625.56  47.48
881.6  372383.73  176847.13  47.49
882.8  372788.00  177057.49  47.50
884.0  373311.40  177350.95  47.51
885.2  373689.70  177579.14  47.52
886.5  374325.05  177872.62  47.52
887.7  374864.10  178110.60  47.51
888.8  375505.35  178419.16  47.51
890.0  376086.60  178654.78  47.50
891.2  376580.30  178926.84  47.51
892.4  377059.20  179198.15  47.53
893.6  377595.65  179467.93  47.53
894.8  378488.00  179884.20  47.53
896.0  379234.25  180272.03  47.54
897.2  380129.75  180623.64  47.52
898.4  380760.60  180947.27  47.52
899.6  381221.25  181212.41  47.53
900.8  381533.08  181382.21  47.54
902.0  381704.55  181463.59  47.54
903.2  381899.48  181587.13  47.55
904.3  382267.20  181700.65  47.53
905.5  382829.38  181951.60  47.53
906.7  383289.50  182207.49  47.54
907.9  383794.95  182441.47  47.54
909.1  383839.43  182544.90  47.56
910.2  384052.28  182598.95  47.55
911.4  384239.70  182656.05  47.54
912.6  384462.65  182723.22  47.53
913.8  384585.23  182820.13  47.54
915.0  384970.95  182988.68  47.53
916.2  384939.75  183043.90  47.55
917.3  384911.10  182961.86  47.53
918.5  384835.80  183009.81  47.56
919.7  385046.85  183051.20  47.54
920.8  385107.38  183047.47  47.53
922.0  385115.50  183043.12  47.53
923.2  385203.00  183125.80  47.54
924.4  385236.00  183159.74  47.54
925.5  385404.10  183245.16  47.55
926.7  385978.63  183446.80  47.53
927.9  386805.00  183767.32  47.51
929.0  388181.70  184373.35  47.50
930.2  390260.00  185357.77  47.50
931.4  392562.45  186438.34  47.49
932.5  395132.20  187611.01  47.48
933.7  396400.60  188196.21  47.48
934.9  396917.50  188404.00  47.47
936.0  396526.00  188084.12  47.43
937.2  394267.35  186955.35  47.42
938.3  392301.05  186023.62  47.42
939.5  390682.80  185188.60  47.40
940.7  390900.60  185187.05  47.37
941.8  392250.30  185770.06  47.36
943.0  393633.00  186327.82  47.34
944.2  394341.35  186591.76  47.32
945.3  393841.50  186223.89  47.28
946.5  392751.45  185700.23  47.28
947.6  392842.00  185667.34  47.26
948.8  392512.58  185417.68  47.24
949.9  392628.60  185305.96  47.20
951.1  392026.38  184895.51  47.16
952.2  391680.00  184623.89  47.14
953.4  391495.25  184249.20  47.06
954.5  391294.80  183952.08  47.01
955.7  390915.00  183689.76  46.99
956.8  390694.70  183355.59  46.93
958.0  390283.00  182996.97  46.89
959.1  390052.80  182723.31  46.85
960.3  389347.68  182378.94  46.84
961.4  389118.45  182156.00  46.81
962.6  389114.25  181956.55  46.76
963.7  388594.80  181692.37  46.76
964.9  388335.68  181555.62  46.75
966.0  388334.25  181340.22  46.70
967.2  388300.50  181325.14  46.70
968.3  388030.50  181067.98  46.66
969.5  387770.53  180919.64  46.66
970.6  387468.95  180851.84  46.68
971.8  387755.38  180869.81  46.65
972.9  387471.23  180754.49  46.65
974.0  387821.00  180796.90  46.62
975.2  387518.00  180711.78  46.63
976.3  387565.53  180631.73  46.61
977.5  387251.20  180551.55  46.62
978.6  387296.80  180422.24  46.59
979.7  387349.20  180427.23  46.58
980.9  386893.65  180370.00  46.62
982.0  386359.75  180182.37  46.64
983.2  386259.30  179894.26  46.57
984.3  385554.20  179542.04  46.57
985.4  385909.53  179374.78  46.48
986.6  385056.38  179301.10  46.56
987.7  386117.20  179734.58  46.55
988.9  385374.60  179460.67  46.57
990.0  385681.00  179568.64  46.56
993.1  385903.93  179001.06  46.38
996.9  384684.43  178799.08  46.48
1000.7  384655.83  179121.70  46.57
1004.5  384714.25  179487.25  46.65
1008.4  384283.83  179634.80  46.75
1012.2  384080.29  179826.40  46.82
1016.0  383731.80  179930.40  46.89
1019.8  383067.30  179879.70  46.96
1023.7  381920.82  179550.81  47.01
1027.5  380255.68  179006.57  47.08
1031.3  379256.93  178695.95  47.12
1035.1  378218.69  178384.36  47.16
1038.9  377752.65  178307.01  47.20
1042.7  377394.83  178291.67  47.24
1046.5  377250.67  178332.00  47.27
1050.3  377186.26  178386.68  47.29
1054.2  376750.50  178296.42  47.32
1058.0  376370.40  178134.24  47.33
1061.8  376275.45  178167.64  47.35
1065.6  375717.00  177904.60  47.35
1069.4  374866.60  177520.65  47.36
1073.2  373576.37  176882.30  47.35
1077.0  372850.45  176491.24  47.34
1080.8  372952.08  176464.14  47.32
1084.6  372934.10  176383.32  47.30
1088.4  373137.68  176450.51  47.29
1092.2  372645.00  176126.79  47.26
1096.0  371951.32  175686.10  47.23
1099.8  371254.00  175214.37  47.20
1103.6  370296.28  174631.89  47.16
1107.4  369130.32  173925.79  47.12
1111.2  368825.50  173603.81  47.07
1114.9  368233.25  173128.42  47.02
1118.7  367945.88  172719.29  46.94
1122.5  367562.87  172188.46  46.85
1126.3  366605.40  171321.69  46.73
1130.1  366184.38  170542.95  46.57
1133.9  364490.70  168942.00  46.35
1137.7  362961.10  167222.55  46.07
1141.4  360905.35  165076.89  45.74
1145.2  359962.96  163301.58  45.37
1149.0  358685.83  161446.88  45.01
1152.8  356907.90  159487.32  44.69
1156.6  355021.33  157756.68  44.44
1160.3  353174.00  156279.10  44.25
1164.1  350850.20  154750.60  44.11
1167.9  349192.71  153682.44  44.01
1171.7  347878.13  152860.50  43.94
1175.4  346391.53  152028.77  43.89
1179.2  344979.98  151205.03  43.83
1183.0  344634.00  150834.43  43.77
1186.7  344615.37  150624.67  43.71
1190.5  344207.07  150289.37  43.66
1194.3  343265.77  149726.54  43.62
1198.0  341804.38  149011.38  43.60
1201.8  340082.45  148272.42  43.60
1205.6  338975.33  147948.76  43.65
1209.3  338352.13  147958.29  43.73
1213.1  337848.23  148024.77  43.81
1216.8  337231.13  148093.21  43.91
1220.6  336110.13  147922.13  44.01
1224.3  334849.42  147678.49  44.10
1228.1  333330.80  147306.97  44.19
1231.9  331719.90  146843.10  44.27
1235.6  329983.43  146278.32  44.33
1239.4  328433.25  145799.16  44.39
1243.1  327040.62  145330.95  44.44
1246.9  325739.98  144881.03  44.48
1250.6  324665.07  144496.55  44.51
1254.3  323474.43  144043.02  44.53
1258.1  322244.07  143540.60  44.54
1261.8  320810.27  142927.24  44.55
1265.6  319627.18  142373.74  44.54
1269.3  318816.23  141962.07  44.53
1273.1  319129.13  142020.23  44.50
1276.8  318898.00  141799.09  44.47
1280.6  317775.20  141157.82  44.42
1284.3  315798.40  140100.51  44.36
1288.0  314519.88  139323.34  44.30
1291.8  314048.87  138819.85  44.20
1295.5  313293.20  138172.78  44.10
1299.2  312153.32  137295.73  43.98
1302.9  310512.18  136135.88  43.84
1306.7  308704.08  134835.40  43.68
1310.4  306995.63  133451.58  43.47
1314.1  305428.93  132058.93  43.24
1317.9  304014.58  130622.20  42.97
1321.6  302481.28  129035.85  42.66
1325.3  300815.55  127289.70  42.31
1329.0  299507.48  125639.92  41.95
1332.8  297543.40  123620.20  41.55
1336.5  295898.53  121705.87  41.13
1340.2  295734.83  120410.33  40.72
1343.9  295710.83  119163.81  40.30
1347.6  295913.85  118011.52  39.88
1351.4  297414.00  117410.29  39.48
1355.1  299456.30  117031.46  39.08
1358.8  301168.00  116441.14  38.66
1362.5  301421.13  115156.76  38.20
1366.2  299453.30  112803.14  37.67
1369.9  296291.00  109734.81  37.04
1373.6  293465.90  106372.02  36.25
1377.3  291939.90  102868.46  35.24
1381.0  291404.17  98944.62  33.95
1384.8  289477.50  93681.25  32.36
1388.4  286261.50  87458.52  30.55
1392.2  283999.50  81119.74  28.56
1395.9  282520.75  74855.06  26.50
1399.6  280700.87  68763.24  24.50
1403.3  279253.43  63276.46  22.66
1407.0  277576.00  58435.40  21.05
1410.7  275785.95  54378.81  19.72
1414.3  273910.12  51107.48  18.66
1418.1  272206.96  48614.39  17.86
1421.7  270841.78  46735.10  17.26
1425.4  269481.55  45334.02  16.82
1429.1  268232.25  44315.14  16.52
1432.8  266564.17  43521.94  16.33
1436.5  265763.09  43065.62  16.20
1440.2  265147.03  42826.12  16.15
1443.9  264039.97  42626.43  16.14
1447.6  262493.00  42449.00  16.17
1451.2  261239.73  42378.41  16.22
1454.9  259777.05  42335.59  16.30
1458.6  258535.34  42437.77  16.41
1462.3  257340.60  42686.08  16.59
1466.0  255976.08  43057.40  16.82
1469.7  254252.59  43545.45  17.13
1473.3  253190.17  44283.86  17.49
1477.0  251166.23  44966.61  17.90
1480.7  249517.45  45777.09  18.35
1484.4  247512.58  46528.91  18.80
1488.0  245916.00  47400.57  19.28
1491.7  244308.28  48250.47  19.75
1495.4  242600.07  49084.46  20.23
1499.0  241033.50  49911.07  20.71
1502.7  239734.75  50794.04  21.19
1506.4  238305.26  51599.75  21.65
1510.0  236848.87  52374.71  22.11
1513.7  235326.58  53089.46  22.56
1517.4  233977.33  53807.33  23.00
1521.0  232732.13  54517.01  23.42
1524.7  231473.67  55166.43  23.83
1528.3  230166.88  55769.53  24.23
1532.0  228944.10  56341.63  24.61
1535.7  227539.20  56822.32  24.97
1539.3  226264.33  57302.82  25.33
1543.0  225296.03  57826.40  25.67
1546.6  224586.92  58383.47  26.00
1550.3  223577.65  58821.33  26.31
1553.9  222526.57  59206.63  26.61
1557.6  221261.33  59505.28  26.89
1561.2  219991.50  59741.87  27.16
1564.9  218684.50  59949.17  27.41
1568.5  217357.47  60122.77  27.66
1572.2  216187.35  60326.68  27.90
1575.8  215068.00  60528.00  28.14
1579.5  214079.45  60724.34  28.37
1583.1  213033.94  60894.66  28.58
1586.8  211694.00  60962.00  28.80
1590.4  210471.93  61038.99  29.00
1594.0  209156.78  61066.74  29.20
1597.7  208325.06  61230.09  29.39
1601.3  207394.43  61349.40  29.58
1604.9  206400.64  61425.58  29.76
1608.6  205051.60  61368.85  29.93
1612.2  203685.08  61281.23  30.09
1615.8  202274.15  61146.61  30.23
1619.5  201040.17  61040.49  30.36
1623.1  199709.37  60884.69  30.49
1626.7  198486.93  60731.36  30.60
1630.3  197324.42  60567.32  30.69
1634.0  196210.00  60396.00  30.78
1637.6  195203.13  60221.41  30.85
1641.2  194185.05  59979.45  30.89
1644.8  192973.78  59615.77  30.89
1648.5  191900.32  59253.45  30.88
1652.1  190942.20  58879.58  30.84
1655.7  190010.20  58499.94  30.79
1659.3  189155.33  58168.50  30.75
1662.9  187750.83  57674.52  30.72
1666.6  186313.00  57191.05  30.70
1670.2  184895.20  56685.21  30.66
1673.8  183430.75  56110.58  30.59
1677.4  182256.60  55569.76  30.49
1681.0  181426.75  55043.30  30.34
1684.6  181027.17  54538.71  30.13
1688.2  180341.75  53836.71  29.85
1691.8  179655.73  53156.50  29.59
1695.4  179218.20  52560.28  29.33
1699.0  178827.60  52037.07  29.10
1702.6  178478.67  51485.33  28.85
1706.2  177856.47  50789.38  28.56
1709.8  176895.98  50034.19  28.28
1713.4  176147.28  49455.47  28.08
1717.0  175274.25  48993.18  27.95
1720.6  174433.65  48654.07  27.89
1724.2  173712.08  48382.58  27.85
1727.8  172984.70  48136.35  27.83
1731.4  172530.88  47928.97  27.78
1735.0  172359.18  47762.95  27.71
1738.6  172143.90  47510.96  27.60
1742.2  171599.71  47087.73  27.44
1745.8  170962.63  46601.26  27.26
1749.4  170026.73  46012.84  27.06
1753.0  168552.20  45295.20  26.87
1756.6  166903.63  44575.21  26.71
1760.1  165566.97  43988.28  26.57
1763.7  163836.67  43316.67  26.44
1767.3  162387.68  42728.47  26.31
1770.9  161130.38  42178.15  26.18
1774.5  159662.73  41592.30  26.05
1778.0  158509.85  41160.73  25.97
1781.6  157423.65  40833.58  25.94
1785.2  156275.03  40561.06  25.95
1788.8  155122.30  40334.26  26.00
1792.3  153887.13  40094.13  26.05
1795.9  153352.01  40034.89  26.11
1799.5  153126.00  40048.48  26.15
1803.1  154080.50  40383.23  26.21
1806.6  156198.18  41002.21  26.25
1810.2  157975.77  41520.67  26.28
1813.8  158792.45  41774.65  26.31
1817.3  158267.40  41656.77  26.32
1820.9  157006.50  41334.36  26.33
1824.5  155579.43  40943.43  26.32
1828.0  154475.75  40600.35  26.28
1831.6  153994.18  40395.95  26.23
1835.2  153736.67  40184.76  26.14
1838.7  153515.60  39908.54  26.00
1842.3  153285.00  39546.43  25.80
1845.8  152106.21  38832.09  25.53
1849.4  151469.30  38123.77  25.17
1852.9  150621.80  37199.27  24.70
1856.5  149578.78  36025.35  24.08
1860.0  148551.05  34619.11  23.30
1863.6  148526.88  33190.62  22.35
1867.1  149136.40  31622.15  21.20
1870.7  149947.45  29704.97  19.81
1874.2  148965.30  27081.96  18.18
1877.8  146385.27  24043.60  16.42
1881.3  143487.00  20915.88  14.58
1884.9  141658.37  18087.22  12.77
1888.4  140159.47  15467.72  11.04
1891.9  138571.27  13196.26  9.52
1895.5  137188.80  11367.59  8.29
1899.0  136489.13  10035.28  7.35
1901.3  177173.50  9254.50  5.22
1904.1  177084.75  8352.75  4.72
1906.8  175968.00  7632.80  4.34
1909.6  173726.35  7007.70  4.03
1912.4  171603.95  6536.44  3.81
1915.1  170105.65  6233.88  3.66
1917.9  168558.33  5995.28  3.56
1920.6  167216.90  5807.24  3.47
1923.3  165832.33  5687.89  3.43
1926.1  164103.80  5588.43  3.41
1928.8  162462.67  5524.44  3.40
1931.6  161199.05  5512.85  3.42
1934.3  160045.55  5517.92  3.45
1937.0  158947.70  5537.62  3.48
1939.8  157718.67  5590.89  3.54
1942.5  156156.00  5643.00  3.61
1945.2  154147.95  5695.25  3.69
1947.9  152506.67  5769.17  3.78
1950.7  151217.30  5869.77  3.88
1953.4  149323.80  5959.20  3.99
1956.1  147841.67  6076.89  4.11
1958.8  146523.22  6208.00  4.24
1961.5  144982.80  6338.80  4.37
1964.2  143397.80  6485.27  4.52
1966.9  141759.20  6621.58  4.67
1969.6  140472.00  6786.00  4.83
1972.3  139053.60  6944.97  4.99
1975.0  137971.50  7139.00  5.17
1977.7  136852.30  7326.65  5.35
1980.4  135672.93  7521.80  5.54
1983.1  134550.47  7717.16  5.74
1985.8  133605.90  7925.70  5.93
1988.4  132556.67  8132.22  6.13
1991.1  131606.53  8348.43  6.34
1993.8  130706.22  8562.09  6.55
1996.5  130051.35  8786.13  6.76
1999.1  129362.02  9015.91  6.97
2001.8  128653.93  9240.54  7.18
2004.5  127959.45  9454.45  7.39
2007.1  127224.20  9662.05  7.59
2009.8  126452.43  9865.02  7.80
2012.4  125855.03  10081.50  8.01
2015.1  125286.93  10279.42  8.20
2017.8  124484.03  10457.85  8.40
2020.4  123967.98  10650.20  8.59
2023.1  123603.43  10843.46  8.77
2025.7  123352.67  11038.45  8.95
2028.3  123006.00  11211.78  9.11
2031.0  122591.30  11369.38  9.27
2033.6  122313.30  11533.30  9.43
2036.2  122052.30  11678.30  9.57
2038.9  121452.00  11779.80  9.70
2041.5  121091.93  11901.16  9.83
2044.1  120521.10  11988.60  9.95
2046.8  120120.90  12087.20  10.06
2049.4  119477.10  12148.10  10.17
2052.0  119192.53  12241.22  10.27
2054.6  118790.00  12325.83  10.38
2057.2  118214.40  12392.60  10.48
2059.8  117873.80  12485.76  10.59
2062.4  116977.67  12522.94  10.71
2065.0  116450.27  12599.29  10.82
2067.6  115530.70  12630.45  10.93
2070.2  114903.10  12688.56  11.04
2072.8  114258.07  12735.05  11.15
2075.4  113811.25  12810.00  11.26
2078.0  113155.68  12850.02  11.36
2080.6  112587.20  12903.73  11.46
2083.2  111888.97  12933.75  11.56
2085.8  111381.45  12978.84  11.65
2088.4  110717.00  12999.72  11.74
2090.9  109908.57  13007.52  11.83
2093.5  108995.97  13000.97  11.93
2096.1  108210.67  13002.26  12.02
2098.7  107428.95  13002.26  12.10
2101.2  106450.60  12980.64  12.19
2103.8  105760.67  12977.73  12.27
2106.4  105079.47  12977.73  12.35
2108.9  104415.73  12974.82  12.43
2111.5  103551.13  12951.53  12.51
2114.0  102913.60  12948.62  12.58
2116.6  102366.25  12955.83  12.66
2119.1  101807.30  12951.29  12.72
2121.7  101307.50  12955.83  12.79
2124.2  100895.57  12962.98  12.85
2126.8  100077.30  12917.36  12.91
2129.3  99677.60  12924.27  12.97
2131.9  99088.00  12900.80  13.02
2134.4  98659.80  12897.40  13.07
2136.9  98258.55  12898.60  13.13
2139.4  97719.53  12877.36  13.18
2142.0  97249.60  12865.53  13.23
2144.5  96965.50  12878.30  13.28
2147.0  96730.13  12899.73  13.34
2149.5  96229.87  12878.89  13.38
2152.1  96049.80  12900.07  13.43
2154.6  95979.73  12926.04  13.47
2157.1  95438.58  12901.36  13.52
2159.6  95020.75  12892.28  13.57
2162.1  94849.30  12912.90  13.61
2164.6  94603.07  12923.67  13.66
2167.1  94276.10  12911.77  13.70
2169.6  93927.05  12906.41  13.74
2172.1  93450.57  12886.66  13.79
2174.6  93130.00  12896.11  13.85
2177.1  92684.80  12885.27  13.90
2179.5  92262.95  12878.74  13.96
2182.0  91779.60  12865.60  14.02
2184.5  91234.15  12858.30  14.09
2187.0  90607.17  12819.90  14.15
2189.5  89902.00  12777.21  14.21
2191.9  89100.50  12730.00  14.29
2194.4  88461.65  12698.32  14.35
2196.9  87705.60  12633.60  14.40
2199.3  87029.00  12586.00  14.46
2201.8  86130.27  12491.11  14.50
2204.3  85650.42  12463.89  14.55
2206.7  84995.65  12411.00  14.60
2209.2  84512.38  12373.94  14.64
2211.6  83872.80  12305.70  14.67
2214.1  83560.10  12284.93  14.70
2216.5  82993.00  12221.31  14.73
2219.0  82645.33  12184.89  14.74
2221.4  82258.75  12144.61  14.76
2223.9  81772.83  12078.50  14.77
2226.3  81257.17  11982.64  14.75
2228.7  80697.42  11869.88  14.71
2231.1  80091.00  11738.10  14.66
2233.6  79486.53  11602.13  14.60
2236.0  78926.75  11457.05  14.52
2238.4  78411.08  11291.78  14.40
2240.9  77936.93  11125.33  14.27
2243.3  77380.67  10943.22  14.14
2245.7  76804.05  10736.05  13.98
2248.1  76304.80  10528.12  13.80
2250.5  75783.48  10322.77  13.62
2252.9  75138.70  10086.27  13.42
2255.3  74565.30  9857.13  13.22
2257.7  74090.00  9650.00  13.02
2260.1  73594.50  9434.68  12.82
2262.5  72980.00  9210.00  12.62
2264.9  72429.08  9008.29  12.44
2267.3  71810.00  8806.67  12.26
2269.7  71306.90  8635.36  12.11
2272.1  70747.72  8467.42  11.97
2274.5  70162.87  8296.15  11.82
2276.8  69675.93  8143.55  11.69
2279.2  69083.70  7989.75  11.57
2281.6  68654.67  7865.42  11.46
2284.0  68185.10  7719.77  11.32
2286.3  67710.93  7572.98  11.18
2288.7  67291.47  7444.02  11.06
2291.1  66731.57  7296.37  10.93
2293.4  66250.80  7169.55  10.82
2295.8  65621.30  7021.17  10.70
2298.2  65029.05  6868.95  10.56
2300.5  64356.30  6713.70  10.43
2302.9  63581.00  6572.00  10.34
2305.2  62840.30  6437.50  10.24
2307.6  62157.92  6324.12  10.17
2309.9  61380.00  6206.89  10.11
2312.2  60780.67  6120.78  10.07
2314.6  60174.90  6027.15  10.02
2316.9  59460.75  5923.65  9.96
2319.2  58872.30  5839.89  9.92
2321.6  58240.12  5731.60  9.84
2323.9  57677.08  5631.94  9.76
2326.2  57122.50  5536.62  9.69
2328.6  56586.75  5451.42  9.63
2330.9  56080.50  5376.00  9.59
2333.2  55604.83  5295.19  9.52
2335.5  55158.50  5225.17  9.47
2337.8  54693.07  5143.65  9.40
2340.1  54099.98  5064.57  9.36
2342.4  53635.83  4994.17  9.31
2344.8  53196.92  4916.14  9.24
2347.1  52640.00  4836.30  9.19
2349.4  52075.78  4762.87  9.15
2351.6  51491.90  4682.08  9.09
2353.9  50996.07  4604.58  9.03
2356.2  50480.78  4531.89  8.98
2358.5  49873.60  4457.60  8.94
2360.8  49268.80  4390.40  8.91
2363.1  48826.15  4318.42  8.84
2365.4  48352.70  4245.03  8.78
2367.7  47880.00  4187.60  8.75
2369.9  47322.85  4118.18  8.70
2372.2  46703.73  4036.26  8.64
2374.5  46107.60  3957.80  8.58
2376.7  45479.25  3876.10  8.52
2379.0  44846.50  3792.47  8.46
2381.3  44240.00  3710.00  8.39
2383.5  43706.67  3625.60  8.30
2385.8  43089.53  3537.85  8.21
2388.0  42550.80  3453.47  8.12
2390.3  42031.73  3382.00  8.05
2392.5  41532.00  3296.00  7.94
2394.8  41055.30  3214.57  7.83
2397.0  40573.87  3142.54  7.75
2399.3  40095.35  3066.14  7.65
2401.5  39641.00  2997.17  7.56
2403.8  39105.42  2923.15  7.48
2406.0  38603.42  2843.42  7.37
2408.2  38185.40  2775.91  7.27
2410.4  37762.08  2713.04  7.18
2412.7  37335.57  2651.57  7.10
2414.9  36975.95  2589.03  7.00
2417.1  36576.00  2523.07  6.90
2419.3  36147.20  2457.60  6.80
2421.6  35740.42  2393.89  6.70
2423.8  35360.10  2329.68  6.59
2426.0  34990.08  2272.08  6.49
2428.2  34626.67  2221.33  6.42
2430.4  34327.27  2165.86  6.31
2432.6  34053.33  2102.22  6.17
2434.8  33750.83  2054.01  6.09
2437.0  33381.83  2001.57  6.00
2439.2  33021.22  1941.90  5.88
2441.4  32679.10  1890.49  5.79
2443.6  32413.90  1851.43  5.71
2445.7  32153.80  1804.83  5.61
2447.9  31897.00  1758.14  5.51
2450.1  31584.40  1695.37  5.37
2452.3  31211.95  1646.94  5.28
2454.5  30848.75  1597.99  5.18
2456.6  30445.07  1545.56  5.08
2458.8  30087.20  1501.50  4.99
2461.0  29784.83  1465.69  4.92
2463.1  29492.85  1425.90  4.83
2465.3  29208.13  1395.04  4.78
2467.5  28969.00  1366.83  4.72
2469.6  28729.50  1342.50  4.67
2471.8  28426.55  1306.45  4.60
2473.9  28100.25  1277.06  4.54
2476.1  27724.67  1238.61  4.47
2478.2  27374.30  1208.51  4.41
2480.4  27062.05  1181.95  4.37
2482.5  26708.75  1156.09  4.33
2484.6  26382.58  1127.19  4.27
2486.8  26124.80  1104.23  4.23
2488.9  25789.97  1094.31  4.24
2491.1  25450.13  1073.64  4.22
2493.2  25051.70  1037.83  4.14
2495.3  24675.30  1010.10  4.09
2497.4  24327.10  992.83  4.08
2499.5  23983.70  960.21  4.00
2501.7  23844.77  953.13  4.00
2503.8  23771.10  947.28  3.99
2505.9  23711.67  945.28  3.99
2508.0  23700.05  928.38  3.92
2510.1  23749.07  929.93  3.92
2512.2  23855.00  935.85  3.92
2514.3  24013.92  942.84  3.93
2516.4  24250.70  965.30  3.98
