/*** Spectra Vista SIG Data ***/
name= 14_20221020_QUPA_38_avg.sig
comm= Averaged Ref/Tar of files: HR.102022.0040_moc.sig,HR.102022.0041_moc.sig,HR.102022.0042_moc.sig
data=
337.3  3076.75  197.55  6.42
338.8  3174.60  196.07  6.18
340.3  3373.20  182.05  5.40
341.8  3520.83  199.45  5.66
343.2  3729.60  197.90  5.31
344.7  3838.50  191.72  4.99
346.2  4044.15  179.74  4.44
347.7  4207.78  176.78  4.20
349.2  4384.80  162.72  3.71
350.6  4664.08  161.59  3.46
352.1  4930.05  172.16  3.49
353.6  5205.00  170.53  3.28
355.1  5489.03  169.98  3.10
356.6  5768.40  170.43  2.95
358.0  6029.10  174.39  2.89
359.5  6303.60  181.87  2.89
361.0  6613.43  184.11  2.78
362.5  6938.18  188.48  2.72
364.0  7283.45  203.18  2.79
365.4  7615.10  203.39  2.67
366.9  7956.00  199.95  2.51
368.4  8318.88  206.25  2.48
369.9  8675.03  220.32  2.54
371.3  9078.00  230.38  2.54
372.8  9531.45  246.28  2.58
374.3  9943.75  247.76  2.49
375.8  10294.90  248.45  2.41
377.2  10706.20  247.99  2.32
378.7  11109.70  250.55  2.26
380.2  11513.20  253.12  2.20
381.7  12026.13  259.44  2.16
383.1  12477.85  262.31  2.10
384.6  12948.00  271.29  2.10
386.1  13377.38  277.97  2.08
387.6  13825.35  282.33  2.04
389.0  14284.40  289.44  2.03
390.5  14761.80  296.85  2.01
392.0  15288.10  299.26  1.96
393.4  15843.83  310.80  1.96
394.9  16364.70  320.66  1.96
396.4  16896.38  329.72  1.95
397.9  17399.38  334.83  1.92
399.3  17930.10  343.94  1.92
400.8  18494.35  348.00  1.88
402.2  19124.45  359.60  1.88
403.7  19693.35  367.32  1.87
405.2  20265.80  378.80  1.87
406.6  20833.60  393.74  1.89
408.1  21402.20  402.49  1.88
409.6  21971.95  412.24  1.88
411.0  22652.35  423.75  1.87
412.5  23282.35  431.57  1.85
414.0  23899.88  445.92  1.87
415.4  24585.38  458.07  1.86
416.9  25230.98  471.05  1.87
418.4  25902.23  489.46  1.89
419.8  26608.40  500.59  1.88
421.3  27307.90  515.06  1.89
422.7  28066.20  534.93  1.91
424.2  28839.38  550.29  1.91
425.7  29568.20  571.59  1.93
427.1  30304.88  588.09  1.94
428.6  31108.50  607.60  1.95
430.0  31821.98  623.76  1.96
431.5  32670.83  648.17  1.98
432.9  33519.20  666.92  1.99
434.4  34394.33  691.42  2.01
435.9  35224.00  714.67  2.03
437.3  36052.50  732.55  2.03
438.8  36869.70  754.77  2.05
440.2  37730.00  774.88  2.05
441.7  38672.40  796.85  2.06
443.1  39551.25  823.52  2.08
444.6  40505.20  850.13  2.10
446.0  41429.18  869.70  2.10
447.5  42381.08  896.38  2.12
448.9  43305.30  916.27  2.12
450.4  44289.00  945.72  2.14
451.8  45149.00  972.15  2.15
453.3  46050.15  995.44  2.16
454.7  47047.93  1025.64  2.18
456.2  47887.73  1045.40  2.18
457.6  48852.00  1069.84  2.19
459.1  49808.85  1094.17  2.20
460.5  50744.75  1118.40  2.20
462.0  51800.75  1144.86  2.21
463.4  52827.20  1170.37  2.22
464.8  53807.25  1189.81  2.21
466.3  54753.60  1216.30  2.22
467.7  55708.85  1244.76  2.23
469.2  56764.48  1271.04  2.24
470.6  57745.50  1293.67  2.24
472.0  58791.28  1319.56  2.24
473.5  59791.13  1343.89  2.25
474.9  60819.00  1369.09  2.25
476.4  61963.20  1396.12  2.25
477.8  62988.00  1428.73  2.27
479.2  63988.50  1453.04  2.27
480.7  65065.13  1476.73  2.27
482.1  66209.90  1505.00  2.27
483.6  67380.35  1535.83  2.28
485.0  68452.28  1569.36  2.29
486.4  69607.20  1606.60  2.31
487.9  70668.00  1641.34  2.32
489.3  71813.83  1680.61  2.34
490.7  72859.30  1715.67  2.35
492.2  74073.30  1765.96  2.38
493.6  75154.50  1811.58  2.41
495.0  76254.75  1862.81  2.44
496.5  77425.30  1918.09  2.48
497.9  78511.25  1977.35  2.52
499.3  79670.58  2045.56  2.57
500.7  80911.95  2123.00  2.62
502.2  82052.00  2214.75  2.70
503.6  83307.60  2314.31  2.78
505.0  84384.00  2421.85  2.87
506.5  85680.23  2553.96  2.98
507.9  86830.03  2693.92  3.10
509.3  88148.80  2862.18  3.25
510.7  89373.38  3048.69  3.41
512.2  90743.78  3269.14  3.60
513.6  92213.10  3522.99  3.82
515.0  93628.95  3802.82  4.06
516.4  95000.85  4103.73  4.32
517.8  96615.00  4449.78  4.61
519.3  97947.93  4810.43  4.91
520.7  99502.10  5209.20  5.24
522.1  100773.73  5615.29  5.57
523.5  102095.50  6036.83  5.91
524.9  103536.90  6468.28  6.25
526.3  104927.20  6892.10  6.57
527.8  106385.40  7323.17  6.88
529.2  107473.70  7735.51  7.20
530.6  109039.70  8171.27  7.49
532.0  110698.00  8596.53  7.77
533.4  111993.75  8976.57  8.02
534.8  112875.38  9304.61  8.24
536.3  114423.00  9669.10  8.45
537.7  116323.20  10043.52  8.63
539.1  117716.08  10375.07  8.81
540.5  118885.30  10677.68  8.98
541.9  120611.33  11026.56  9.14
543.3  121896.33  11332.48  9.30
544.7  123199.80  11640.38  9.45
546.1  124994.65  11989.73  9.59
547.5  126212.80  12280.53  9.73
549.0  127842.00  12604.74  9.86
550.4  129316.88  12898.75  9.97
551.8  130857.33  13178.50  10.07
553.2  132330.68  13437.93  10.15
554.6  133650.40  13645.79  10.21
556.0  135139.95  13841.99  10.24
557.4  136723.65  14019.19  10.25
558.8  138348.45  14175.36  10.25
560.2  139782.38  14283.31  10.22
561.6  141425.55  14381.93  10.17
563.0  142983.75  14444.73  10.10
564.4  144566.65  14484.85  10.02
565.8  146061.88  14493.51  9.92
567.2  147791.00  14495.30  9.81
568.6  149259.38  14446.56  9.68
570.0  150664.80  14350.28  9.52
571.4  152346.35  14252.60  9.36
572.8  154070.13  14145.49  9.18
574.2  155668.80  14028.37  9.01
575.6  157196.25  13915.29  8.85
577.0  158708.50  13814.41  8.70
578.4  160398.88  13740.35  8.57
579.8  161900.78  13667.27  8.44
581.2  163577.90  13621.02  8.33
582.5  164970.00  13567.99  8.22
583.9  166474.40  13533.81  8.13
585.3  168237.90  13536.12  8.05
586.7  169708.83  13520.91  7.97
588.1  171156.50  13516.03  7.90
589.5  172774.00  13544.30  7.84
590.9  174368.80  13585.20  7.79
592.3  176151.80  13661.57  7.76
593.7  177589.43  13716.52  7.72
595.0  179165.25  13794.08  7.70
596.4  180600.70  13858.47  7.67
597.8  182056.30  13925.00  7.65
599.2  183559.20  13984.21  7.62
600.6  185284.13  14038.71  7.58
602.0  186553.80  14034.88  7.52
603.3  188317.90  14034.70  7.45
604.7  189959.43  13996.43  7.37
606.1  191419.80  13911.98  7.27
607.5  193028.35  13803.79  7.15
608.9  194704.90  13673.73  7.02
610.2  196054.43  13502.16  6.89
611.6  197627.70  13331.80  6.75
613.0  199164.35  13151.70  6.60
614.4  200528.10  12973.33  6.47
615.8  201956.63  12806.76  6.34
617.1  203477.40  12657.12  6.22
618.5  205068.80  12536.87  6.11
619.9  206576.93  12436.08  6.02
621.3  208170.68  12375.57  5.94
622.6  209733.25  12342.33  5.88
624.0  211170.60  12329.10  5.84
625.4  212631.38  12339.06  5.80
626.8  214159.40  12384.80  5.78
628.1  215419.33  12427.73  5.77
629.5  217171.55  12509.58  5.76
630.9  218645.35  12578.37  5.75
632.2  219911.13  12623.58  5.74
633.6  221409.13  12649.99  5.71
635.0  222826.00  12626.11  5.67
636.3  224294.50  12550.57  5.60
637.7  225649.13  12406.41  5.50
639.1  227255.00  12208.00  5.37
640.4  228714.50  11957.39  5.23
641.8  229906.85  11644.99  5.07
643.2  231422.98  11339.27  4.90
644.5  232760.50  11011.53  4.73
645.9  234315.00  10692.57  4.56
647.2  235251.98  10385.16  4.41
648.6  236702.25  10149.68  4.29
650.0  237988.80  9935.59  4.17
651.3  239046.23  9751.71  4.08
652.7  241287.40  9610.31  3.98
654.0  243404.10  9473.62  3.89
655.4  244762.93  9309.99  3.80
656.8  244933.00  9096.00  3.71
658.1  246295.00  8898.40  3.61
659.5  248460.45  8689.44  3.50
660.8  249750.00  8443.29  3.38
662.2  250745.60  8197.12  3.27
663.5  252222.05  7978.64  3.16
664.9  253199.70  7777.51  3.07
666.2  253968.00  7599.17  2.99
667.6  255643.58  7492.27  2.93
668.9  256559.75  7402.79  2.89
670.3  258453.63  7364.57  2.85
671.6  259437.75  7345.50  2.83
673.0  260610.38  7362.78  2.83
674.3  261862.90  7403.71  2.83
675.7  263156.08  7472.70  2.84
677.0  264255.95  7557.72  2.86
678.4  265555.43  7678.96  2.89
679.7  266612.63  7829.99  2.94
681.1  267880.13  8036.14  3.00
682.4  268979.10  8283.92  3.08
683.8  270172.50  8616.47  3.19
685.1  271164.00  9061.56  3.34
686.4  272482.80  9682.58  3.55
687.8  273697.25  10527.85  3.85
689.1  274809.75  11673.41  4.25
690.5  276134.25  13209.06  4.78
691.8  276936.95  15212.36  5.49
693.1  278300.55  17792.11  6.39
694.5  279461.00  20911.37  7.48
695.8  280735.00  24545.73  8.74
697.1  281895.25  28635.10  10.16
698.5  282932.80  33098.33  11.70
699.8  284004.38  37855.59  13.33
701.1  285138.13  42830.27  15.02
702.5  285934.00  47846.81  16.73
703.8  286875.00  52894.71  18.44
705.1  288026.70  57922.71  20.11
706.5  289062.63  62834.12  21.74
707.8  290013.60  67605.13  23.31
709.1  290827.78  72190.97  24.82
710.5  291944.03  76704.45  26.27
711.8  292776.70  80995.30  27.66
713.1  293735.60  85194.49  29.00
714.4  294649.90  89221.24  30.28
715.8  295475.00  93087.00  31.50
717.1  296763.30  96952.17  32.67
718.4  297718.40  100560.21  33.78
719.7  298760.18  104075.95  34.84
721.0  299295.00  107265.43  35.84
722.4  300050.30  110377.31  36.79
723.7  300995.85  113407.90  37.68
725.0  301992.53  116308.71  38.51
726.3  302933.40  119038.68  39.30
727.6  303458.38  121469.43  40.03
729.0  304352.30  123891.50  40.71
730.3  305127.30  126125.25  41.34
731.6  305996.70  128257.17  41.91
732.9  306764.50  130220.30  42.45
734.2  307544.88  132077.65  42.95
735.5  308553.90  133901.61  43.40
736.8  309332.40  135519.76  43.81
738.1  310150.30  137064.91  44.19
739.5  311083.90  138553.14  44.54
740.8  311762.55  139838.03  44.85
742.1  312462.30  141057.05  45.14
743.4  313100.00  142178.57  45.41
744.7  313957.43  143349.33  45.66
746.0  314821.65  144434.64  45.88
747.3  315386.90  145331.08  46.08
748.6  316107.00  146232.53  46.26
749.9  316784.00  147052.04  46.42
751.2  317382.55  147795.32  46.57
752.5  318140.90  148573.84  46.70
753.8  318610.43  149193.70  46.83
755.1  319254.00  149831.81  46.93
756.4  319804.20  150400.20  47.03
757.7  320774.65  151137.16  47.12
759.0  322515.05  152188.42  47.19
760.3  323637.60  152923.38  47.25
761.6  325158.40  153825.01  47.31
762.9  325627.75  154235.91  47.37
764.2  326001.10  154557.15  47.41
765.5  326245.80  154816.70  47.45
766.8  326590.40  155130.67  47.50
768.1  327073.80  155473.34  47.53
769.3  327597.20  155838.56  47.57
770.6  328216.85  156229.85  47.60
771.9  328858.60  156635.83  47.63
773.2  329184.40  156871.86  47.65
774.5  329758.00  157209.02  47.67
775.8  330361.35  157568.26  47.70
777.1  330852.50  157873.07  47.72
778.4  331119.53  158057.09  47.73
779.6  331820.18  158461.43  47.76
780.9  332250.00  158717.71  47.77
782.2  332659.25  158966.34  47.79
783.5  332907.50  159136.22  47.80
784.8  333341.55  159392.85  47.82
786.0  333678.80  159604.89  47.83
787.3  334012.70  159802.47  47.84
788.6  334385.28  160021.55  47.86
789.9  334783.40  160253.57  47.87
791.2  335327.05  160563.11  47.88
792.4  335949.30  160896.02  47.89
793.7  336371.40  161131.78  47.90
795.0  336897.00  161443.18  47.92
796.2  337492.73  161761.04  47.93
797.5  338082.60  162085.05  47.94
798.8  338688.38  162402.01  47.95
800.0  339269.25  162720.81  47.96
801.3  339664.90  162937.52  47.97
802.6  340160.63  163224.01  47.98
803.8  340783.23  163531.05  47.99
805.1  341183.50  163761.20  48.00
806.4  341566.50  163988.21  48.01
807.7  342081.23  164256.01  48.02
808.9  342565.25  164530.74  48.03
810.2  343017.15  164768.31  48.04
811.4  343456.50  165005.77  48.04
812.7  344012.50  165305.06  48.05
814.0  344795.85  165702.03  48.06
815.2  345356.00  166029.81  48.07
816.5  345767.23  166240.60  48.08
817.7  346228.00  166471.84  48.08
819.0  346644.10  166736.27  48.10
820.2  346808.00  166827.89  48.10
821.5  347466.30  167173.00  48.11
822.7  347802.55  167364.00  48.12
824.0  348059.70  167534.13  48.13
825.2  348474.15  167767.58  48.14
826.5  348842.23  167937.91  48.14
827.7  349381.88  168220.14  48.15
829.0  349748.05  168423.30  48.16
830.2  350056.55  168566.10  48.15
831.5  350548.50  168832.60  48.16
832.7  350822.33  169000.19  48.17
834.0  351212.75  169185.09  48.17
835.2  351549.83  169383.62  48.18
836.4  351843.25  169537.16  48.19
837.7  352245.80  169761.63  48.19
838.9  352700.30  170012.85  48.20
840.1  353069.55  170231.70  48.21
841.4  353462.80  170469.15  48.23
842.6  353909.40  170672.94  48.23
843.8  354295.60  170886.53  48.23
845.1  354853.65  171162.01  48.23
846.3  355191.00  171385.74  48.25
847.5  355534.20  171601.12  48.27
848.8  355968.00  171845.20  48.28
850.0  356415.85  172071.51  48.28
851.2  356969.70  172354.37  48.28
852.5  357379.40  172561.60  48.29
853.7  357896.25  172836.69  48.29
854.9  358328.10  173071.20  48.30
856.1  358785.05  173311.23  48.31
857.4  358997.73  173453.72  48.32
858.6  359520.05  173752.50  48.33
859.8  359986.88  173947.57  48.32
861.0  360406.80  174161.52  48.32
862.2  360847.78  174401.80  48.33
863.5  361279.75  174614.10  48.33
864.7  361838.40  174866.43  48.33
865.9  362155.60  175082.07  48.34
867.1  362519.35  175248.23  48.34
868.3  363022.50  175462.66  48.33
869.5  363498.25  175721.26  48.34
870.8  363987.00  175986.43  48.35
872.0  364510.05  176246.50  48.35
873.2  364960.50  176456.75  48.35
874.4  365417.33  176690.39  48.35
875.6  365848.15  176868.01  48.34
876.8  366312.30  177147.34  48.36
878.0  366853.45  177376.46  48.35
879.2  367296.60  177606.19  48.35
880.4  367782.75  177840.91  48.35
881.6  368239.55  178053.73  48.35
882.8  368764.80  178232.24  48.33
884.0  369328.95  178524.25  48.34
885.2  369830.90  178750.97  48.33
886.5  370415.65  179023.44  48.33
887.7  370812.98  179213.20  48.33
888.8  371489.25  179493.59  48.32
890.0  372018.80  179754.50  48.32
891.2  372457.50  180012.87  48.33
892.4  373068.15  180285.05  48.32
893.6  373548.95  180526.86  48.33
894.8  374480.25  180911.97  48.31
896.0  375264.25  181300.45  48.31
897.2  376099.75  181626.34  48.29
898.4  376770.90  181953.70  48.29
899.6  377274.00  182208.62  48.30
900.8  377632.35  182367.18  48.29
902.0  377747.40  182442.44  48.30
903.2  377992.58  182508.04  48.28
904.3  378303.60  182615.01  48.27
905.5  378917.25  182863.90  48.26
906.7  379430.50  183124.14  48.26
907.9  379995.00  183336.35  48.25
909.1  380102.63  183434.62  48.26
910.2  380262.68  183479.80  48.25
911.4  380522.03  183519.51  48.23
912.6  380573.05  183577.54  48.24
913.8  380642.03  183633.42  48.24
915.0  381097.50  183764.56  48.22
916.2  381264.00  183792.33  48.21
917.3  381185.33  183721.70  48.20
918.5  381323.10  183755.72  48.19
919.7  381495.00  183821.71  48.18
920.8  381382.68  183784.81  48.19
922.0  381342.50  183750.23  48.19
923.2  381517.50  183770.60  48.17
924.4  381776.63  183806.81  48.15
925.5  381896.60  183809.04  48.13
926.7  382419.25  183953.93  48.10
927.9  383190.00  184234.17  48.08
929.0  384650.10  184823.20  48.05
930.2  386507.50  185780.92  48.07
931.4  388885.05  186829.43  48.04
932.5  391375.00  187952.44  48.02
933.7  392736.13  188464.78  47.99
934.9  393356.25  188622.92  47.95
936.0  392915.25  188215.42  47.90
937.2  390792.90  187059.34  47.87
938.3  388790.90  186100.03  47.87
939.5  387298.80  185230.49  47.83
940.7  387290.70  185173.96  47.81
941.8  388917.23  185726.63  47.75
943.0  390406.50  186204.90  47.70
944.2  391053.65  186393.46  47.66
945.3  390321.75  185948.66  47.64
946.5  389373.75  185408.92  47.62
947.6  389409.40  185222.37  47.56
948.8  389214.15  184926.15  47.51
949.9  389470.20  184713.76  47.43
951.1  388817.98  184219.45  47.38
952.2  388620.00  183809.83  47.30
953.4  388179.25  183359.01  47.24
954.5  387925.20  183041.49  47.18
955.7  387702.00  182596.32  47.10
956.8  387426.20  182156.10  47.02
958.0  386960.50  181684.85  46.95
959.1  386666.93  181332.42  46.90
960.3  386358.00  180953.09  46.84
961.4  386069.30  180585.63  46.78
962.6  385997.50  180520.33  46.77
963.7  385896.23  180213.41  46.70
964.9  385323.38  180001.66  46.71
966.0  385248.15  179821.66  46.68
967.2  385130.70  179702.50  46.66
968.3  384502.95  179494.15  46.68
969.5  384415.63  179322.07  46.65
970.6  384581.70  179273.48  46.62
971.8  384761.13  179267.17  46.59
972.9  384661.20  179127.94  46.57
974.0  384887.90  179251.21  46.57
975.2  384789.00  179210.83  46.57
976.3  384338.80  179160.07  46.62
977.5  384225.80  179110.88  46.62
978.6  384496.10  178993.31  46.55
979.7  384800.85  179120.69  46.55
980.9  384639.03  179064.47  46.55
982.0  384439.95  179062.49  46.58
983.2  384215.60  178872.41  46.56
984.3  383379.00  178780.72  46.63
985.4  383595.23  178708.04  46.59
986.6  383214.00  178493.97  46.58
987.7  384160.53  178896.00  46.57
988.9  383995.80  178731.87  46.55
990.0  383497.90  179083.50  46.70
993.1  389287.68  180050.28  46.25
996.9  387734.73  179948.99  46.41
1000.7  387493.46  180413.90  46.56
1004.5  387535.83  180933.23  46.69
1008.4  387141.54  181281.80  46.83
1012.2  386975.25  181706.66  46.96
1016.0  386535.00  181998.73  47.08
1019.8  385735.35  182088.32  47.21
1023.7  384349.08  181824.90  47.31
1027.5  382480.45  181308.23  47.40
1031.3  381282.10  181031.14  47.48
1035.1  380069.90  180735.63  47.55
1038.9  379524.75  180701.07  47.61
1042.7  379242.58  180762.02  47.66
1046.5  379116.33  180863.98  47.71
1050.3  379139.78  181005.37  47.74
1054.2  378821.92  180978.31  47.77
1058.0  378437.03  180887.82  47.80
1061.8  378404.86  180972.10  47.82
1065.6  377699.20  180684.35  47.84
1069.4  376815.80  180300.53  47.85
1073.2  375444.84  179635.35  47.85
1077.0  374742.03  179268.79  47.84
1080.8  375036.46  179311.39  47.81
1084.6  375291.00  179325.84  47.78
1088.4  375708.36  179442.05  47.76
1092.2  375306.75  179114.47  47.72
1096.0  374638.24  178635.34  47.68
1099.8  373893.65  178108.57  47.64
1103.6  372929.85  177464.68  47.59
1107.4  371711.84  176672.10  47.53
1111.2  371401.60  176276.20  47.46
1114.9  370920.08  175735.18  47.38
1118.7  370668.38  175235.22  47.28
1122.5  370357.00  174598.79  47.14
1126.3  369457.84  173549.98  46.97
1130.1  369087.46  172457.39  46.73
1133.9  367417.40  170432.28  46.39
1137.7  365865.20  168164.89  45.96
1141.4  363782.90  165423.87  45.47
1145.2  362819.61  163052.59  44.94
1149.0  361536.88  160678.73  44.44
1152.8  359731.15  158344.77  44.02
1156.6  357874.18  156395.09  43.70
1160.3  356069.67  154844.97  43.49
1164.1  353758.20  153362.00  43.35
1167.9  352163.54  152393.25  43.27
1171.7  350854.88  151663.50  43.23
1175.4  349344.13  150884.26  43.19
1179.2  347931.53  150114.84  43.14
1183.0  347616.00  149794.22  43.09
1186.7  347726.17  149649.08  43.04
1190.5  347464.40  149416.69  43.00
1194.3  346559.53  148947.06  42.98
1198.0  345045.53  148303.81  42.98
1201.8  343326.05  147623.49  43.00
1205.6  342258.33  147321.66  43.04
1209.3  341742.70  147310.02  43.11
1213.1  341337.90  147380.02  43.18
1216.8  340736.73  147459.13  43.28
1220.6  339621.33  147326.34  43.38
1224.3  338343.92  147116.79  43.48
1228.1  336803.40  146826.90  43.59
1231.9  335163.43  146423.35  43.69
1235.6  333390.75  145930.21  43.77
1239.4  331823.00  145510.32  43.85
1243.1  330443.08  145096.82  43.91
1246.9  329178.21  144715.29  43.96
1250.6  328126.20  144391.51  44.00
1254.3  326924.31  143975.35  44.04
1258.1  325679.32  143496.70  44.06
1261.8  324216.27  142902.28  44.08
1265.6  323132.58  142409.47  44.07
1269.3  322488.95  142052.60  44.05
1273.1  322832.78  142123.04  44.02
1276.8  322489.60  141815.75  43.98
1280.6  321179.47  141064.82  43.92
1284.3  319111.20  139912.31  43.84
1288.0  317930.63  139068.63  43.74
1291.8  317589.55  138492.69  43.61
1295.5  316971.60  137724.12  43.45
1299.2  315828.14  136664.45  43.27
1302.9  314148.93  135282.13  43.06
1306.7  312350.50  133732.98  42.82
1310.4  310570.37  132051.86  42.52
1314.1  308943.98  130332.68  42.19
1317.9  307512.50  128535.52  41.80
1321.6  305960.17  126555.02  41.36
1325.3  304271.63  124385.83  40.88
1329.0  302976.80  122296.51  40.36
1332.8  301070.00  119842.07  39.81
1336.5  299425.13  117484.76  39.24
1340.2  299299.00  115741.17  38.67
1343.9  299269.58  114063.47  38.11
1347.6  299467.35  112514.01  37.57
1351.4  301056.50  111546.86  37.05
1355.1  303240.30  110821.65  36.55
1358.8  305088.00  109883.43  36.02
1362.5  305432.53  108240.02  35.44
1366.2  303474.65  105481.29  34.76
1369.9  300180.38  101917.50  33.95
1373.6  297228.28  97958.72  32.96
1377.3  295724.10  93746.15  31.70
1381.0  295251.83  89005.71  30.15
1384.8  293328.75  82917.05  28.27
1388.4  290017.58  75993.39  26.20
1392.2  287698.67  69115.70  24.02
1395.9  286238.55  62536.93  21.85
1399.6  284431.22  56404.90  19.83
1403.3  282972.39  51078.76  18.05
1407.0  281234.10  46559.97  16.56
1410.7  279375.53  42910.93  15.36
1414.3  277438.70  40034.20  14.43
1418.1  275693.46  37891.05  13.74
1421.7  274262.98  36312.02  13.24
1425.4  272857.33  35168.87  12.89
1429.1  271584.00  34381.92  12.66
1432.8  269892.37  33801.24  12.52
1436.5  269087.67  33526.70  12.46
1440.2  268509.43  33415.70  12.44
1443.9  267432.64  33347.66  12.47
1447.6  265865.60  33297.24  12.52
1451.2  264617.83  33329.82  12.60
1454.9  263155.50  33386.51  12.69
1458.6  261900.78  33582.07  12.82
1462.3  260708.07  33906.85  13.01
1466.0  259330.46  34366.78  13.25
1469.7  257621.65  34942.94  13.56
1473.3  256527.67  35741.03  13.93
1477.0  254473.97  36504.37  14.35
1480.7  252775.36  37377.84  14.79
1484.4  250741.01  38216.25  15.24
1488.0  249157.33  39153.95  15.71
1491.7  247562.22  40091.88  16.19
1495.4  245919.37  41023.07  16.68
1499.0  244368.50  41948.96  17.17
1502.7  243093.83  42908.58  17.65
1506.4  241679.47  43817.76  18.13
1510.0  240225.03  44687.63  18.60
1513.7  238713.71  45514.65  19.07
1517.4  237317.00  46331.25  19.52
1521.0  236042.00  47140.24  19.97
1524.7  234783.25  47890.04  20.40
1528.3  233500.38  48593.36  20.81
1532.0  232261.52  49264.93  21.21
1535.7  230854.66  49849.00  21.59
1539.3  229563.22  50429.06  21.97
1543.0  228587.98  51044.59  22.33
1546.6  227868.33  51690.53  22.68
1550.3  226851.30  52228.53  23.02
1553.9  225782.30  52719.67  23.35
1557.6  224521.73  53132.89  23.66
1561.2  223227.90  53498.03  23.97
1564.9  221885.78  53831.93  24.26
1568.5  220550.63  54132.66  24.54
1572.2  219404.80  54450.89  24.82
1575.8  218302.00  54768.22  25.09
1579.5  217264.95  55074.85  25.35
1583.1  216177.23  55355.83  25.61
1586.8  214844.00  55543.11  25.85
1590.4  213615.40  55739.96  26.09
1594.0  212278.95  55894.22  26.33
1597.7  211498.25  56186.66  26.57
1601.3  210612.15  56426.63  26.79
1604.9  209655.82  56618.53  27.01
1608.6  208267.77  56674.45  27.21
1612.2  206854.73  56686.60  27.40
1615.8  205404.55  56661.97  27.59
1619.5  204101.83  56659.61  27.76
1623.1  202754.10  56608.01  27.92
1626.7  201519.50  56563.48  28.07
1630.3  200316.50  56502.99  28.21
1634.0  199192.00  56423.33  28.33
1637.6  198185.27  56339.24  28.43
1641.2  197149.60  56184.39  28.50
1644.8  195908.32  55921.85  28.54
1648.5  194803.20  55655.15  28.57
1652.1  193832.70  55368.02  28.56
1655.7  192907.00  55062.41  28.54
1659.3  192071.95  54782.41  28.52
1662.9  190626.67  54341.31  28.51
1666.6  189168.53  53910.39  28.50
1670.2  187734.98  53464.74  28.48
1673.8  186243.08  52983.78  28.45
1677.4  185038.50  52549.23  28.40
1681.0  184213.60  52160.16  28.32
1684.6  183801.58  51827.34  28.20
1688.2  183115.15  51356.19  28.05
1691.8  182427.50  50901.24  27.90
1695.4  181973.00  50495.65  27.75
1699.0  181588.87  50085.74  27.58
1702.6  181230.67  49656.58  27.40
1706.2  180594.05  49127.16  27.20
1709.8  179639.89  48516.44  27.01
1713.4  178864.43  47961.01  26.81
1717.0  177958.75  47393.62  26.63
1720.6  177107.93  46847.07  26.45
1724.2  176368.73  46337.39  26.27
1727.8  175648.55  45861.41  26.11
1731.4  175177.75  45477.75  25.96
1735.0  175022.10  45199.06  25.82
1738.6  174816.75  44859.93  25.66
1742.2  174298.16  44391.50  25.47
1745.8  173691.17  43869.26  25.26
1749.4  172738.50  43236.88  25.03
1753.0  171223.93  42455.56  24.80
1756.6  169547.00  41645.98  24.56
1760.1  168218.89  40947.66  24.34
1763.7  166458.67  40178.93  24.14
1767.3  164982.60  39529.67  23.96
1770.9  163683.68  38951.21  23.80
1774.5  162179.01  38363.58  23.66
1778.0  161016.48  37884.88  23.53
1781.6  159923.40  37466.19  23.43
1785.2  158754.15  37064.53  23.35
1788.8  157568.50  36703.07  23.29
1792.3  156294.00  36350.36  23.26
1795.9  155737.73  36191.24  23.24
1799.5  155570.00  36152.45  23.24
1803.1  156764.88  36431.41  23.24
1806.6  159061.58  36970.64  23.24
1810.2  160879.37  37383.96  23.24
1813.8  161597.30  37558.23  23.24
1817.3  160987.60  37407.91  23.24
1820.9  159629.83  37075.20  23.23
1824.5  158155.20  36689.69  23.20
1828.0  156961.29  36334.14  23.15
1831.6  156483.03  36103.74  23.07
1835.2  156244.17  35864.38  22.95
1838.7  156029.87  35546.69  22.78
1842.3  155835.00  35129.52  22.54
1845.8  154629.33  34359.65  22.22
1849.4  154007.20  33563.06  21.79
1852.9  153135.33  32528.78  21.24
1856.5  152092.98  31231.80  20.53
1860.0  151031.73  29697.63  19.66
1863.6  150973.20  28113.59  18.62
1867.1  151623.15  26375.07  17.40
1870.7  152553.83  24334.44  15.95
1874.2  151566.75  21703.64  14.32
1877.8  148878.27  18800.82  12.63
1881.3  145833.75  15934.13  10.93
1884.9  143882.66  13424.35  9.33
1888.4  142269.09  11211.15  7.88
1891.9  140578.93  9378.50  6.67
1895.5  139094.20  7988.85  5.74
1899.0  138329.88  7025.41  5.08
1901.3  177433.67  5760.83  3.25
1904.1  177342.75  5138.50  2.90
1906.8  176193.60  4624.80  2.62
1909.6  173950.00  4249.35  2.44
1912.4  171849.07  3973.86  2.31
1915.1  170309.15  3757.97  2.21
1917.9  168746.67  3603.44  2.14
1920.6  167446.13  3509.04  2.10
1923.3  166080.83  3423.78  2.06
1926.1  164368.43  3372.78  2.05
1928.8  162756.00  3348.89  2.06
1931.6  161503.02  3339.03  2.07
1934.3  160370.13  3341.04  2.08
1937.0  159290.23  3376.40  2.12
1939.8  158077.75  3420.94  2.16
1942.5  156519.00  3472.33  2.22
1945.2  154513.70  3511.20  2.27
1947.9  152837.77  3575.21  2.34
1950.7  151529.83  3649.48  2.41
1953.4  149629.40  3730.87  2.49
1956.1  148143.00  3823.17  2.58
1958.8  146839.98  3931.63  2.68
1961.5  145286.40  4041.87  2.78
1964.2  143707.20  4152.63  2.89
1966.9  142057.85  4265.57  3.00
1969.6  140751.00  4392.00  3.12
1972.3  139311.70  4530.10  3.25
1975.0  138237.00  4681.65  3.39
1977.7  137090.35  4837.41  3.53
1980.4  135918.40  4999.92  3.68
1983.1  134794.53  5166.08  3.83
1985.8  133832.10  5338.90  3.99
1988.4  132773.33  5517.78  4.16
1991.1  131831.00  5706.64  4.33
1993.8  130956.10  5882.31  4.49
1996.5  130301.23  6080.49  4.67
1999.1  129577.43  6272.93  4.84
2001.8  128878.40  6463.49  5.02
2004.5  128184.35  6660.50  5.20
2007.1  127449.10  6845.03  5.37
2009.8  126668.27  7024.66  5.55
2012.4  126061.83  7200.66  5.71
2015.1  125502.77  7384.38  5.88
2017.8  124699.87  7545.53  6.05
2020.4  124166.17  7711.91  6.21
2023.1  123802.00  7873.60  6.36
2025.7  123560.67  8048.44  6.51
2028.3  123222.67  8216.00  6.67
2031.0  122808.38  8364.94  6.81
2033.6  122522.10  8499.90  6.94
2036.2  122252.40  8633.30  7.06
2038.9  121634.70  8731.90  7.18
2041.5  121266.27  8850.32  7.30
2044.1  120695.10  8940.70  7.41
2046.8  120321.00  9042.20  7.52
2049.4  119668.50  9108.90  7.61
2052.0  119367.20  9204.94  7.71
2054.6  118956.25  9286.67  7.81
2057.2  118371.60  9365.04  7.91
2059.8  118013.53  9458.20  8.01
2062.4  117125.85  9504.07  8.11
2065.0  116598.73  9574.64  8.21
2067.6  115678.88  9611.58  8.31
2070.2  115051.28  9672.59  8.41
2072.8  114397.53  9730.70  8.51
2075.4  113960.00  9802.92  8.60
2078.0  113322.57  9857.83  8.70
2080.6  112745.60  9923.47  8.80
2083.2  112038.00  9961.85  8.89
2085.8  111539.55  10021.78  8.98
2088.4  110858.33  10061.17  9.08
2090.9  110040.82  10092.14  9.17
2093.5  109136.23  10110.89  9.26
2096.1  108342.42  10138.90  9.36
2098.7  107569.48  10162.32  9.45
2101.2  106581.60  10180.16  9.55
2103.8  105891.67  10212.18  9.64
2106.4  105201.73  10241.29  9.73
2108.9  104546.73  10270.40  9.82
2111.5  103690.87  10282.05  9.92
2114.0  103027.13  10311.16  10.01
2116.6  102488.75  10345.42  10.09
2119.1  101912.50  10376.81  10.18
2121.7  101421.25  10406.67  10.26
2124.2  101009.53  10446.94  10.34
2126.8  100182.70  10452.17  10.43
2129.3  99774.40  10477.87  10.50
2131.9  99176.00  10495.47  10.58
2134.4  98739.45  10519.70  10.65
2136.9  98329.62  10547.48  10.73
2139.4  97799.33  10557.25  10.79
2142.0  97329.40  10583.84  10.87
2144.5  97036.70  10626.60  10.95
2147.0  96792.67  10675.34  11.03
2149.5  96301.33  10699.16  11.11
2152.1  96130.65  10747.06  11.18
2154.6  96052.27  10798.40  11.24
2157.1  95511.25  10791.00  11.30
2159.6  95084.33  10803.11  11.36
2162.1  94903.90  10844.17  11.43
2164.6  94648.73  10874.75  11.49
2167.1  94322.02  10885.31  11.54
2169.6  93982.35  10906.39  11.60
2172.1  93515.20  10895.34  11.65
2174.6  93176.33  10909.95  11.71
2177.1  92740.50  10911.01  11.77
2179.5  92309.53  10916.03  11.83
2182.0  91807.65  10914.57  11.89
2184.5  91252.92  10897.18  11.94
2187.0  90644.90  10867.20  11.99
2189.5  89958.90  10845.77  12.06
2191.9  89138.50  10798.33  12.11
2194.4  88499.85  10769.22  12.17
2196.9  87734.40  10729.60  12.23
2199.3  87048.33  10691.33  12.28
2201.8  86169.20  10628.80  12.33
2204.3  85679.87  10595.46  12.37
2206.7  84995.65  10546.07  12.41
2209.2  84512.38  10519.16  12.45
2211.6  83892.60  10454.40  12.46
2214.1  83599.90  10430.92  12.48
2216.5  83022.80  10367.09  12.49
2219.0  82675.13  10333.98  12.50
2221.4  82288.50  10280.28  12.49
2223.9  81812.50  10210.86  12.48
2226.3  81286.92  10121.61  12.45
2228.7  80707.30  10008.52  12.40
2231.1  80110.80  9883.50  12.34
2233.6  79506.40  9744.60  12.26
2236.0  78946.58  9596.03  12.16
2238.4  78421.00  9453.89  12.06
2240.9  77966.73  9300.91  11.93
2243.3  77410.47  9138.67  11.81
2245.7  76823.95  8961.63  11.67
2248.1  76324.73  8790.60  11.52
2250.5  75783.48  8622.27  11.38
2252.9  75138.70  8438.45  11.23
2255.3  74595.15  8261.82  11.08
2257.7  74130.00  8096.67  10.92
2260.1  73614.57  7929.68  10.77
2262.5  72990.00  7760.00  10.63
2264.9  72429.08  7617.29  10.52
2267.3  71810.00  7453.33  10.38
2269.7  71306.90  7310.96  10.25
2272.1  70737.70  7165.25  10.13
2274.5  70172.85  7028.26  10.02
2276.8  69675.93  6914.84  9.92
2279.2  69083.70  6790.45  9.83
2281.6  68644.60  6687.62  9.74
2284.0  68175.00  6578.47  9.65
2286.3  67690.67  6471.82  9.56
2288.7  67271.10  6367.98  9.47
2291.1  66711.10  6249.16  9.37
2293.4  66271.33  6129.20  9.25
2295.8  65652.20  6004.90  9.15
2298.2  65039.40  5875.35  9.03
2300.5  64345.95  5747.70  8.93
2302.9  63581.00  5611.00  8.82
2305.2  62830.00  5489.90  8.74
2307.6  62147.60  5364.67  8.63
2309.9  61369.67  5245.89  8.55
2312.2  60770.33  5152.89  8.48
2314.6  60154.20  5068.05  8.43
2316.9  59460.75  4971.45  8.36
2319.2  58872.30  4889.61  8.31
2321.6  58229.73  4793.64  8.23
2323.9  57666.67  4708.33  8.16
2326.2  57122.50  4621.97  8.09
2328.6  56597.20  4545.75  8.03
2330.9  56091.00  4459.00  7.95
2333.2  55604.83  4374.44  7.87
2335.5  55147.80  4290.70  7.78
2337.8  54693.07  4216.28  7.71
2340.1  54089.20  4130.02  7.64
2342.4  53646.67  4040.83  7.53
2344.8  53218.75  3962.75  7.45
2347.1  52661.93  3889.51  7.39
2349.4  52097.82  3819.11  7.33
2351.6  51491.90  3734.65  7.25
2353.9  50985.03  3663.07  7.18
2356.2  50458.55  3594.39  7.12
2358.5  49862.40  3513.07  7.05
2360.8  49268.80  3442.13  6.99
2363.1  48826.15  3376.22  6.91
2365.4  48341.40  3307.13  6.84
2367.7  47868.60  3226.20  6.74
2369.9  47322.85  3160.20  6.68
2372.2  46692.27  3084.53  6.61
2374.5  46107.60  3006.85  6.52
2376.7  45467.63  2923.53  6.43
2379.0  44834.87  2850.17  6.36
2381.3  44205.00  2772.78  6.27
2383.5  43671.47  2710.40  6.21
2385.8  43066.00  2639.65  6.13
2388.0  42527.20  2564.53  6.03
2390.3  41996.13  2488.05  5.92
2392.5  41496.00  2420.00  5.83
2394.8  41019.00  2359.50  5.75
2397.0  40549.60  2297.25  5.67
2399.3  40070.98  2233.61  5.57
2401.5  39628.75  2176.42  5.49
2403.8  39093.10  2106.15  5.39
2406.0  38578.58  2048.75  5.31
2408.2  38172.93  1986.36  5.20
2410.4  37737.12  1943.24  5.15
2412.7  37310.43  1880.81  5.04
2414.9  36925.35  1821.60  4.93
2417.1  36537.90  1769.53  4.84
2419.3  36134.40  1710.93  4.73
2421.6  35727.50  1666.25  4.66
2423.8  35321.20  1616.51  4.58
2426.0  34938.15  1570.98  4.50
2428.2  34574.40  1520.09  4.40
2430.4  34274.33  1486.54  4.34
2432.6  34000.00  1453.33  4.27
2434.8  33697.37  1407.96  4.18
2437.0  33341.53  1361.24  4.08
2439.2  32967.15  1320.13  4.00
2441.4  32624.57  1272.44  3.90
2443.6  32386.27  1243.50  3.84
2445.7  32139.92  1207.85  3.76
2447.9  31869.17  1173.64  3.68
2450.1  31556.30  1128.68  3.58
2452.3  31169.60  1101.10  3.53
2454.5  30792.02  1063.75  3.45
2456.6  30416.53  1027.20  3.38
2458.8  30044.30  1010.53  3.36
2461.0  29741.58  975.53  3.28
2463.1  29449.20  950.60  3.23
2465.3  29164.23  921.90  3.16
2467.5  28895.25  894.83  3.10
2469.6  28625.08  870.14  3.04
2471.8  28321.43  850.94  3.00
2473.9  28009.75  824.56  2.94
2476.1  27664.00  793.72  2.87
2478.2  27298.13  771.82  2.83
2480.4  27000.65  757.27  2.80
2482.5  26677.78  753.52  2.82
2484.6  26351.42  722.03  2.74
2486.8  26077.70  711.73  2.73
2488.9  25726.83  689.21  2.68
2491.1  25386.67  676.98  2.67
2493.2  25003.80  659.95  2.64
2495.3  24611.17  630.65  2.56
2497.4  24262.70  633.27  2.61
2499.5  23918.97  620.36  2.59
2501.7  23795.47  597.08  2.51
2503.8  23687.52  601.80  2.54
2505.9  23626.25  603.61  2.55
2508.0  23629.98  601.41  2.55
2510.1  23641.77  584.19  2.47
2512.2  23763.25  574.97  2.42
2514.3  23937.98  588.48  2.46
2516.4  24191.60  630.40  2.61
