/*** Spectra Vista SIG Data ***/
name= 6_20220926_BENI_QUPA_26_avg.sig
comm= Averaged Ref/Tar of files: HR.092622.0015_moc.sig,HR.092622.0016_moc.sig,HR.092622.0017_moc.sig
data=
337.3  6116.78  420.20  6.87
338.8  6253.00  403.12  6.45
340.3  6616.75  383.50  5.80
341.8  6895.10  377.59  5.48
343.2  7283.65  363.76  4.99
344.7  7642.88  368.86  4.83
346.2  7978.25  368.95  4.62
347.7  8310.75  349.77  4.21
349.2  8618.40  341.28  3.96
350.6  8985.15  336.73  3.75
352.1  9409.75  344.99  3.67
353.6  9976.00  333.52  3.34
355.1  10444.43  335.79  3.22
356.6  11062.75  345.21  3.12
358.0  11588.48  350.40  3.02
359.5  12012.08  357.14  2.97
361.0  12690.20  368.79  2.91
362.5  13265.25  381.20  2.87
364.0  13974.03  377.71  2.70
365.4  14661.13  387.28  2.64
366.9  15277.35  398.83  2.61
368.4  15928.10  414.36  2.60
369.9  16642.00  421.48  2.53
371.3  17543.35  445.22  2.54
372.8  18286.40  464.09  2.54
374.3  19093.80  471.40  2.47
375.8  19915.03  485.49  2.44
377.2  20638.80  485.88  2.35
378.7  21491.40  489.63  2.28
380.2  22302.68  496.62  2.23
381.7  23210.00  510.92  2.20
383.1  24200.78  517.21  2.14
384.6  25130.85  531.26  2.11
386.1  26046.15  555.37  2.13
387.6  26970.98  565.81  2.10
389.0  27994.95  576.18  2.06
390.5  28977.93  599.03  2.07
392.0  30066.75  609.66  2.03
393.4  31133.25  620.42  1.99
394.9  32117.90  646.19  2.01
396.4  33294.80  668.88  2.01
397.9  34368.60  678.50  1.97
399.3  35316.70  698.54  1.98
400.8  36506.25  714.83  1.96
402.2  37705.80  738.71  1.96
403.7  38921.55  758.80  1.95
405.2  40060.90  787.21  1.97
406.6  41313.60  803.32  1.94
408.1  42352.05  823.90  1.95
409.6  43544.95  846.54  1.94
411.0  44805.48  859.77  1.92
412.5  46145.90  895.58  1.94
414.0  47471.38  922.76  1.94
415.4  48762.00  959.76  1.97
416.9  50058.35  983.51  1.96
418.4  51399.88  1004.30  1.95
419.8  52742.20  1029.19  1.95
421.3  54227.25  1057.65  1.95
422.7  55668.60  1088.04  1.95
424.2  57159.60  1129.02  1.98
425.7  58537.88  1165.91  1.99
427.1  60049.20  1197.88  1.99
428.6  61521.23  1230.45  2.00
430.0  63057.78  1257.99  1.99
431.5  64705.23  1296.12  2.00
432.9  66312.38  1333.63  2.01
434.4  68009.43  1377.28  2.03
435.9  69674.10  1418.75  2.04
437.3  71355.00  1452.97  2.04
438.8  72965.68  1488.92  2.04
440.2  74652.73  1529.49  2.05
441.7  76530.60  1576.49  2.06
443.1  78335.10  1623.52  2.07
444.6  80102.98  1666.63  2.08
446.0  81920.03  1705.82  2.08
447.5  83825.00  1748.10  2.09
448.9  85592.45  1790.80  2.09
450.4  87450.00  1835.48  2.10
451.8  89269.13  1879.11  2.10
453.3  91116.38  1924.99  2.11
454.7  92928.38  1969.59  2.12
456.2  94713.85  2013.34  2.13
457.6  96597.90  2056.40  2.13
459.1  98423.85  2093.53  2.13
460.5  100278.48  2140.53  2.13
462.0  102312.00  2182.95  2.13
463.4  104299.48  2231.78  2.14
464.8  106243.20  2276.90  2.14
466.3  108218.78  2322.78  2.15
467.7  110241.60  2366.40  2.15
469.2  112102.35  2409.11  2.15
470.6  114142.00  2456.49  2.15
472.0  116200.30  2504.50  2.16
473.5  118209.85  2549.30  2.16
474.9  120365.95  2602.82  2.16
476.4  122459.00  2648.15  2.16
477.8  124544.00  2695.47  2.16
479.2  126673.00  2741.12  2.16
480.7  128824.88  2795.64  2.17
482.1  131024.10  2846.22  2.17
483.6  133250.40  2905.59  2.18
485.0  135510.90  2958.16  2.18
486.4  137623.65  3012.85  2.19
487.9  139894.00  3074.14  2.20
489.3  142068.15  3136.77  2.21
490.7  144298.40  3200.76  2.22
492.2  146556.88  3261.78  2.23
493.6  148829.70  3335.36  2.24
495.0  151158.15  3407.27  2.25
496.5  153345.15  3487.59  2.27
497.9  155636.88  3577.68  2.30
499.3  157963.63  3674.16  2.33
500.7  160291.20  3774.41  2.35
502.2  162688.90  3890.75  2.39
503.6  164998.20  4015.41  2.43
505.0  167315.78  4157.03  2.48
506.5  169786.85  4315.94  2.54
507.9  172222.05  4492.42  2.61
509.3  174564.68  4699.09  2.69
510.7  177255.98  4941.93  2.79
512.2  179879.25  5218.80  2.90
513.6  182763.20  5539.46  3.03
515.0  185511.20  5902.94  3.18
516.4  188347.60  6320.01  3.36
517.8  191158.75  6795.63  3.55
519.3  194072.00  7330.01  3.78
520.7  196746.00  7914.49  4.02
522.1  199453.15  8538.75  4.28
523.5  202019.08  9206.60  4.56
524.9  204899.25  9906.09  4.83
526.3  207534.83  10598.73  5.11
527.8  210279.25  11310.15  5.38
529.2  212889.60  12032.64  5.65
530.6  215806.50  12764.91  5.91
532.0  218740.28  13461.04  6.15
533.4  221150.55  14079.66  6.37
534.8  223551.08  14651.55  6.55
536.3  226568.25  15216.59  6.72
537.7  229671.75  15764.81  6.86
539.1  232599.90  16271.29  7.00
540.5  235406.25  16748.41  7.11
541.9  238291.58  17225.44  7.23
543.3  240817.70  17668.18  7.34
544.7  243694.00  18129.68  7.44
546.1  246468.60  18577.06  7.54
547.5  249415.20  19026.51  7.63
549.0  252555.60  19456.15  7.70
550.4  255425.63  19831.70  7.76
551.8  258303.50  20160.11  7.80
553.2  261165.38  20433.43  7.82
554.6  263998.35  20628.01  7.81
556.0  266931.00  20765.48  7.78
557.4  270003.20  20835.87  7.72
558.8  272852.95  20835.67  7.64
560.2  276000.00  20791.43  7.53
561.6  278901.98  20677.63  7.41
563.0  281676.85  20492.55  7.28
564.4  284809.00  20292.27  7.12
565.8  287813.30  20031.65  6.96
567.2  290959.28  19730.06  6.78
568.6  293975.33  19377.15  6.59
570.0  296827.38  18978.90  6.39
571.4  300211.53  18587.46  6.19
572.8  303302.20  18190.41  6.00
574.2  306171.60  17798.72  5.81
575.6  309172.63  17442.93  5.64
577.0  312209.98  17125.72  5.49
578.4  315612.50  16863.54  5.34
579.8  318652.63  16626.68  5.22
581.2  321690.50  16419.86  5.10
582.5  324562.50  16236.21  5.00
583.9  327606.40  16085.65  4.91
585.3  330469.90  15956.28  4.83
586.7  333471.60  15851.66  4.75
588.1  336405.40  15777.87  4.69
589.5  339732.30  15744.86  4.63
590.9  342674.98  15718.60  4.59
592.3  345620.70  15718.68  4.55
593.7  348577.25  15735.27  4.51
595.0  351509.40  15767.19  4.49
596.4  354792.13  15815.53  4.46
597.8  357449.10  15839.06  4.43
599.2  360578.40  15866.44  4.40
600.6  363753.23  15875.50  4.36
602.0  366721.20  15844.15  4.32
603.3  369590.00  15769.12  4.27
604.7  372604.80  15677.56  4.21
606.1  375627.30  15547.38  4.14
607.5  378960.50  15404.80  4.07
608.9  382016.25  15233.94  3.99
610.2  385206.53  15051.02  3.91
611.6  388107.50  14851.31  3.83
613.0  390922.50  14657.29  3.75
614.4  393686.65  14475.26  3.68
615.8  396968.70  14323.51  3.61
617.1  399666.00  14183.47  3.55
618.5  402924.38  14083.64  3.50
619.9  405626.70  14002.48  3.45
621.3  408594.55  13945.43  3.41
622.6  411547.50  13917.15  3.38
624.0  414276.00  13911.34  3.36
625.4  417380.85  13944.49  3.34
626.8  420368.00  13996.85  3.33
628.1  423203.90  14047.76  3.32
629.5  425997.08  14121.92  3.32
630.9  428881.00  14198.05  3.31
632.2  431977.08  14283.37  3.31
633.6  434438.88  14321.08  3.30
635.0  437413.38  14352.92  3.28
636.3  440464.48  14354.03  3.26
637.7  443155.85  14294.52  3.23
639.1  446215.00  14212.74  3.19
640.4  448945.38  14075.22  3.14
641.8  451782.00  13924.61  3.08
643.2  454401.60  13746.95  3.03
644.5  457275.00  13580.00  2.97
645.9  459974.20  13414.82  2.92
647.2  462929.78  13269.76  2.87
648.6  465716.40  13150.24  2.82
650.0  468441.00  13042.58  2.78
651.3  470949.00  12953.71  2.75
652.7  474448.50  12898.24  2.72
654.0  477482.65  12830.09  2.69
655.4  479760.75  12742.16  2.66
656.8  481285.88  12619.32  2.62
658.1  483813.23  12515.16  2.59
659.5  487209.60  12402.93  2.55
660.8  490554.75  12324.19  2.51
662.2  493208.25  12215.64  2.48
663.5  495990.68  12127.49  2.45
664.9  497995.95  12069.88  2.42
666.2  500085.95  12023.18  2.40
667.6  502611.75  12029.44  2.39
668.9  505440.00  12067.61  2.39
670.3  508283.13  12112.80  2.38
671.6  510580.80  12187.78  2.39
673.0  512912.80  12291.96  2.40
674.3  515399.50  12424.28  2.41
675.7  517963.50  12586.87  2.43
677.0  520338.68  12753.56  2.45
678.4  522562.60  12944.55  2.48
679.7  524983.43  13178.63  2.51
681.1  527538.80  13447.66  2.55
682.4  529772.25  13752.91  2.60
683.8  532187.63  14117.33  2.65
685.1  534445.50  14543.37  2.72
686.4  536657.88  15052.49  2.80
687.8  539198.63  15706.03  2.91
689.1  541606.80  16533.85  3.05
690.5  543595.10  17621.55  3.24
691.8  546379.63  19110.49  3.50
693.1  548839.50  21082.17  3.84
694.5  551188.10  23637.54  4.29
695.8  553591.60  26863.01  4.85
697.1  555864.00  30830.14  5.55
698.5  558225.50  35595.92  6.38
699.8  560652.40  41149.68  7.34
701.1  562553.25  47383.04  8.42
702.5  564655.75  54255.52  9.61
703.8  567124.25  61685.31  10.88
705.1  568975.90  69429.58  12.20
706.5  571303.73  77511.62  13.57
707.8  573222.08  85725.88  14.96
709.1  575545.43  94110.02  16.35
710.5  577782.73  102554.39  17.75
711.8  579726.00  110952.29  19.14
713.1  581704.00  119353.26  20.52
714.4  583849.25  127726.88  21.88
715.8  586164.60  136051.37  23.21
717.1  588479.70  144259.08  24.51
718.4  590747.03  152301.63  25.78
719.7  593011.80  160178.28  27.01
721.0  594769.13  167722.97  28.20
722.4  596608.20  175055.62  29.34
723.7  598640.20  182182.13  30.43
725.0  600390.68  188974.40  31.48
726.3  602755.40  195675.50  32.46
727.6  604543.50  201912.75  33.40
729.0  606475.80  207890.96  34.28
730.3  608518.18  213611.18  35.10
731.6  610056.30  218854.57  35.87
732.9  612030.90  223991.42  36.60
734.2  613742.25  228733.65  37.27
735.5  615635.90  233261.94  37.89
736.8  617655.50  237626.64  38.47
738.1  619588.05  241649.20  39.00
739.5  621336.30  245413.46  39.50
740.8  623327.65  249005.74  39.95
742.1  624926.10  252284.22  40.37
743.4  626806.60  255451.88  40.75
744.7  628817.00  258482.00  41.11
746.0  630422.83  261139.71  41.42
747.3  632034.90  263650.45  41.71
748.6  633645.25  265982.70  41.98
749.9  635515.18  268278.76  42.21
751.2  636830.68  270234.50  42.43
752.5  638512.85  272168.63  42.63
753.8  639947.25  273872.29  42.80
755.1  641569.80  275562.84  42.95
756.4  642812.38  276948.53  43.08
757.7  644789.75  278625.42  43.21
759.0  648489.60  280912.25  43.32
760.3  651334.25  282714.44  43.41
761.6  654203.08  284527.74  43.49
762.9  655789.75  285654.73  43.56
764.2  656612.25  286453.05  43.63
765.5  657618.43  287252.79  43.68
766.8  658209.60  287860.40  43.73
768.1  659414.70  288639.09  43.77
769.3  660761.25  289483.56  43.81
770.6  662194.05  290362.22  43.85
771.9  663433.45  291127.50  43.88
773.2  664954.88  291986.29  43.91
774.5  666028.80  292590.79  43.93
775.8  667282.05  293242.88  43.95
777.1  668561.10  293941.61  43.97
778.4  669948.25  294677.79  43.99
779.6  671337.00  295409.34  44.00
780.9  672166.35  295875.01  44.02
782.2  673210.58  296442.00  44.03
783.5  674219.00  296980.83  44.05
784.8  675173.63  297448.65  44.06
786.0  676095.98  297937.42  44.07
787.3  677006.48  298418.90  44.08
788.6  678078.63  298942.58  44.09
789.9  678829.80  299377.65  44.10
791.2  680257.90  300094.39  44.11
792.4  681535.25  300698.28  44.12
793.7  683294.70  301471.79  44.12
795.0  684400.25  302030.26  44.13
796.2  685870.10  302705.80  44.13
797.5  687176.88  303343.76  44.14
798.8  688692.38  304070.34  44.15
800.0  689850.00  304657.33  44.16
801.3  691243.88  305278.88  44.16
802.6  692424.00  305821.03  44.17
803.8  693627.38  306387.28  44.17
805.1  694646.63  306919.67  44.18
806.4  695722.85  307448.09  44.19
807.7  696952.65  307994.04  44.19
808.9  698214.10  308587.43  44.20
810.2  699222.30  309035.10  44.20
811.4  700374.40  309585.69  44.20
812.7  701721.80  310243.87  44.21
814.0  703071.60  310880.57  44.22
815.2  704481.30  311568.86  44.23
816.5  705648.13  312117.75  44.23
817.7  706604.75  312550.65  44.23
819.0  707282.80  312912.92  44.24
820.2  708152.10  313365.40  44.25
821.5  709336.20  313917.61  44.26
822.7  710373.13  314450.02  44.27
824.0  711325.55  314909.33  44.27
825.2  712028.85  315231.48  44.27
826.5  712763.00  315606.99  44.28
827.7  713852.80  316102.40  44.28
829.0  714833.10  316568.03  44.29
830.2  715792.60  317034.22  44.29
831.5  716711.40  317472.26  44.30
832.7  717602.85  317936.52  44.31
834.0  718265.48  318242.85  44.31
835.2  719154.75  318731.83  44.32
836.4  719883.60  319104.66  44.33
837.7  720658.13  319491.11  44.33
838.9  721870.60  320093.25  44.34
840.1  722775.90  320545.52  44.35
841.4  723661.20  321019.71  44.36
842.6  724420.90  321460.99  44.37
843.8  725207.60  321881.81  44.38
845.1  725978.55  322314.24  44.40
846.3  726849.90  322769.81  44.41
847.5  727753.00  323232.00  44.42
848.8  728516.45  323659.16  44.43
850.0  729553.40  324234.56  44.44
851.2  730414.45  324670.83  44.45
852.5  731460.50  325234.37  44.46
853.7  732036.15  325556.50  44.47
854.9  733077.15  326109.87  44.49
856.1  734013.10  326588.12  44.49
857.4  734876.48  326998.53  44.50
858.6  735764.40  327460.36  44.51
859.8  736751.80  327986.16  44.52
861.0  737546.60  328444.72  44.53
862.2  738393.60  328886.92  44.54
863.5  739427.78  329347.05  44.54
864.7  740312.50  329774.82  44.55
865.9  741121.75  330220.01  44.56
867.1  741718.75  330533.10  44.56
868.3  742811.60  331050.10  44.57
869.5  743752.00  331546.59  44.58
870.8  744753.15  332015.29  44.58
872.0  745682.88  332457.86  44.58
873.2  746583.58  332833.49  44.58
874.4  747056.60  333226.37  44.61
875.6  748246.03  333747.76  44.60
876.8  749674.20  334335.30  44.60
878.0  750615.60  334773.69  44.60
879.2  751513.05  335201.02  44.60
880.4  752478.00  335659.90  44.61
881.6  753199.40  336046.25  44.62
882.8  754511.85  336616.40  44.61
884.0  755266.53  336953.35  44.61
885.2  756767.75  337518.93  44.60
886.5  758036.48  338115.90  44.60
887.7  758999.85  338486.91  44.60
888.8  760094.05  339071.29  44.61
890.0  761092.50  339454.50  44.60
891.2  762032.70  339858.85  44.60
892.4  763445.93  340433.86  44.59
893.6  765174.48  341237.63  44.60
894.8  766620.45  341912.98  44.60
896.0  767983.25  342506.05  44.60
897.2  769623.53  343302.94  44.61
898.4  771615.60  344099.74  44.59
899.6  772771.50  344677.67  44.60
900.8  773455.80  344873.87  44.59
902.0  774223.70  345155.20  44.58
903.2  774286.30  345222.84  44.59
904.3  775490.63  345624.27  44.57
905.5  776283.75  346115.31  44.59
906.7  777535.33  346621.95  44.58
907.9  778548.80  347013.38  44.57
909.1  779599.98  347466.43  44.57
910.2  780333.75  347611.50  44.55
911.4  780428.03  347660.22  44.55
912.6  780850.00  347860.48  44.55
913.8  781700.85  348219.33  44.55
915.0  782118.40  348390.42  44.54
916.2  782198.70  348500.77  44.55
917.3  782858.75  348769.99  44.55
918.5  783489.30  348934.60  44.54
919.7  783783.25  348921.99  44.52
920.8  784036.25  348967.64  44.51
922.0  783983.20  348954.06  44.51
923.2  784500.90  349120.83  44.50
924.4  785061.75  349351.03  44.50
925.5  785680.00  349571.48  44.49
926.7  786557.03  349889.98  44.48
927.9  788307.53  350364.41  44.45
929.0  791372.70  351640.85  44.43
930.2  795229.80  353446.90  44.45
931.4  800467.33  355597.81  44.42
932.5  804907.40  357421.69  44.41
933.7  808097.93  358498.37  44.36
934.9  809375.00  358977.08  44.35
936.0  808541.33  358401.27  44.33
937.2  805484.25  356973.32  44.32
938.3  801726.25  355144.25  44.30
939.5  799390.80  353977.15  44.28
940.7  799758.58  353766.95  44.23
941.8  802816.95  354865.09  44.20
943.0  804934.05  355578.36  44.17
944.2  806298.00  356236.51  44.18
945.3  805938.00  355723.38  44.14
946.5  804422.50  354807.33  44.11
947.6  805306.00  354914.96  44.07
948.8  804607.10  354162.00  44.02
949.9  805118.83  353986.00  43.97
951.1  805550.00  353670.98  43.90
952.2  805207.88  353007.51  43.84
953.4  804358.05  352524.28  43.83
954.5  802987.50  351334.20  43.75
955.7  802959.80  350790.35  43.69
956.8  803408.88  350539.38  43.63
958.0  802870.20  349673.67  43.55
959.1  802418.40  349138.08  43.51
960.3  801975.00  348742.62  43.49
961.4  801965.40  348822.79  43.50
962.6  801748.80  348297.39  43.44
963.7  803075.00  348203.91  43.36
964.9  803647.10  348126.58  43.32
966.0  804527.50  348188.63  43.28
967.2  803833.80  348355.92  43.34
968.3  805347.10  348868.64  43.32
969.5  805598.55  348893.08  43.31
970.6  806026.95  348974.52  43.30
971.8  806337.53  348855.32  43.26
972.9  807712.50  348968.00  43.20
974.0  808383.55  349316.70  43.21
975.2  806726.25  348698.41  43.22
976.3  807601.53  349208.16  43.24
977.5  807699.30  348972.02  43.21
978.6  807898.35  349044.29  43.20
979.7  808068.80  349017.39  43.19
980.9  809424.03  349017.46  43.12
982.0  808086.60  348813.82  43.17
983.2  808235.40  349001.96  43.18
984.3  807635.50  348679.37  43.17
985.4  807216.20  348404.06  43.16
986.6  809413.18  348797.69  43.09
987.7  808021.25  348439.46  43.12
988.9  808545.60  348859.09  43.15
990.0  806409.25  348760.55  43.25
993.1  838566.00  360088.63  42.94
996.9  839551.80  361316.54  43.04
1000.7  839708.90  362234.88  43.14
1004.5  839083.87  362715.36  43.23
1008.4  840118.94  363992.23  43.33
1012.2  841572.63  365316.15  43.41
1016.0  841829.03  366098.82  43.49
1019.8  841257.31  366444.64  43.56
1023.7  840766.35  366684.02  43.61
1027.5  839396.00  366533.94  43.67
1031.3  838616.10  366560.10  43.71
1035.1  838156.20  366677.06  43.75
1038.9  837868.82  366878.60  43.79
1042.7  837547.55  367035.09  43.82
1046.5  836785.25  366953.38  43.85
1050.3  835271.03  366413.14  43.87
1054.2  833369.35  365765.71  43.89
1058.0  832496.40  365451.43  43.90
1061.8  831314.92  365061.25  43.91
1065.6  829602.58  364313.55  43.91
1069.4  827945.12  363535.68  43.91
1073.2  826683.00  362858.79  43.89
1077.0  825522.13  362180.34  43.87
1080.8  824649.83  361609.81  43.85
1084.6  823564.50  360931.48  43.83
1088.4  822227.48  360272.03  43.82
1092.2  820829.10  359361.53  43.78
1096.0  819557.40  358492.75  43.74
1099.8  818153.88  357545.23  43.70
1103.6  816491.03  356439.72  43.66
1107.4  815117.62  355397.83  43.60
1111.2  813666.22  354304.59  43.54
1114.9  812476.50  353264.78  43.48
1118.7  811675.33  352215.23  43.39
1122.5  811474.73  351231.60  43.28
1126.3  808932.60  349079.40  43.15
1130.1  808333.18  347258.35  42.96
1133.9  805023.52  343746.49  42.70
1137.7  802553.00  340070.43  42.37
1141.4  799129.98  335511.04  41.98
1145.2  798453.22  331743.28  41.55
1149.0  796560.15  327683.16  41.14
1152.8  793434.05  323503.22  40.77
1156.6  790088.18  319966.86  40.50
1160.3  786939.75  317268.88  40.32
1164.1  782343.80  314480.06  40.20
1167.9  779194.00  312727.76  40.13
1171.7  776823.80  311428.95  40.09
1175.4  774630.24  310358.18  40.07
1179.2  772923.75  309359.68  40.02
1183.0  773214.00  309111.66  39.98
1186.7  773068.33  308706.00  39.93
1190.5  771338.13  307786.27  39.90
1194.3  768463.50  306487.40  39.88
1198.0  765530.28  305356.09  39.89
1201.8  763224.00  304502.00  39.90
1205.6  761572.29  304104.78  39.93
1209.3  760131.75  303969.43  39.99
1213.1  758542.46  303822.54  40.05
1216.8  756389.07  303618.26  40.14
1220.6  754063.50  303366.26  40.23
1224.3  751712.50  303056.55  40.32
1228.1  749684.56  302910.59  40.41
1231.9  747579.30  302579.18  40.47
1235.6  745373.20  302120.15  40.53
1239.4  743103.72  301714.18  40.60
1243.1  741053.70  301200.17  40.64
1246.9  739136.57  300668.46  40.68
1250.6  737171.97  300047.54  40.70
1254.3  735379.20  299448.69  40.72
1258.1  733423.33  298725.71  40.73
1261.8  731121.07  297802.20  40.73
1265.6  728742.94  296739.67  40.72
1269.3  726197.27  295529.34  40.70
1273.1  726485.51  295407.42  40.66
1276.8  726916.47  295267.65  40.62
1280.6  726810.57  294812.17  40.56
1284.3  724597.83  293411.21  40.49
1288.0  722630.68  292031.57  40.41
1291.8  720657.00  290493.00  40.31
1295.5  718641.15  288861.14  40.20
1299.2  716213.55  286936.37  40.06
1302.9  713458.63  284650.42  39.90
1306.7  710444.70  282089.25  39.71
1310.4  707583.43  279288.67  39.47
1314.1  705232.50  276521.25  39.21
1317.9  702853.67  273417.41  38.90
1321.6  700180.54  269929.62  38.55
1325.3  697397.85  266125.11  38.16
1329.0  694699.13  262200.40  37.74
1332.8  690925.00  257587.32  37.28
1336.5  687307.58  252987.42  36.81
1340.2  685264.30  248954.14  36.33
1343.9  684062.30  245252.12  35.85
1347.6  682804.33  241534.50  35.37
1351.4  681645.00  237996.79  34.92
1355.1  681609.78  234948.76  34.47
1358.8  679973.10  231211.42  34.00
1362.5  679500.97  227589.85  33.49
1366.2  677364.29  222874.15  32.90
1369.9  673548.00  216941.57  32.21
1373.6  669604.65  209918.38  31.35
1377.3  666774.53  201868.49  30.28
1381.0  664022.85  192016.82  28.92
1384.8  660471.90  180019.99  27.26
1388.4  656336.45  166689.81  25.40
1392.2  652367.78  152559.03  23.39
1395.9  650515.65  138751.19  21.33
1399.6  646764.63  125282.29  19.37
1403.3  644676.00  113497.20  17.61
1407.0  642670.88  103472.68  16.10
1410.7  641630.63  95476.32  14.88
1414.3  639881.50  89221.64  13.94
1418.1  637947.92  84598.96  13.26
1421.7  636284.37  81299.83  12.78
1425.4  635054.81  79107.01  12.46
1429.1  631695.75  77474.25  12.26
1432.8  630423.75  76728.41  12.17
1436.5  627152.50  76143.55  12.14
1440.2  623768.17  75878.41  12.16
1443.9  621620.88  75958.20  12.22
1447.6  618166.40  76018.28  12.30
1451.2  615223.75  76199.99  12.39
1454.9  613587.45  76640.77  12.49
1458.6  609913.08  77040.24  12.63
1462.3  609021.73  78079.18  12.82
1466.0  609026.29  79596.34  13.07
1469.7  607309.27  81296.60  13.39
1473.3  605117.33  83278.07  13.76
1477.0  601042.88  85218.72  14.18
1480.7  597971.38  87439.04  14.62
1484.4  594351.88  89604.86  15.08
1488.0  591325.13  91924.49  15.55
1491.7  587779.25  94107.67  16.01
1495.4  584320.20  96316.13  16.48
1499.0  581324.25  98516.92  16.95
1502.7  578562.44  100740.82  17.41
1506.4  575831.35  102869.70  17.86
1510.0  573121.25  104920.83  18.31
1513.7  570490.08  106903.93  18.74
1517.4  567961.33  108820.67  19.16
1521.0  565560.14  110691.56  19.57
1524.7  563115.13  112391.09  19.96
1528.3  560741.78  114036.77  20.34
1532.0  558157.60  115547.66  20.70
1535.7  555489.00  116891.04  21.04
1539.3  552896.07  118212.48  21.38
1543.0  551272.46  119659.46  21.71
1546.6  549902.58  121081.02  22.02
1550.3  548392.33  122385.02  22.32
1553.9  546081.73  123428.00  22.60
1557.6  543877.38  124423.81  22.88
1561.2  541361.04  125244.21  23.14
1564.9  538721.50  126000.44  23.39
1568.5  536016.00  126681.90  23.63
1572.2  533703.10  127383.20  23.87
1575.8  531883.75  128187.86  24.10
1579.5  530054.07  128917.86  24.32
1583.1  527819.72  129536.77  24.54
1586.8  525674.18  130138.12  24.76
1590.4  523569.58  130696.89  24.96
1594.0  521255.82  131171.48  25.16
1597.7  519057.27  131663.11  25.37
1601.3  516662.55  132076.19  25.56
1604.9  513938.33  132348.65  25.75
1608.6  511082.10  132499.03  25.93
1612.2  508437.04  132629.36  26.09
1615.8  506113.80  132785.40  26.24
1619.5  503920.53  132925.79  26.38
1623.1  501190.80  132874.15  26.51
1626.7  498405.38  132730.86  26.63
1630.3  495883.20  132613.46  26.74
1634.0  493494.52  132449.53  26.84
1637.6  491275.00  132255.72  26.92
1641.2  489076.58  131912.78  26.97
1644.8  486544.60  131348.11  27.00
1648.5  483971.68  130645.78  26.99
1652.1  481830.97  129948.13  26.97
1655.7  479923.55  129236.92  26.93
1659.3  478061.33  128547.00  26.89
1662.9  474876.03  127506.63  26.85
1666.6  471315.08  126447.75  26.83
1670.2  468000.78  125433.90  26.80
1673.8  464761.19  124380.01  26.76
1677.4  462228.98  123391.96  26.69
1681.0  460580.10  122467.88  26.59
1684.6  459664.79  121597.93  26.45
1688.2  458203.20  120385.20  26.27
1691.8  456574.45  119176.21  26.10
1695.4  455736.18  118140.86  25.92
1699.0  454936.45  117096.75  25.74
1702.6  454390.80  116097.29  25.55
1706.2  452841.00  114821.57  25.36
1709.8  450698.65  113422.16  25.17
1713.4  449157.80  112200.58  24.98
1717.0  447489.67  111039.29  24.81
1720.6  445797.42  109927.51  24.66
1724.2  444417.81  108925.34  24.51
1727.8  443134.67  108019.65  24.38
1731.4  442449.79  107325.96  24.26
1735.0  442349.57  106847.42  24.15
1738.6  441776.25  106136.36  24.02
1742.2  440792.58  105230.97  23.87
1745.8  439057.07  104049.07  23.70
1749.4  436684.78  102641.13  23.50
1753.0  432966.80  100890.34  23.30
1756.6  429145.50  99176.00  23.11
1760.1  425896.80  97646.80  22.93
1763.7  422167.93  96054.29  22.75
1767.3  419069.61  94726.76  22.60
1770.9  416452.83  93549.94  22.46
1774.5  413392.82  92348.28  22.34
1778.0  411215.47  91401.48  22.23
1781.6  408986.36  90523.97  22.13
1785.2  406389.23  89618.50  22.05
1788.8  403646.67  88809.31  22.00
1792.3  401330.14  88146.50  21.96
1795.9  400814.87  87928.01  21.94
1799.5  400979.51  87912.46  21.92
1803.1  401781.25  88103.42  21.93
1806.6  402635.32  88319.75  21.94
1810.2  403911.90  88618.65  21.94
1813.8  403309.60  88479.03  21.94
1817.3  402790.03  88325.32  21.93
1820.9  401878.13  88068.75  21.91
1824.5  400862.15  87741.87  21.89
1828.0  401281.73  87648.26  21.84
1831.6  401776.46  87520.07  21.78
1835.2  401040.03  86946.65  21.68
1838.7  401307.67  86379.75  21.52
1842.3  399763.00  85220.75  21.32
1845.8  398536.14  83845.40  21.04
1849.4  398078.10  82268.40  20.67
1852.9  396589.58  80047.62  20.18
1856.5  395195.23  77312.67  19.56
1860.0  395037.77  74206.72  18.78
1863.6  394137.19  70363.84  17.85
1867.1  393466.63  65907.24  16.75
1870.7  393821.06  60697.16  15.41
1874.2  393151.33  54515.32  13.87
1877.8  390502.55  47808.40  12.24
1881.3  387914.35  41089.33  10.59
1884.9  385727.12  34828.22  9.03
1888.4  383802.61  29134.11  7.59
1891.9  382312.70  24428.63  6.39
1895.5  380857.87  20804.23  5.46
1899.0  379917.25  18278.56  4.81
1901.3  391389.33  11806.49  3.02
1904.1  391384.25  10547.53  2.69
1906.8  390016.27  9561.74  2.45
1909.6  386807.07  8795.38  2.27
1912.4  383528.35  8246.82  2.15
1915.1  380201.57  7881.03  2.07
1917.9  376828.95  7623.17  2.02
1920.6  374331.80  7480.17  2.00
1923.3  372330.07  7397.62  1.99
1926.1  369756.90  7325.35  1.98
1928.8  366763.80  7289.53  1.99
1931.6  366238.65  7353.16  2.01
1934.3  363021.57  7404.11  2.04
1937.0  359691.00  7491.80  2.08
1939.8  356889.58  7578.07  2.12
1942.5  352854.20  7686.13  2.18
1945.2  349617.75  7843.14  2.24
1947.9  347124.05  8021.44  2.31
1950.7  343163.12  8153.96  2.38
1953.4  339820.10  8357.98  2.46
1956.1  337230.97  8597.83  2.55
1958.8  335102.83  8856.36  2.64
1961.5  332227.35  9152.03  2.75
1964.2  328961.47  9404.33  2.86
1966.9  326048.80  9697.69  2.97
1969.6  323389.87  10029.05  3.10
1972.3  320873.88  10370.88  3.23
1975.0  318390.67  10739.78  3.37
1977.7  316239.05  11112.39  3.51
1980.4  314057.33  11505.51  3.66
1983.1  311730.93  11905.82  3.82
1985.8  309631.20  12328.40  3.98
1988.4  307610.60  12759.45  4.15
1991.1  305860.10  13215.30  4.32
1993.8  304398.50  13668.67  4.49
1996.5  302916.60  14122.03  4.66
1999.1  301519.65  14594.14  4.84
2001.8  300266.88  15063.29  5.02
2004.5  299060.80  15535.18  5.19
2007.1  297585.33  15991.29  5.37
2009.8  295612.92  16394.58  5.55
2012.4  294294.57  16816.25  5.71
2015.1  293136.60  17232.11  5.88
2017.8  291969.43  17629.32  6.04
2020.4  290839.90  18016.45  6.19
2023.1  290372.38  18396.61  6.34
2025.7  290097.12  18774.91  6.47
2028.3  289272.45  19111.65  6.61
2031.0  288656.60  19435.44  6.73
2033.6  288342.00  19747.08  6.85
2036.2  287971.37  20025.99  6.95
2038.9  286977.60  20231.47  7.05
2041.5  286062.50  20423.61  7.14
2044.1  285270.83  20604.17  7.22
2046.8  284126.68  20754.22  7.30
2049.4  283244.13  20901.44  7.38
2052.0  283023.20  21095.24  7.45
2054.6  282630.40  21263.29  7.52
2057.2  281585.85  21393.82  7.60
2059.8  280119.00  21511.00  7.68
2062.4  278765.07  21619.15  7.76
2065.0  277396.90  21758.68  7.84
2067.6  275557.70  21839.61  7.93
2070.2  274064.33  21944.78  8.01
2072.8  273134.58  22074.25  8.08
2075.4  272076.33  22196.78  8.16
2078.0  271467.75  22354.08  8.23
2080.6  270202.87  22456.37  8.31
2083.2  268888.43  22538.82  8.38
2085.8  267579.55  22609.65  8.45
2088.4  266526.95  22714.43  8.52
2090.9  264880.00  22761.33  8.59
2093.5  263006.00  22755.33  8.65
2096.1  261218.10  22765.60  8.72
2098.7  259733.50  22800.98  8.78
2101.2  257848.60  22805.27  8.84
2103.8  256378.92  22830.17  8.90
2106.4  254906.63  22862.22  8.97
2108.9  253911.52  22937.04  9.03
2111.5  252999.83  23000.64  9.09
2114.0  252438.33  23089.44  9.15
2116.6  250276.03  23039.50  9.21
2119.1  249181.10  23074.33  9.26
2121.7  248655.83  23149.97  9.31
2124.2  248463.33  23245.22  9.36
2126.8  247310.65  23267.00  9.41
2129.3  246191.35  23258.37  9.45
2131.9  246388.27  23387.56  9.49
2134.4  245562.33  23404.93  9.53
2136.9  245308.50  23502.66  9.58
2139.4  244229.58  23500.14  9.62
2142.0  243786.78  23570.03  9.67
2144.5  243245.08  23614.64  9.71
2147.0  242802.40  23688.96  9.76
2149.5  242373.93  23760.81  9.80
2152.1  242688.77  23900.64  9.85
2154.6  242695.20  23996.53  9.89
2157.1  242592.73  24083.24  9.93
2159.6  241494.50  24059.88  9.96
2162.1  241269.60  24128.52  10.00
2164.6  240622.53  24151.62  10.04
2167.1  239642.00  24161.14  10.08
2169.6  239762.38  24277.12  10.13
2172.1  238928.30  24282.40  10.16
2174.6  238578.90  24385.82  10.22
2177.1  237509.83  24372.33  10.26
2179.5  237050.47  24443.35  10.31
2182.0  236719.58  24555.03  10.37
2184.5  235778.20  24574.55  10.42
2187.0  234936.60  24618.06  10.48
2189.5  233943.93  24641.89  10.53
2191.9  232705.92  24672.94  10.60
2194.4  231062.75  24644.00  10.67
2196.9  229987.08  24676.36  10.73
2199.3  228575.80  24654.87  10.79
2201.8  227437.70  24663.80  10.84
2204.3  226706.00  24669.40  10.88
2206.7  225539.15  24642.58  10.93
2209.2  224347.50  24638.40  10.98
2211.6  222416.13  24529.89  11.03
2214.1  221748.33  24517.00  11.06
2216.5  221398.40  24555.13  11.09
2219.0  220048.77  24429.04  11.10
2221.4  220089.45  24460.35  11.11
2223.9  218936.47  24323.29  11.11
2226.3  217701.23  24177.08  11.11
2228.7  216787.13  23982.98  11.06
2231.1  216104.47  23780.32  11.00
2233.6  215097.60  23528.00  10.94
2236.0  214086.30  23233.96  10.85
2238.4  213246.53  22945.28  10.76
2240.9  212514.40  22641.53  10.65
2243.3  211649.15  22270.66  10.52
2245.7  210869.97  21922.44  10.40
2248.1  209913.60  21567.29  10.27
2250.5  209111.47  21197.24  10.14
2252.9  208463.53  20825.84  9.99
2255.3  207727.00  20454.99  9.85
2257.7  206865.63  20083.31  9.71
2260.1  205956.80  19719.07  9.57
2262.5  204877.60  19349.87  9.44
2264.9  203895.43  18983.99  9.31
2267.3  203031.40  18647.20  9.18
2269.7  202085.83  18353.13  9.08
2272.1  201285.50  18049.67  8.97
2274.5  200536.73  17762.62  8.86
2276.8  199862.40  17507.82  8.76
2279.2  199093.50  17257.70  8.67
2281.6  198493.00  17031.92  8.58
2284.0  198158.40  16810.20  8.48
2286.3  197649.80  16593.04  8.40
2288.7  197127.35  16349.31  8.29
2291.1  196572.50  16124.33  8.20
2293.4  195866.00  15882.13  8.11
2295.8  195164.02  15646.58  8.02
2298.2  194373.00  15389.17  7.92
2300.5  193323.15  15116.97  7.82
2302.9  191950.20  14839.02  7.73
2305.2  190573.83  14549.39  7.63
2307.6  189098.93  14301.15  7.56
2309.9  188161.95  14087.33  7.49
2312.2  187210.00  13949.61  7.45
2314.6  186140.70  13788.20  7.41
2316.9  185011.23  13645.43  7.38
2319.2  184298.40  13487.65  7.32
2321.6  183665.03  13346.02  7.27
2323.9  182865.00  13159.60  7.20
2326.2  182034.25  13009.65  7.15
2328.6  181300.60  12863.00  7.09
2330.9  180996.53  12735.78  7.04
2333.2  180456.75  12591.08  6.98
2335.5  179938.42  12407.92  6.90
2337.8  179465.40  12267.47  6.84
2340.1  178926.73  12118.40  6.77
2342.4  178495.65  11967.75  6.70
2344.8  177777.67  11802.67  6.64
2347.1  177063.10  11625.17  6.57
2349.4  176478.80  11496.09  6.51
2351.6  175674.00  11362.00  6.47
2353.9  174688.60  11205.33  6.41
2356.2  173876.55  11085.87  6.38
2358.5  173003.80  10920.77  6.31
2360.8  172306.25  10779.86  6.26
2363.1  171921.08  10671.06  6.21
2365.4  171477.00  10557.00  6.16
2367.7  170909.00  10406.73  6.09
2369.9  170170.55  10320.93  6.07
2372.2  169058.50  10095.97  5.97
2374.5  167875.00  9930.83  5.92
2376.7  166926.30  9740.60  5.84
2379.0  165718.30  9587.97  5.79
2381.3  164400.13  9391.37  5.71
2383.5  163412.67  9221.33  5.64
2385.8  162733.08  9058.19  5.57
2388.0  161913.63  8861.62  5.47
2390.3  161171.58  8736.83  5.42
2392.5  160642.67  8585.75  5.34
2394.8  159737.25  8406.39  5.26
2397.0  159225.07  8230.80  5.17
2399.3  158670.18  8086.97  5.10
2401.5  157907.90  7904.43  5.01
2403.8  157154.70  7738.49  4.92
2406.0  156671.53  7594.04  4.85
2408.2  155842.05  7443.10  4.78
2410.4  154983.65  7219.79  4.66
2412.7  154538.80  7083.47  4.58
2414.9  153940.67  6942.42  4.51
2417.1  153927.80  6830.42  4.44
2419.3  153466.93  6687.61  4.36
2421.6  152633.37  6561.88  4.30
2423.8  152020.90  6407.01  4.21
2426.0  151581.60  6240.03  4.12
2428.2  151247.25  6044.50  4.00
2430.4  151259.72  5941.01  3.93
2432.6  151187.60  5910.13  3.91
2434.8  150633.60  5753.37  3.82
2437.0  150000.50  5580.47  3.72
2439.2  149525.57  5453.07  3.65
2441.4  148773.20  5358.93  3.60
2443.6  148634.67  5253.47  3.53
2445.7  148773.67  5154.02  3.46
2447.9  148697.25  5011.28  3.37
2450.1  147881.58  4860.58  3.29
2452.3  146879.52  4709.83  3.21
2454.5  146350.40  4655.78  3.18
2456.6  145627.67  4513.45  3.10
2458.8  144420.73  4403.78  3.05
2461.0  144021.37  4332.18  3.01
2463.1  143738.50  4262.11  2.97
2465.3  143153.33  4142.00  2.89
2467.5  142692.33  4100.78  2.87
2469.6  142266.75  4045.50  2.84
2471.8  141878.20  3953.73  2.79
2473.9  141219.00  3845.83  2.72
2476.1  140483.75  3765.97  2.68
2478.2  139682.85  3624.03  2.59
2480.4  138881.00  3591.75  2.59
2482.5  137971.38  3537.73  2.56
2484.6  136940.00  3526.00  2.57
2486.8  136174.67  3487.40  2.56
2488.9  135646.20  3396.07  2.50
2491.1  134247.33  3342.02  2.49
2493.2  133179.60  3269.27  2.45
2495.3  131527.25  3212.22  2.44
2497.4  130137.28  3150.60  2.42
2499.5  129493.30  3161.25  2.44
2501.7  129415.00  3137.33  2.42
2503.8  129686.67  3087.78  2.38
2505.9  130248.10  3019.42  2.32
2508.0  131091.00  3018.11  2.30
2510.1  131834.40  2965.60  2.25
2512.2  132701.58  3082.86  2.32
2514.3  133742.70  3122.82  2.33
2516.4  135275.87  3284.84  2.43
