/*** Spectra Vista SIG Data ***/
name= 1_20221020_CECA_03_avg.sig
comm= Averaged Ref/Tar of files: HR.102022.0001_moc.sig,HR.102022.0002_moc.sig,HR.102022.0003_moc.sig
data=
337.3  645.13  70.58  10.94
338.8  673.40  62.00  9.21
340.3  693.38  56.22  8.11
341.8  713.31  52.84  7.41
343.2  737.04  53.28  7.23
344.7  750.64  58.76  7.83
346.2  792.49  54.47  6.87
347.7  825.83  50.69  6.14
349.2  846.72  43.68  5.16
350.6  874.06  42.44  4.86
352.1  921.71  41.28  4.48
353.6  964.66  43.18  4.48
355.1  1016.99  43.40  4.27
356.6  1061.91  42.24  3.98
358.0  1097.36  46.79  4.26
359.5  1149.48  41.20  3.58
361.0  1202.99  42.56  3.54
362.5  1282.25  42.94  3.35
364.0  1353.46  43.33  3.20
365.4  1421.86  44.96  3.16
366.9  1464.13  49.11  3.35
368.4  1538.31  52.13  3.39
369.9  1616.10  51.65  3.20
371.3  1714.14  54.59  3.18
372.8  1821.33  59.00  3.24
374.3  1892.00  57.33  3.03
375.8  1961.96  52.70  2.69
377.2  2039.02  55.00  2.70
378.7  2119.72  52.61  2.48
380.2  2205.80  53.80  2.44
381.7  2307.94  55.25  2.39
383.1  2398.55  56.29  2.35
384.6  2508.68  56.35  2.25
386.1  2599.81  56.45  2.17
387.6  2689.61  55.10  2.05
389.0  2797.92  54.79  1.96
390.5  2899.26  57.82  1.99
392.0  3015.30  61.13  2.03
393.4  3131.98  59.56  1.90
394.9  3246.84  61.48  1.89
396.4  3363.75  56.35  1.68
397.9  3490.13  58.08  1.66
399.3  3616.41  61.90  1.71
400.8  3738.75  64.25  1.72
402.2  3873.99  65.46  1.69
403.7  4010.90  66.34  1.65
405.2  4152.60  65.24  1.57
406.6  4282.72  65.99  1.54
408.1  4416.04  69.31  1.57
409.6  4556.82  71.21  1.56
411.0  4714.08  74.96  1.59
412.5  4868.89  74.05  1.52
414.0  5028.55  73.35  1.46
415.4  5191.35  75.08  1.45
416.9  5354.60  77.96  1.46
418.4  5524.07  79.68  1.44
419.8  5692.96  83.32  1.46
421.3  5867.99  84.77  1.44
422.7  6058.68  87.39  1.44
424.2  6250.50  93.00  1.49
425.7  6441.76  99.25  1.54
427.1  6630.68  102.69  1.55
428.6  6832.40  106.09  1.55
430.0  7022.99  111.96  1.59
431.5  7241.61  117.41  1.62
432.9  7465.64  123.71  1.66
434.4  7692.53  130.52  1.70
435.9  7912.80  136.89  1.73
437.3  8134.50  143.61  1.77
438.8  8359.49  152.04  1.82
440.2  8588.97  158.71  1.85
441.7  8841.32  164.97  1.87
443.1  9086.85  170.78  1.88
444.6  9342.92  177.58  1.90
446.0  9601.50  185.11  1.93
447.5  9864.36  193.59  1.96
448.9  10116.18  203.53  2.01
450.4  10388.49  212.38  2.04
451.8  10636.60  218.98  2.06
453.3  10894.09  224.89  2.06
454.7  11182.94  233.05  2.08
456.2  11431.69  240.99  2.11
457.6  11705.90  248.39  2.12
459.1  11981.84  255.84  2.14
460.5  12251.50  264.53  2.16
462.0  12559.32  271.10  2.16
463.4  12861.56  278.26  2.16
464.8  13153.50  287.98  2.19
466.3  13435.95  295.46  2.20
467.7  13725.94  302.77  2.21
469.2  14038.41  310.28  2.21
470.6  14339.43  317.22  2.21
472.0  14646.45  325.92  2.23
473.5  14955.55  335.86  2.25
474.9  15267.45  342.00  2.24
476.4  15612.48  351.36  2.25
477.8  15935.50  360.89  2.26
479.2  16245.80  368.62  2.27
480.7  16573.88  376.99  2.27
482.1  16918.06  384.05  2.27
483.6  17279.31  395.61  2.29
485.0  17618.97  403.37  2.29
486.4  17980.89  417.10  2.32
487.9  18322.20  430.30  2.35
489.3  18680.14  443.72  2.38
490.7  19018.81  460.73  2.42
492.2  19398.12  478.24  2.47
493.6  19751.13  494.84  2.51
495.0  20112.30  516.75  2.57
496.5  20483.37  539.39  2.63
497.9  20844.37  566.13  2.72
499.3  21217.12  594.83  2.80
500.7  21617.54  627.02  2.90
502.2  21993.44  663.81  3.02
503.6  22399.32  707.29  3.16
505.0  22763.17  754.64  3.32
506.5  23187.89  811.64  3.50
507.9  23571.75  870.39  3.69
509.3  24008.56  940.62  3.92
510.7  24420.83  1017.25  4.17
512.2  24882.53  1104.60  4.44
513.6  25367.93  1204.12  4.75
515.0  25841.14  1311.86  5.08
516.4  26300.30  1428.21  5.43
517.8  26826.20  1561.28  5.82
519.3  27277.35  1697.76  6.22
520.7  27796.52  1850.23  6.66
522.1  28243.48  2008.05  7.11
523.5  28711.84  2172.72  7.57
524.9  29216.88  2344.84  8.03
526.3  29715.98  2517.31  8.47
527.8  30225.69  2698.08  8.93
529.2  30613.54  2872.72  9.38
530.6  31142.64  3064.04  9.84
532.0  31724.00  3257.34  10.27
533.4  32199.90  3435.98  10.67
534.8  32557.31  3595.44  11.04
536.3  33116.88  3770.81  11.39
537.7  33783.12  3953.04  11.70
539.1  34307.87  4115.45  12.00
540.5  34764.25  4266.24  12.27
541.9  35386.23  4433.68  12.53
543.3  35877.87  4583.19  12.77
544.7  36375.12  4734.80  13.02
546.1  37015.83  4897.36  13.23
547.5  37495.36  5035.52  13.43
549.0  38112.80  5185.64  13.61
550.4  38651.63  5317.22  13.76
551.8  39222.47  5443.06  13.88
553.2  39781.96  5553.61  13.96
554.6  40293.76  5638.65  13.99
556.0  40863.87  5712.28  13.98
557.4  41459.01  5774.20  13.93
558.8  42076.89  5826.82  13.85
560.2  42641.25  5860.26  13.74
561.6  43270.01  5889.89  13.61
563.0  43881.87  5906.97  13.46
564.4  44499.90  5915.03  13.29
565.8  45105.25  5909.39  13.10
567.2  45782.10  5897.21  12.88
568.6  46394.93  5860.90  12.63
570.0  46975.20  5801.14  12.35
571.4  47647.60  5740.11  12.05
572.8  48329.23  5674.74  11.74
574.2  48966.40  5606.97  11.45
575.6  49592.25  5541.00  11.17
577.0  50201.38  5481.25  10.92
578.4  50884.93  5434.72  10.68
579.8  51499.80  5389.68  10.47
581.2  52175.47  5355.37  10.26
582.5  52769.34  5320.64  10.08
583.9  53387.92  5293.22  9.91
585.3  54103.73  5281.98  9.76
586.7  54716.16  5263.74  9.62
588.1  55331.23  5250.93  9.49
589.5  56007.00  5251.17  9.38
590.9  56672.96  5257.60  9.28
592.3  57401.19  5275.46  9.19
593.7  58016.01  5289.14  9.12
595.0  58682.07  5312.40  9.05
596.4  59295.46  5330.22  8.99
597.8  59925.34  5349.13  8.93
599.2  60569.52  5369.17  8.86
600.6  61292.34  5385.08  8.79
602.0  61865.09  5377.16  8.69
603.3  62598.29  5374.23  8.59
604.7  63293.37  5357.56  8.46
606.1  63932.64  5323.12  8.33
607.5  64625.93  5278.50  8.17
608.9  65340.93  5227.22  8.00
610.2  65950.61  5158.44  7.82
611.6  66639.90  5091.42  7.64
613.0  67308.10  5024.75  7.47
614.4  67922.31  4950.88  7.29
615.8  68567.85  4886.05  7.13
617.1  69234.06  4826.83  6.97
618.5  69930.00  4782.70  6.84
619.9  70604.21  4744.16  6.72
621.3  71304.75  4723.50  6.62
622.6  71998.30  4712.59  6.55
624.0  72645.90  4712.59  6.49
625.4  73299.44  4719.92  6.44
626.8  73990.74  4745.65  6.41
628.1  74589.57  4773.04  6.40
629.5  75354.00  4816.49  6.39
630.9  76024.30  4855.06  6.39
632.2  76621.76  4880.50  6.37
633.6  77315.95  4892.42  6.33
635.0  77977.92  4882.51  6.26
636.3  78663.10  4850.15  6.17
637.7  79292.55  4787.00  6.04
639.1  80024.00  4701.67  5.88
640.4  80704.05  4590.79  5.69
641.8  81282.00  4456.25  5.48
643.2  81988.52  4315.58  5.26
644.5  82632.35  4167.49  5.04
645.9  83312.82  4024.56  4.83
647.2  83807.92  3888.76  4.64
648.6  84491.10  3780.00  4.47
650.0  85125.60  3692.16  4.34
651.3  85685.05  3619.54  4.22
652.7  86644.95  3569.16  4.12
654.0  87537.54  3520.50  4.02
655.4  88171.14  3458.76  3.92
656.8  88380.18  3372.72  3.82
658.1  89079.34  3291.00  3.69
659.5  90074.25  3204.65  3.56
660.8  90742.50  3097.00  3.41
662.2  91280.00  2978.70  3.26
663.5  91984.52  2873.59  3.12
664.9  92506.18  2768.88  2.99
666.2  92960.28  2675.84  2.88
667.6  93733.75  2608.55  2.78
668.9  94276.14  2557.84  2.71
670.3  95160.88  2520.92  2.65
671.6  95664.08  2500.62  2.61
673.0  96270.30  2496.68  2.59
674.3  96908.50  2501.72  2.58
675.7  97575.92  2518.51  2.58
677.0  98139.00  2544.13  2.59
678.4  98786.53  2585.25  2.62
679.7  99341.56  2642.02  2.66
681.1  99986.51  2732.39  2.73
682.4  100568.26  2852.37  2.84
683.8  101182.64  3012.48  2.98
685.1  101735.18  3237.13  3.18
686.4  102395.28  3548.05  3.47
687.8  103021.95  3987.20  3.87
689.1  103596.00  4585.48  4.43
690.5  104276.16  5385.85  5.16
691.8  104782.95  6419.86  6.13
693.1  105526.35  7717.11  7.31
694.5  106197.00  9245.60  8.71
695.8  106861.30  10973.59  10.27
697.1  107498.30  12854.25  11.96
698.5  108083.78  14853.87  13.74
699.8  108685.81  16926.63  15.57
701.1  109329.78  19043.98  17.42
702.5  109818.50  21132.86  19.24
703.8  110362.50  23200.00  21.02
705.1  110990.30  25228.62  22.73
706.5  111570.70  27184.13  24.36
707.8  112129.95  29064.93  25.92
709.1  112643.02  30855.13  27.39
710.5  113263.66  32607.40  28.79
711.8  113765.68  34252.80  30.11
713.1  114327.64  35853.44  31.36
714.4  114862.84  37368.85  32.53
715.8  115362.36  38819.84  33.65
717.1  116041.20  40269.73  34.70
718.4  116596.48  41616.21  35.69
719.7  117207.13  42919.26  36.62
721.0  117594.00  44090.00  37.49
722.4  118071.80  45227.28  38.30
723.7  118631.64  46339.89  39.06
725.0  119210.81  47402.33  39.76
726.3  119767.34  48399.15  40.41
727.6  120150.80  49277.65  41.01
729.0  120686.37  50155.82  41.56
730.3  121175.97  50965.07  42.06
731.6  121713.44  51745.91  42.51
732.9  122193.75  52463.92  42.94
734.2  122676.68  53138.13  43.32
735.5  123252.18  53814.74  43.66
736.8  123747.18  54414.15  43.97
738.1  124270.44  54989.12  44.25
739.5  124839.70  55549.85  44.50
740.8  125292.42  56035.78  44.72
742.1  125752.95  56500.21  44.93
743.4  126195.00  56932.22  45.11
744.7  126720.88  57388.93  45.29
746.0  127246.86  57817.15  45.44
747.3  127650.53  58172.04  45.57
748.6  128101.10  58529.18  45.69
749.9  128549.20  58865.16  45.79
751.2  128987.49  59186.17  45.89
752.5  129479.11  59529.02  45.98
753.8  129874.36  59816.05  46.06
755.1  130317.20  60110.85  46.13
756.4  130726.98  60379.75  46.19
757.7  131303.27  60716.51  46.24
759.0  132184.49  61185.84  46.29
760.3  132834.24  61535.47  46.33
761.6  133627.76  61948.44  46.36
762.9  134006.80  62169.38  46.39
764.2  134327.84  62355.39  46.42
765.5  134595.31  62516.63  46.45
766.8  134928.32  62708.69  46.48
768.1  135301.20  62912.84  46.50
769.3  135706.20  63124.33  46.52
770.6  136133.27  63350.85  46.54
771.9  136581.13  63576.57  46.55
773.2  136899.36  63740.96  46.56
774.5  137302.88  63943.24  46.57
775.8  137724.13  64158.55  46.58
777.1  138112.70  64358.02  46.60
778.4  138409.32  64504.83  46.60
779.6  138875.20  64735.76  46.61
780.9  139224.00  64913.33  46.63
782.2  139567.45  65083.21  46.63
783.5  139842.50  65223.91  46.64
784.8  140198.27  65398.32  46.65
786.0  140511.42  65557.60  46.66
787.3  140825.45  65712.80  46.66
788.6  141137.51  65877.75  46.68
789.9  141480.36  66041.49  46.68
791.2  141890.19  66240.18  46.68
792.4  142313.51  66451.22  46.69
793.7  142664.76  66617.42  46.70
795.0  143066.22  66818.66  46.70
796.2  143471.20  67020.16  46.71
797.5  143900.40  67229.14  46.72
798.8  144323.87  67441.00  46.73
800.0  144754.88  67647.73  46.73
801.3  145078.68  67805.43  46.74
802.6  145482.39  68005.23  46.74
803.8  145897.01  68208.69  46.75
805.1  146248.38  68378.84  46.76
806.4  146601.18  68546.13  46.76
807.7  146974.50  68731.74  46.76
808.9  147332.27  68919.00  46.78
810.2  147703.43  69092.97  46.78
811.4  148057.22  69271.41  46.79
812.7  148484.38  69477.78  46.79
814.0  148979.46  69715.42  46.80
815.2  149398.20  69922.90  46.80
816.5  149738.05  70078.80  46.80
817.7  150086.41  70253.05  46.81
819.0  150458.66  70437.28  46.82
820.2  150700.00  70560.36  46.82
821.5  151149.18  70777.20  46.83
822.7  151472.04  70922.78  46.82
824.0  151772.94  71065.44  46.82
825.2  152104.64  71243.19  46.84
826.5  152386.24  71383.15  46.84
827.7  152825.16  71585.00  46.84
829.0  153181.66  71740.53  46.83
830.2  153482.91  71887.12  46.84
831.5  153860.20  72066.66  46.84
832.7  154149.98  72207.12  46.84
834.0  154481.89  72355.23  46.84
835.2  154801.68  72505.51  46.84
836.4  155120.46  72660.33  46.84
837.7  155478.12  72832.76  46.84
838.9  155851.24  73007.42  46.84
840.1  156186.50  73158.69  46.84
841.4  156531.90  73327.66  46.85
842.6  156892.32  73495.91  46.84
843.8  157247.24  73669.31  46.85
845.1  157681.08  73868.33  46.85
846.3  158063.00  74037.86  46.84
847.5  158413.08  74205.97  46.84
848.8  158788.92  74371.49  46.84
850.0  159143.53  74542.36  46.84
851.2  159576.75  74749.74  46.84
852.5  159939.82  74919.50  46.84
853.7  160358.40  75110.00  46.84
854.9  160768.42  75292.31  46.83
856.1  161135.26  75474.96  46.84
857.4  161423.50  75599.25  46.83
858.6  161849.24  75801.80  46.83
859.8  162226.50  75967.17  46.83
861.0  162611.28  76146.72  46.83
862.2  163017.62  76344.03  46.83
863.5  163401.88  76501.60  46.82
864.7  163800.12  76691.41  46.82
865.9  164181.12  76877.53  46.82
867.1  164509.19  77027.02  46.82
868.3  164879.58  77198.63  46.82
869.5  165295.25  77398.36  46.82
870.8  165744.90  77581.20  46.81
872.0  166125.03  77771.77  46.82
873.2  166506.39  77941.60  46.81
874.4  166921.56  78125.58  46.80
875.6  167288.18  78285.87  46.80
876.8  167703.61  78477.83  46.80
878.0  168068.36  78663.42  46.80
879.2  168490.29  78833.41  46.79
880.4  168905.78  79008.90  46.78
881.6  169251.49  79196.03  46.79
882.8  169642.08  79356.91  46.78
884.0  170102.56  79556.66  46.77
885.2  170488.80  79717.35  46.76
886.5  170911.86  79929.46  46.77
887.7  171299.57  80090.24  46.75
888.8  171761.30  80289.55  46.74
890.0  172160.39  80476.70  46.75
891.2  172595.40  80661.13  46.73
892.4  173059.53  80851.49  46.72
893.6  173487.81  81028.21  46.71
894.8  174053.65  81280.21  46.70
896.0  174580.75  81521.74  46.70
897.2  175123.65  81768.70  46.69
898.4  175567.26  81985.49  46.70
899.6  175985.03  82167.43  46.69
900.8  176354.94  82292.41  46.66
902.0  176617.23  82375.27  46.64
903.2  176874.05  82498.29  46.64
904.3  177150.90  82623.93  46.64
905.5  177543.41  82822.79  46.65
906.7  177990.70  83016.42  46.64
907.9  178367.35  83174.13  46.63
909.1  178665.75  83278.74  46.61
910.2  178892.81  83344.88  46.59
911.4  179143.97  83446.48  46.58
912.6  179334.87  83545.36  46.59
913.8  179588.12  83650.61  46.58
915.0  179903.01  83794.25  46.58
916.2  180111.75  83874.70  46.57
917.3  180276.12  83902.74  46.54
918.5  180500.74  83998.34  46.54
919.7  180723.39  84092.61  46.53
920.8  180860.79  84136.84  46.52
922.0  181023.15  84191.80  46.51
923.2  181217.40  84266.00  46.50
924.4  181492.65  84341.10  46.47
925.5  181744.62  84423.19  46.45
926.7  182154.58  84583.41  46.43
927.9  182629.80  84787.01  46.43
929.0  183407.76  85131.18  46.42
930.2  184562.96  85617.04  46.39
931.4  185861.93  86132.88  46.34
932.5  187233.80  86721.74  46.32
933.7  187939.77  87026.86  46.31
934.9  188357.75  87182.28  46.29
936.0  188251.38  87095.67  46.27
937.2  187421.76  86607.56  46.21
938.3  186673.12  86212.26  46.18
939.5  186018.48  85870.88  46.16
940.7  186202.08  85919.44  46.14
941.8  186967.97  86246.73  46.13
943.0  187818.15  86533.93  46.07
944.2  188348.68  86689.75  46.03
945.3  188214.00  86548.80  45.98
946.5  187912.71  86344.02  45.95
947.6  188068.34  86315.06  45.90
948.8  188087.84  86216.09  45.84
949.9  188240.64  86215.55  45.80
951.1  188212.77  86056.42  45.72
952.2  188210.40  85924.80  45.65
953.4  188141.55  85783.08  45.59
954.5  188150.04  85662.72  45.53
955.7  188196.12  85508.64  45.44
956.8  188178.44  85378.06  45.37
958.0  188142.10  85183.98  45.28
959.1  188028.93  85073.24  45.24
960.3  187935.57  84978.32  45.22
961.4  187921.46  84886.25  45.17
962.6  188059.90  84903.47  45.15
963.7  188066.15  84773.42  45.08
964.9  188067.93  84667.94  45.02
966.0  187994.93  84604.86  45.00
967.2  188021.97  84645.40  45.02
968.3  187937.01  84588.84  45.01
969.5  187874.40  84518.63  44.99
970.6  187959.98  84513.01  44.96
971.8  188098.79  84491.08  44.92
972.9  188146.79  84508.90  44.92
974.0  188305.02  84531.22  44.89
975.2  188164.55  84462.55  44.89
976.3  188010.51  84420.69  44.90
977.5  188028.61  84375.05  44.87
978.6  187886.96  84323.30  44.88
979.7  187898.34  84303.19  44.87
980.9  187765.17  84192.71  44.84
982.0  187468.47  84129.90  44.88
983.2  187202.92  84018.78  44.88
984.3  186958.44  83841.88  44.85
985.4  186995.44  83854.80  44.84
986.6  186816.83  83821.24  44.87
987.7  186927.69  83919.62  44.89
988.9  186689.52  83831.04  44.90
990.0  186873.36  83863.38  44.88
993.1  196624.24  86938.55  44.22
996.9  195820.02  86871.16  44.36
1000.7  195859.18  87134.01  44.49
1004.5  196052.06  87446.05  44.60
1008.4  196021.47  87705.67  44.74
1012.2  196097.83  87949.78  44.85
1016.0  196019.60  88143.12  44.97
1019.8  195764.80  88231.61  45.07
1023.7  195273.11  88149.88  45.14
1027.5  194559.43  87996.70  45.23
1031.3  194210.85  87974.97  45.30
1035.1  193961.76  87972.79  45.36
1038.9  194055.89  88125.88  45.41
1042.7  194305.50  88325.69  45.46
1046.5  194608.33  88535.53  45.49
1050.3  194973.57  88758.98  45.52
1054.2  195187.22  88900.88  45.55
1058.0  195357.63  88998.96  45.56
1061.8  195725.62  89222.21  45.59
1065.6  195717.22  89214.02  45.58
1069.4  195569.73  89149.32  45.58
1073.2  195132.06  88930.51  45.57
1077.0  195082.43  88871.00  45.56
1080.8  195568.75  89026.98  45.52
1084.6  196106.17  89199.60  45.49
1088.4  196746.95  89444.84  45.46
1092.2  196911.00  89434.80  45.42
1096.0  196906.34  89356.15  45.38
1099.8  196847.88  89228.69  45.33
1103.6  196677.00  89045.37  45.27
1107.4  196380.96  88782.25  45.21
1111.2  196559.20  88734.18  45.14
1114.9  196595.78  88599.70  45.07
1118.7  196818.60  88486.69  44.96
1122.5  196986.40  88310.73  44.83
1126.3  196898.45  87964.50  44.68
1130.1  197057.78  87609.78  44.46
1133.9  196460.13  86770.18  44.17
1137.7  195953.93  85832.86  43.80
1141.4  195168.57  84660.55  43.38
1145.2  194937.13  83627.18  42.90
1149.0  194565.00  82608.31  42.46
1152.8  193912.27  81557.56  42.06
1156.6  193213.53  80662.51  41.75
1160.3  192590.22  79959.33  41.52
1164.1  191685.67  79269.66  41.35
1167.9  191139.58  78827.71  41.24
1171.7  190716.75  78505.88  41.16
1175.4  190153.69  78164.23  41.11
1179.2  189617.57  77822.53  41.04
1183.0  189680.44  77723.70  40.98
1186.7  190041.60  77748.79  40.91
1190.5  190274.80  77733.93  40.85
1194.3  190086.42  77580.87  40.81
1198.0  189508.37  77319.69  40.80
1201.8  188789.53  77033.25  40.80
1205.6  188493.33  76958.43  40.83
1209.3  188536.06  77078.15  40.88
1213.1  188673.65  77230.19  40.93
1216.8  188729.08  77396.27  41.01
1220.6  188386.49  77392.19  41.08
1224.3  187953.22  77346.94  41.15
1228.1  187378.13  77262.44  41.23
1231.9  186698.67  77098.81  41.30
1235.6  185965.90  76881.30  41.34
1239.4  185331.17  76742.45  41.41
1243.1  184774.94  76590.26  41.45
1246.9  184281.58  76443.20  41.48
1250.6  183912.31  76333.23  41.51
1254.3  183474.38  76185.63  41.52
1258.1  182990.19  75998.30  41.53
1261.8  182375.29  75754.68  41.54
1265.6  181971.50  75560.28  41.52
1269.3  181853.48  75470.27  41.50
1273.1  182326.28  75594.49  41.46
1276.8  182313.33  75497.40  41.41
1280.6  181702.73  75144.28  41.36
1284.3  180695.20  74583.92  41.28
1288.0  180217.53  74211.43  41.18
1291.8  180293.33  73998.66  41.04
1295.5  180209.33  73697.07  40.90
1299.2  179817.19  73234.01  40.73
1302.9  179100.42  72575.63  40.52
1306.7  178276.16  71823.55  40.29
1310.4  177462.91  70993.90  40.00
1314.1  176746.66  70159.49  39.69
1317.9  176122.64  69277.00  39.33
1321.6  175402.98  68291.10  38.93
1325.3  174610.45  67204.68  38.49
1329.0  174077.17  66179.89  38.02
1332.8  173167.87  64952.58  37.51
1336.5  172421.73  63787.19  36.99
1340.2  172556.22  62953.80  36.48
1343.9  172705.83  62141.25  35.98
1347.6  172916.40  61362.77  35.49
1351.4  173910.00  60897.95  35.02
1355.1  175188.69  60547.15  34.56
1358.8  176362.67  60108.80  34.08
1362.5  176684.92  59294.31  33.56
1366.2  175819.67  57912.29  32.94
1369.9  174180.50  56073.67  32.19
1373.6  172669.16  53980.72  31.26
1377.3  171921.40  51694.08  30.07
1381.0  171808.56  49065.83  28.56
1384.8  170939.17  45672.25  26.72
1388.4  169231.53  41754.86  24.67
1392.2  168049.39  37807.10  22.50
1395.9  167365.10  33997.04  20.31
1399.6  166516.02  30440.62  18.28
1403.3  165882.72  27337.56  16.48
1407.0  165069.80  24680.40  14.95
1410.7  164190.40  22507.74  13.71
1414.3  163245.56  20764.95  12.72
1418.1  162417.89  19431.12  11.96
1421.7  161742.08  18403.87  11.38
1425.4  161059.60  17616.66  10.94
1429.1  160433.00  17030.89  10.62
1432.8  159589.24  16574.75  10.39
1436.5  159246.62  16279.49  10.22
1440.2  159080.96  16088.15  10.11
1443.9  158614.01  15936.28  10.05
1447.6  157901.33  15821.96  10.02
1451.2  157309.90  15758.38  10.02
1454.9  156570.20  15724.19  10.04
1458.6  155977.41  15769.29  10.11
1462.3  155384.53  15887.23  10.22
1466.0  154678.93  16075.66  10.39
1469.7  153779.46  16340.68  10.63
1473.3  153248.11  16718.65  10.91
1477.0  152145.89  17105.71  11.24
1480.7  151288.81  17560.28  11.61
1484.4  150178.27  18006.95  11.99
1488.0  149375.11  18526.93  12.40
1491.7  148552.89  19047.96  12.82
1495.4  147699.14  19583.87  13.26
1499.0  146894.67  20118.75  13.70
1502.7  146261.89  20683.59  14.14
1506.4  145526.49  21220.18  14.58
1510.0  144777.69  21752.57  15.02
1513.7  143964.72  22266.42  15.47
1517.4  143256.89  22779.97  15.90
1521.0  142609.60  23291.76  16.33
1524.7  141960.00  23771.26  16.75
1528.3  141287.67  24238.50  17.16
1532.0  140649.06  24688.64  17.55
1535.7  139879.42  25090.26  17.94
1539.3  139204.73  25492.08  18.31
1543.0  138710.52  25914.01  18.68
1546.6  138392.22  26348.51  19.04
1550.3  137867.97  26714.67  19.38
1553.9  137320.84  27060.48  19.71
1557.6  136658.13  27362.28  20.02
1561.2  135956.70  27630.77  20.32
1564.9  135238.86  27881.58  20.62
1568.5  134529.50  28115.14  20.90
1572.2  133905.87  28348.69  21.17
1575.8  133326.67  28572.60  21.43
1579.5  132784.57  28788.61  21.68
1583.1  132212.62  28989.14  21.93
1586.8  131450.67  29129.80  22.16
1590.4  130762.60  29272.13  22.39
1594.0  130005.13  29389.52  22.61
1597.7  129627.03  29575.30  22.82
1601.3  129200.40  29746.24  23.02
1604.9  128741.47  29887.02  23.21
1608.6  127994.11  29949.50  23.40
1612.2  127206.75  29982.64  23.57
1615.8  126380.58  29994.54  23.73
1619.5  125676.78  30014.08  23.88
1623.1  124936.49  30014.37  24.02
1626.7  124265.70  30014.11  24.15
1630.3  123607.83  29995.99  24.27
1634.0  122985.33  29971.20  24.37
1637.6  122445.64  29942.31  24.45
1641.2  121879.07  29859.06  24.50
1644.8  121190.58  29710.74  24.52
1648.5  120596.48  29557.27  24.51
1652.1  120066.20  29405.55  24.49
1655.7  119564.00  29259.10  24.47
1659.3  119128.22  29153.43  24.47
1662.9  118310.56  28979.33  24.49
1666.6  117484.80  28814.16  24.53
1670.2  116656.05  28648.08  24.56
1673.8  115804.36  28452.05  24.57
1677.4  115144.43  28282.65  24.56
1681.0  114692.48  28120.45  24.52
1684.6  114488.11  27982.18  24.44
1688.2  114096.17  27743.91  24.32
1691.8  113746.14  27531.00  24.20
1695.4  113524.27  27333.58  24.08
1699.0  113354.27  27138.70  23.94
1702.6  113204.67  26928.03  23.79
1706.2  112874.88  26643.89  23.60
1709.8  112327.28  26317.05  23.43
1713.4  111890.09  26029.13  23.26
1717.0  111372.33  25750.55  23.12
1720.6  110891.30  25486.88  22.98
1724.2  110474.85  25235.19  22.84
1727.8  110065.67  24999.56  22.71
1731.4  109817.58  24786.85  22.57
1735.0  109783.18  24626.66  22.43
1738.6  109705.30  24428.00  22.27
1742.2  109426.80  24165.09  22.08
1745.8  109120.88  23878.64  21.88
1749.4  108596.40  23534.45  21.67
1753.0  107728.84  23118.26  21.46
1756.6  106724.33  22700.57  21.27
1760.1  105932.26  22342.86  21.09
1763.7  104869.78  21943.53  20.92
1767.3  103989.22  21595.55  20.77
1770.9  103240.28  21281.60  20.61
1774.5  102338.96  20957.91  20.48
1778.0  101642.38  20713.84  20.38
1781.6  100979.80  20508.56  20.31
1785.2  100286.87  20321.31  20.26
1788.8  99579.47  20163.03  20.25
1792.3  98813.56  20010.51  20.25
1795.9  98465.03  19950.17  20.26
1799.5  98386.67  19946.80  20.27
1803.1  99327.36  20157.71  20.29
1806.6  101063.82  20532.59  20.32
1810.2  102394.60  20821.94  20.34
1813.8  102898.70  20940.17  20.35
1817.3  102456.40  20857.10  20.36
1820.9  101505.51  20661.37  20.35
1824.5  100494.45  20436.22  20.34
1828.0  99669.78  20227.26  20.29
1831.6  99280.50  20089.94  20.24
1835.2  99091.11  19943.83  20.13
1838.7  98942.93  19755.16  19.97
1842.3  98850.00  19524.00  19.75
1845.8  98141.92  19096.23  19.46
1849.4  97760.73  18642.73  19.07
1852.9  97273.94  18054.70  18.56
1856.5  96667.77  17318.97  17.92
1860.0  96027.14  16432.11  17.11
1863.6  95933.66  15490.07  16.15
1867.1  96280.10  14455.74  15.01
1870.7  96813.35  13240.39  13.68
1874.2  96272.10  11715.75  12.17
1877.8  94660.13  10051.41  10.62
1881.3  92802.17  8407.33  9.06
1884.9  91524.77  6964.94  7.61
1888.4  90452.68  5698.00  6.30
1891.9  89253.11  4668.35  5.23
1895.5  88162.56  3890.20  4.41
1899.0  87477.08  3360.61  3.84
1901.3  116852.00  2594.23  2.22
1904.1  116719.20  2238.15  1.92
1906.8  116003.52  1962.72  1.69
1909.6  114538.62  1744.47  1.52
1912.4  113136.94  1604.40  1.42
1915.1  112100.01  1497.76  1.34
1917.9  110999.90  1404.97  1.27
1920.6  110042.58  1354.24  1.23
1923.3  109002.04  1302.14  1.19
1926.1  107755.58  1264.01  1.17
1928.8  106568.00  1249.60  1.17
1931.6  105581.44  1243.50  1.18
1934.3  104720.97  1233.42  1.18
1937.0  103853.66  1233.12  1.19
1939.8  102887.80  1244.05  1.21
1942.5  101778.60  1262.80  1.24
1945.2  100483.02  1276.99  1.27
1947.9  99414.28  1288.28  1.30
1950.7  98559.34  1310.69  1.33
1953.4  97352.70  1342.73  1.38
1956.1  96422.90  1371.07  1.42
1958.8  95600.18  1406.82  1.47
1961.5  94634.88  1438.88  1.52
1964.2  93649.92  1477.84  1.58
1966.9  92614.08  1524.02  1.65
1969.6  91810.80  1573.20  1.71
1972.3  90897.48  1626.92  1.79
1975.0  90216.90  1685.04  1.87
1977.7  89496.22  1752.75  1.96
1980.4  88762.50  1814.70  2.04
1983.1  88073.20  1884.54  2.14
1985.8  87476.76  1955.76  2.24
1988.4  86819.20  2028.00  2.34
1991.1  86200.38  2108.26  2.45
1993.8  85620.37  2188.63  2.56
1996.5  85222.28  2274.80  2.67
1999.1  84788.00  2362.69  2.79
2001.8  84356.30  2448.41  2.90
2004.5  83922.30  2541.37  3.03
2007.1  83444.82  2626.14  3.15
2009.8  82993.96  2721.23  3.28
2012.4  82657.96  2817.65  3.41
2015.1  82330.92  2909.43  3.53
2017.8  81812.92  2997.49  3.66
2020.4  81510.22  3088.21  3.79
2023.1  81315.64  3183.97  3.92
2025.7  81146.00  3284.67  4.05
2028.3  80943.20  3378.27  4.17
2031.0  80728.95  3464.65  4.29
2033.6  80565.48  3549.60  4.41
2036.2  80393.22  3636.60  4.52
2038.9  80022.60  3713.16  4.64
2041.5  79825.49  3795.24  4.75
2044.1  79479.72  3861.06  4.86
2046.8  79250.04  3937.62  4.97
2049.4  78822.00  3998.52  5.07
2052.0  78600.00  4071.48  5.18
2054.6  78335.25  4138.75  5.28
2057.2  78002.64  4198.99  5.38
2059.8  77834.96  4268.85  5.48
2062.4  77273.25  4316.49  5.59
2065.0  76959.88  4382.39  5.69
2067.6  76405.07  4431.55  5.80
2070.2  76018.05  4487.34  5.90
2072.8  75604.88  4543.13  6.01
2075.4  75327.00  4599.00  6.11
2078.0  74907.78  4642.87  6.20
2080.6  74553.60  4692.16  6.29
2083.2  74134.44  4742.77  6.40
2085.8  73837.97  4792.19  6.49
2088.4  73399.70  4837.13  6.59
2090.9  72875.04  4875.62  6.69
2093.5  72309.22  4905.83  6.78
2096.1  71824.83  4941.50  6.88
2098.7  71318.91  4969.61  6.97
2101.2  70692.84  4990.23  7.06
2103.8  70268.40  5019.92  7.14
2106.4  69838.72  5046.12  7.23
2108.9  69409.04  5070.57  7.31
2111.5  68848.36  5088.04  7.39
2114.0  68450.12  5119.48  7.48
2116.6  68124.00  5145.00  7.55
2119.1  67769.84  5163.57  7.62
2121.7  67441.50  5190.50  7.70
2124.2  67175.46  5221.43  7.77
2126.8  66670.77  5229.60  7.84
2129.3  66422.40  5251.84  7.91
2131.9  66031.68  5271.20  7.98
2134.4  65737.80  5290.53  8.05
2136.9  65484.38  5315.79  8.12
2139.4  65170.00  5346.60  8.20
2142.0  64898.68  5369.65  8.27
2144.5  64704.78  5400.52  8.35
2147.0  64555.84  5436.83  8.42
2149.5  64255.68  5463.63  8.50
2152.1  64157.17  5508.58  8.59
2154.6  64083.20  5546.99  8.66
2157.1  63743.20  5560.82  8.72
2159.6  63508.85  5595.33  8.81
2162.1  63417.90  5627.44  8.87
2164.6  63272.08  5657.19  8.94
2167.1  63083.99  5684.48  9.01
2169.6  62870.57  5703.27  9.07
2172.1  62557.68  5709.89  9.13
2174.6  62366.52  5734.21  9.19
2177.1  62099.93  5750.10  9.26
2179.5  61830.99  5765.15  9.32
2182.0  61508.04  5770.82  9.38
2184.5  61158.69  5778.26  9.45
2187.0  60754.44  5776.97  9.51
2189.5  60296.93  5773.45  9.58
2191.9  59793.00  5760.80  9.63
2194.4  59397.18  5758.65  9.70
2196.9  58890.24  5746.56  9.76
2199.3  58429.20  5742.00  9.83
2201.8  57821.84  5715.41  9.88
2204.3  57498.18  5703.48  9.92
2206.7  57090.60  5689.36  9.97
2209.2  56797.54  5690.82  10.02
2211.6  56382.48  5674.68  10.06
2214.1  56171.73  5675.48  10.10
2216.5  55797.52  5644.12  10.12
2219.0  55594.88  5646.11  10.16
2221.4  55352.85  5636.63  10.18
2223.9  55013.70  5610.85  10.20
2226.3  54680.50  5571.18  10.19
2228.7  54324.73  5518.85  10.16
2231.1  53899.56  5460.84  10.13
2233.6  53496.96  5401.75  10.10
2236.0  53157.30  5331.20  10.03
2238.4  52824.10  5263.77  9.96
2240.9  52507.60  5199.11  9.90
2243.3  52138.08  5117.65  9.82
2245.7  51759.90  5024.75  9.71
2248.1  51439.96  4941.47  9.61
2250.5  51094.70  4845.91  9.48
2252.9  50656.58  4744.13  9.37
2255.3  50261.43  4648.64  9.25
2257.7  49974.00  4562.00  9.13
2260.1  49652.96  4472.86  9.01
2262.5  49260.00  4372.00  8.88
2264.9  48914.34  4284.85  8.76
2267.3  48498.00  4196.00  8.65
2269.7  48166.02  4117.68  8.55
2272.1  47803.54  4034.71  8.44
2274.5  47440.80  3961.39  8.35
2276.8  47130.42  3888.47  8.25
2279.2  46732.50  3814.98  8.16
2281.6  46441.56  3750.84  8.08
2284.0  46128.72  3674.38  7.97
2286.3  45824.96  3605.44  7.87
2288.7  45556.16  3539.73  7.77
2291.1  45184.26  3467.05  7.67
2293.4  44875.60  3394.16  7.56
2295.8  44434.20  3318.66  7.47
2298.2  44035.11  3241.62  7.36
2300.5  43606.62  3165.03  7.26
2302.9  43090.00  3085.53  7.16
2305.2  42598.74  3005.54  7.06
2307.6  42147.71  2942.31  6.98
2309.9  41602.00  2878.87  6.92
2312.2  41186.60  2821.00  6.85
2314.6  40793.49  2767.59  6.78
2316.9  40340.16  2705.49  6.71
2319.2  39944.84  2651.79  6.64
2321.6  39529.35  2593.76  6.56
2323.9  39156.25  2537.50  6.48
2326.2  38799.48  2478.96  6.39
2328.6  38460.18  2426.49  6.31
2330.9  38102.40  2379.30  6.24
2333.2  37769.80  2330.45  6.17
2335.5  37479.96  2279.10  6.08
2337.8  37170.15  2227.84  5.99
2340.1  36756.07  2180.39  5.93
2342.4  36478.00  2142.83  5.87
2344.8  36208.40  2096.00  5.79
2347.1  35788.62  2050.77  5.73
2349.4  35403.16  2002.83  5.66
2351.6  35033.00  1947.75  5.56
2353.9  34708.66  1904.35  5.49
2356.2  34357.17  1867.60  5.44
2358.5  33956.16  1818.88  5.36
2360.8  33559.68  1774.08  5.29
2363.1  33252.93  1734.10  5.21
2365.4  32937.24  1692.74  5.14
2367.7  32606.28  1653.00  5.07
2369.9  32247.78  1614.45  5.01
2372.2  31833.76  1566.35  4.92
2374.5  31427.55  1526.91  4.86
2376.7  30988.62  1482.29  4.78
2379.0  30572.40  1428.57  4.67
2381.3  30170.00  1395.33  4.62
2383.5  29821.44  1358.72  4.56
2385.8  29397.84  1313.16  4.47
2388.0  29042.16  1269.68  4.37
2390.3  28679.36  1231.76  4.29
2392.5  28339.20  1202.40  4.24
2394.8  28030.86  1156.76  4.13
2397.0  27693.12  1121.12  4.05
2399.3  27383.26  1089.19  3.98
2401.5  27092.10  1055.95  3.90
2403.8  26722.24  1022.28  3.83
2406.0  26373.00  985.88  3.74
2408.2  26097.72  952.45  3.65
2410.4  25803.05  918.77  3.56
2412.7  25522.90  894.75  3.51
2414.9  25274.70  875.38  3.46
2417.1  25001.22  840.74  3.36
2419.3  24721.92  811.52  3.28
2421.6  24466.75  793.08  3.24
2423.8  24180.24  778.00  3.22
2426.0  23923.09  740.05  3.09
2428.2  23692.48  708.21  2.99
2430.4  23470.64  698.72  2.98
2432.6  23296.00  682.67  2.93
2434.8  23097.60  652.29  2.82
2437.0  22833.98  623.31  2.73
2439.2  22586.35  605.55  2.68
2441.4  22355.94  594.41  2.66
2443.6  22208.91  577.54  2.60
2445.7  22057.84  558.11  2.53
2447.9  21868.65  537.18  2.46
2450.1  21656.67  525.47  2.43
2452.3  21395.22  508.20  2.38
2454.5  21155.86  485.07  2.29
2456.6  20903.52  462.24  2.21
2458.8  20643.48  449.02  2.18
2461.0  20431.30  438.27  2.15
2463.1  20218.68  424.86  2.10
2465.3  20027.18  409.73  2.05
2467.5  19868.25  401.20  2.02
2469.6  19707.90  396.78  2.01
2471.8  19488.63  375.42  1.93
2473.9  19276.50  352.95  1.83
2476.1  19019.00  351.87  1.85
2478.2  18782.70  353.41  1.88
2480.4  18567.36  353.05  1.90
2482.5  18347.75  334.44  1.82
2484.6  18120.30  324.13  1.79
2486.8  17945.10  304.58  1.70
2488.9  17737.31  299.88  1.69
2491.1  17507.28  291.95  1.67
2493.2  17234.42  281.01  1.63
2495.3  16960.06  272.57  1.61
2497.4  16731.12  257.60  1.54
2499.5  16477.87  252.46  1.53
2501.7  16397.18  262.93  1.60
2503.8  16358.93  267.47  1.63
2505.9  16307.75  266.50  1.63
2508.0  16311.52  255.74  1.57
2510.1  16320.33  261.10  1.60
2512.2  16393.89  260.57  1.59
2514.3  16515.50  250.58  1.52
2516.4  16713.48  283.68  1.70
