/*** Spectra Vista SIG Data ***/
name= 34_20220825_QUPA_14_avg.sig
comm= Averaged Ref/Tar of files: HR.082522.0022_moc.sig,HR.082522.0023_moc.sig,HR.082522.0024_moc.sig
data=
337.3  3424.13  253.32  7.40
338.8  3607.50  239.13  6.63
340.3  3748.00  239.16  6.38
341.8  3978.08  239.51  6.02
343.2  4173.60  238.49  5.71
344.7  4307.65  229.09  5.32
346.2  4493.50  219.42  4.88
347.7  4719.00  223.97  4.75
349.2  4914.00  218.88  4.45
350.6  5178.23  217.55  4.20
352.1  5465.93  206.86  3.78
353.6  5725.50  213.49  3.73
355.1  6027.83  214.88  3.56
356.6  6325.58  216.63  3.42
358.0  6667.10  222.39  3.34
359.5  6952.50  226.60  3.26
361.0  7271.78  231.99  3.19
362.5  7640.78  229.74  3.01
364.0  8029.00  241.96  3.01
365.4  8373.80  239.79  2.86
366.9  8757.13  249.41  2.85
368.4  9137.13  256.13  2.80
369.9  9539.83  266.13  2.79
371.3  9959.10  283.78  2.85
372.8  10381.05  295.34  2.84
374.3  10830.63  292.81  2.70
375.8  11265.10  296.19  2.63
377.2  11701.50  304.35  2.60
378.7  12131.90  304.35  2.51
380.2  12562.30  300.77  2.39
381.7  13080.10  311.95  2.38
383.1  13609.75  320.83  2.36
384.6  14134.90  327.30  2.32
386.1  14620.53  334.08  2.29
387.6  15118.95  341.88  2.26
389.0  15624.40  346.10  2.22
390.5  16115.85  355.01  2.20
392.0  16716.40  360.73  2.16
393.4  17288.95  370.35  2.14
394.9  17878.50  379.82  2.12
396.4  18448.88  383.94  2.08
397.9  19039.38  395.36  2.08
399.3  19601.55  408.09  2.08
400.8  20164.33  422.06  2.09
402.2  20842.95  433.48  2.08
403.7  21474.90  441.60  2.06
405.2  22136.13  449.60  2.03
406.6  22736.00  464.88  2.04
408.1  23345.80  470.51  2.02
409.6  23969.40  484.99  2.02
411.0  24659.25  501.01  2.03
412.5  25344.03  510.51  2.01
414.0  26018.88  527.42  2.03
415.4  26771.63  545.14  2.04
416.9  27466.88  559.53  2.04
418.4  28199.25  573.77  2.03
419.8  28919.80  588.29  2.03
421.3  29660.80  604.69  2.04
422.7  30484.80  630.71  2.07
424.2  31303.13  650.89  2.08
425.7  32111.00  670.32  2.09
427.1  32900.18  685.45  2.08
428.6  33712.50  704.73  2.09
430.0  34477.60  719.15  2.09
431.5  35387.18  743.41  2.10
432.9  36302.70  765.15  2.11
434.4  37245.00  789.92  2.12
435.9  38108.00  809.07  2.12
437.3  38981.25  828.40  2.13
438.8  39842.63  852.51  2.14
440.2  40734.93  872.15  2.14
441.7  41754.40  894.35  2.14
443.1  42691.50  921.19  2.16
444.6  43701.60  948.44  2.17
446.0  44672.93  975.47  2.18
447.5  45676.95  1002.98  2.20
448.9  46646.40  1033.97  2.22
450.4  47681.90  1058.69  2.22
451.8  48594.00  1086.55  2.24
453.3  49554.25  1110.75  2.24
454.7  50618.35  1137.32  2.25
456.2  51524.60  1165.06  2.26
457.6  52542.45  1194.24  2.27
459.1  53539.85  1221.33  2.28
460.5  54516.50  1247.82  2.29
462.0  55628.33  1274.96  2.29
463.4  56704.30  1300.85  2.29
464.8  57733.88  1325.66  2.30
466.3  58778.78  1352.81  2.30
467.7  59804.68  1384.44  2.31
469.2  60916.60  1410.18  2.31
470.6  61918.35  1437.38  2.32
472.0  62999.70  1467.55  2.33
473.5  64056.88  1494.02  2.33
474.9  65136.75  1524.07  2.34
476.4  66340.80  1555.20  2.34
477.8  67454.00  1582.02  2.35
479.2  68527.00  1617.10  2.36
480.7  69668.18  1647.94  2.37
482.1  70862.80  1683.36  2.38
483.6  72105.50  1718.31  2.38
485.0  73243.50  1754.37  2.40
486.4  74496.00  1795.89  2.41
487.9  75611.25  1839.96  2.43
489.3  76835.05  1885.36  2.45
490.7  77954.15  1933.04  2.48
492.2  79247.70  1991.36  2.51
493.6  80399.20  2044.86  2.54
495.0  81563.63  2111.29  2.59
496.5  82796.35  2183.36  2.64
497.9  83955.68  2259.67  2.69
499.3  85159.03  2346.60  2.76
500.7  86464.30  2451.43  2.84
502.2  87673.00  2567.38  2.93
503.6  88972.40  2706.42  3.04
505.0  90082.85  2860.52  3.18
506.5  91442.48  3048.43  3.33
507.9  92715.55  3257.83  3.51
509.3  94142.80  3510.28  3.73
510.7  95457.38  3787.74  3.97
512.2  96924.60  4108.69  4.24
513.6  98441.00  4482.67  4.55
515.0  99916.40  4903.70  4.91
516.4  101351.25  5366.79  5.30
517.8  103013.63  5888.91  5.72
519.3  104394.28  6432.68  6.16
520.7  106007.25  7021.25  6.62
522.1  107355.95  7621.03  7.10
523.5  108781.40  8237.27  7.57
524.9  110232.90  8855.46  8.03
526.3  111643.00  9454.05  8.47
527.8  113231.25  10054.44  8.88
529.2  114536.30  10617.88  9.27
530.6  116134.65  11183.20  9.63
532.0  117908.00  11722.67  9.94
533.4  119269.95  12184.92  10.22
534.8  120215.25  12563.25  10.45
536.3  121943.70  12992.39  10.65
537.7  123996.60  13432.08  10.83
539.1  125505.48  13786.63  10.98
540.5  126753.95  14095.52  11.12
541.9  128606.55  14462.39  11.25
543.3  129929.38  14767.27  11.37
544.7  131328.00  15090.78  11.49
546.1  133169.03  15462.64  11.61
547.5  134433.60  15758.93  11.72
549.0  136268.00  16103.37  11.82
550.4  137816.88  16395.49  11.90
551.8  139414.15  16657.57  11.95
553.2  141014.45  16879.51  11.97
554.6  142407.20  17021.14  11.95
556.0  143999.55  17123.43  11.89
557.4  145654.78  17178.44  11.79
558.8  147352.95  17193.81  11.67
560.2  148860.50  17140.69  11.51
561.6  150578.70  17072.77  11.34
563.0  152233.18  16959.72  11.14
564.4  153882.30  16816.70  10.93
565.8  155443.75  16627.42  10.70
567.2  157261.75  16422.52  10.44
568.6  158818.50  16151.34  10.17
570.0  160311.83  15831.39  9.88
571.4  162114.55  15518.20  9.57
572.8  163926.88  15201.20  9.27
574.2  165614.40  14882.99  8.99
575.6  167208.75  14583.64  8.72
577.0  168776.80  14305.15  8.48
578.4  170579.50  14075.53  8.25
579.8  172147.95  13851.96  8.05
581.2  173925.95  13673.49  7.86
582.5  175394.70  13497.34  7.70
583.9  176964.60  13353.10  7.55
585.3  178827.30  13249.70  7.41
586.7  180350.95  13144.36  7.29
588.1  181911.38  13061.97  7.18
589.5  183615.25  13014.63  7.09
590.9  185293.20  12992.13  7.01
592.3  187170.70  13003.95  6.95
593.7  188654.70  13015.90  6.90
595.0  190335.83  13052.92  6.86
596.4  191841.30  13081.97  6.82
597.8  193379.25  13108.62  6.78
599.2  194977.20  13130.35  6.73
600.6  196783.60  13141.50  6.68
602.0  198126.15  13091.80  6.61
603.3  199984.45  13044.65  6.52
604.7  201719.93  12948.53  6.42
606.1  203260.20  12801.93  6.30
607.5  204948.15  12631.43  6.16
608.9  206703.60  12439.20  6.02
610.2  208117.35  12214.80  5.87
611.6  209789.63  11996.98  5.72
613.0  211389.05  11777.99  5.57
614.4  212822.85  11554.09  5.43
615.8  214329.38  11350.67  5.30
617.1  215898.90  11176.20  5.18
618.5  217589.60  11037.98  5.07
619.9  219158.70  10923.96  4.98
621.3  220833.68  10846.25  4.91
622.6  222482.25  10794.39  4.85
624.0  223978.65  10761.44  4.80
625.4  225484.88  10756.04  4.77
626.8  227122.35  10775.31  4.74
628.1  228480.45  10801.52  4.73
629.5  230408.08  10866.21  4.72
630.9  232065.35  10923.56  4.71
632.2  233491.13  10962.62  4.70
633.6  235177.63  10989.68  4.67
635.0  236758.00  10985.72  4.64
636.3  238359.40  10936.57  4.59
637.7  239775.00  10839.68  4.52
639.1  241465.00  10710.00  4.44
640.4  242978.23  10546.08  4.34
641.8  244238.15  10337.14  4.23
643.2  245879.03  10128.33  4.12
644.5  247305.75  9896.02  4.00
645.9  249056.55  9681.86  3.89
647.2  250855.33  9488.81  3.78
648.6  252740.25  9328.11  3.69
650.0  254318.40  9175.68  3.61
651.3  254909.60  9005.22  3.53
652.7  256154.65  8861.74  3.46
654.0  258289.10  8748.67  3.39
655.4  259817.20  8612.42  3.31
656.8  260142.00  8418.02  3.24
658.1  261322.40  8244.64  3.15
659.5  263743.73  8090.02  3.07
660.8  265545.00  7918.29  2.98
662.2  266470.40  7723.52  2.90
663.5  268214.35  7578.68  2.83
664.9  269575.80  7460.54  2.77
666.2  270396.00  7357.29  2.72
667.6  272253.38  7311.97  2.69
668.9  273408.45  7287.80  2.67
670.3  274586.00  7281.04  2.65
671.6  276230.63  7334.54  2.66
673.0  277469.63  7396.91  2.67
674.3  278747.30  7476.96  2.68
675.7  280109.68  7582.03  2.71
677.0  281281.28  7706.23  2.74
678.4  282712.90  7861.46  2.78
679.7  283858.20  8031.78  2.83
681.1  285231.08  8251.85  2.89
682.4  286438.10  8498.61  2.97
683.8  287719.90  8804.64  3.06
685.1  288753.38  9185.46  3.18
686.4  290131.80  9684.70  3.34
687.8  291452.75  10346.46  3.55
689.1  292565.25  11227.56  3.84
690.5  294014.25  12442.78  4.23
691.8  294894.48  14041.52  4.76
693.1  296307.30  16164.77  5.46
694.5  297524.50  18800.60  6.32
695.8  298798.50  21945.30  7.34
697.1  300049.75  25550.63  8.52
698.5  301183.60  29565.78  9.82
699.8  302325.78  33903.23  11.21
701.1  303527.55  38492.65  12.68
702.5  304334.80  43181.32  14.19
703.8  305370.00  47935.71  15.70
705.1  306572.18  52713.27  17.19
706.5  307723.38  57430.87  18.66
707.8  308765.25  62054.67  20.10
709.1  309692.40  66554.01  21.49
710.5  310897.95  71004.98  22.84
711.8  311798.60  75269.08  24.14
713.1  312869.00  79479.32  25.40
714.4  313850.20  83551.94  26.62
715.8  314742.20  87482.69  27.80
717.1  316140.75  91446.83  28.93
718.4  317161.60  95161.17  30.00
719.7  318335.90  98800.10  31.04
721.0  318870.00  102127.71  32.03
722.4  319691.35  105380.66  32.96
723.7  320724.00  108562.10  33.85
725.0  321831.45  111627.36  34.69
726.3  322836.80  114502.37  35.47
727.6  323453.08  117081.38  36.20
729.0  324411.68  119640.99  36.88
730.3  325228.13  122011.45  37.52
731.6  326206.65  124285.07  38.10
732.9  327060.30  126377.49  38.64
734.2  327951.25  128363.92  39.14
735.5  329020.65  130300.72  39.60
736.8  329880.30  132018.93  40.02
738.1  330752.10  133645.16  40.41
739.5  331753.53  135215.61  40.76
740.8  332492.88  136572.83  41.08
742.1  333298.08  137873.11  41.37
743.4  334075.00  139092.38  41.64
744.7  335154.78  140331.68  41.87
746.0  336115.65  141434.17  42.08
747.3  336700.28  142316.22  42.27
748.6  337505.25  143224.93  42.44
749.9  338286.00  144074.17  42.59
751.2  339087.05  144871.50  42.72
752.5  340054.60  145698.34  42.85
753.8  340748.10  146353.76  42.95
755.1  341510.00  146997.07  43.04
756.4  342116.73  147551.85  43.13
757.7  343147.00  148255.00  43.20
759.0  345042.33  149287.69  43.27
760.3  346315.20  150027.43  43.32
761.6  348007.80  150919.79  43.37
762.9  348606.00  151317.36  43.41
764.2  349027.50  151623.26  43.44
765.5  349352.18  151874.84  43.47
766.8  349846.40  152183.74  43.50
768.1  350418.60  152511.01  43.52
769.3  351072.05  152878.69  43.55
770.6  351806.65  153252.25  43.56
771.9  352581.95  153654.11  43.58
773.2  353040.40  153886.35  43.59
774.5  353724.80  154227.00  43.60
775.8  354451.10  154598.63  43.62
777.1  355105.30  154917.54  43.63
778.4  355483.43  155125.24  43.64
779.6  356343.30  155530.26  43.65
780.9  356880.00  155789.14  43.65
782.2  357373.50  156052.55  43.67
783.5  357734.50  156252.95  43.68
784.8  358340.63  156536.98  43.68
786.0  358816.85  156767.57  43.69
787.3  359255.65  156991.90  43.70
788.6  359749.80  157236.72  43.71
789.9  360253.60  157490.51  43.72
791.2  360963.58  157832.39  43.73
792.4  361735.75  158185.16  43.73
793.7  362256.40  158443.87  43.74
795.0  362976.08  158769.40  43.74
796.2  363709.08  159109.09  43.75
797.5  364508.33  159473.74  43.75
798.8  365248.03  159826.22  43.76
800.0  365989.83  160177.35  43.77
801.3  366523.30  160443.53  43.77
802.6  367226.78  160752.46  43.77
803.8  367920.98  161084.59  43.78
805.1  368461.63  161331.70  43.79
806.4  368960.40  161583.19  43.79
807.7  369552.38  161863.96  43.80
808.9  370219.75  162159.61  43.80
810.2  370820.80  162443.53  43.81
811.4  371406.20  162702.12  43.81
812.7  372084.38  163037.80  43.82
814.0  372942.45  163456.42  43.83
815.2  373620.75  163765.77  43.83
816.5  374091.48  163998.01  43.84
817.7  374637.55  164240.38  43.84
819.0  375234.20  164512.46  43.84
820.2  375452.00  164617.83  43.85
821.5  376220.90  164980.47  43.85
822.7  376597.45  165178.72  43.86
824.0  376976.70  165350.16  43.86
825.2  377536.95  165602.07  43.86
826.5  377869.08  165768.66  43.87
827.7  378485.03  166053.07  43.87
829.0  378934.33  166263.62  43.88
830.2  379232.05  166431.75  43.89
831.5  379735.80  166672.81  43.89
832.7  380104.20  166843.88  43.89
834.0  380489.10  167025.44  43.90
835.2  380911.30  167210.59  43.90
836.4  381239.10  167354.38  43.90
837.7  381676.40  167575.04  43.91
838.9  382165.43  167827.69  43.91
840.1  382538.70  168023.78  43.92
841.4  382993.90  168274.43  43.94
842.6  383387.40  168462.23  43.94
843.8  383830.00  168655.26  43.94
845.1  384409.95  168888.62  43.93
846.3  384760.20  169124.83  43.96
847.5  385253.40  169344.92  43.96
848.8  385693.80  169578.02  43.97
850.0  386111.95  169775.53  43.97
851.2  386664.30  170037.54  43.98
852.5  387086.00  170223.53  43.98
853.7  387585.00  170476.50  43.98
854.9  388073.10  170705.45  43.99
856.1  388577.80  170959.69  44.00
857.4  388840.73  171076.61  44.00
858.6  389382.80  171326.86  44.00
859.8  389818.13  171537.29  44.00
861.0  390241.80  171781.41  44.02
862.2  390770.35  172006.92  44.02
863.5  391158.95  172196.68  44.02
864.7  391749.60  172468.56  44.03
865.9  392249.60  172681.54  44.02
867.1  392624.25  172858.48  44.03
868.3  393037.35  173071.73  44.03
869.5  393531.30  173306.22  44.04
870.8  394128.00  173570.49  44.04
872.0  394744.13  173829.55  44.04
873.2  395204.55  174033.35  44.04
874.4  395664.75  174251.94  44.04
875.6  396162.65  174494.52  44.05
876.8  396717.35  174723.23  44.04
878.0  397227.25  174978.28  44.05
879.2  397711.80  175202.26  44.05
880.4  398389.50  175448.44  44.04
881.6  398940.28  175677.58  44.04
882.8  399409.60  175877.84  44.03
884.0  400063.08  176197.44  44.04
885.2  400613.60  176474.12  44.05
886.5  401335.45  176745.50  44.04
887.7  401871.60  176984.01  44.04
888.8  402614.03  177271.70  44.03
890.0  403174.45  177525.13  44.03
891.2  403847.00  177839.03  44.04
892.4  404521.43  178094.95  44.03
893.6  405248.10  178420.01  44.03
894.8  406249.00  178858.30  44.03
896.0  407123.50  179239.83  44.03
897.2  408037.50  179609.42  44.02
898.4  408893.10  179987.59  44.02
899.6  409475.25  180275.56  44.03
900.8  409997.83  180469.53  44.02
902.0  410260.20  180576.42  44.02
903.2  410658.60  180715.83  44.01
904.3  411003.30  180901.64  44.01
905.5  411779.10  181220.28  44.01
906.7  412459.00  181541.63  44.01
907.9  413158.20  181779.08  44.00
909.1  413500.28  181908.76  43.99
910.2  413776.95  181977.49  43.98
911.4  413981.10  182123.82  43.99
912.6  414363.95  182227.76  43.98
913.8  414652.13  182419.94  43.99
915.0  415208.85  182588.84  43.98
916.2  415486.50  182725.21  43.98
917.3  415488.15  182701.24  43.97
918.5  415799.60  182819.00  43.97
919.7  416224.20  182919.65  43.95
920.8  416368.25  182968.92  43.94
922.0  416512.25  183044.40  43.95
923.2  416871.00  183201.20  43.95
924.4  417200.63  183284.94  43.93
925.5  417532.80  183386.80  43.92
926.7  418155.38  183633.92  43.92
927.9  419050.80  183972.51  43.90
929.0  420701.85  184596.17  43.88
930.2  422981.80  185629.38  43.89
931.4  425659.05  186750.63  43.87
932.5  428633.90  187964.37  43.85
933.7  430177.50  188531.55  43.83
934.9  430911.25  188804.83  43.82
936.0  430499.88  188593.69  43.81
937.2  428515.50  187642.36  43.79
938.3  426901.10  186835.49  43.77
939.5  425199.60  186052.32  43.76
940.7  425452.50  186123.50  43.75
941.8  427159.88  186719.03  43.71
943.0  428586.75  187335.03  43.71
944.2  429592.80  187649.39  43.68
945.3  429409.50  187391.84  43.64
946.5  428967.90  186963.74  43.58
947.6  429075.00  186962.28  43.57
948.8  428795.25  186818.36  43.57
949.9  429147.60  186721.60  43.51
951.1  428722.45  186476.79  43.50
952.2  428808.00  186222.86  43.43
953.4  428593.00  185968.39  43.39
954.5  428571.00  185797.34  43.35
955.7  428614.20  185558.40  43.29
956.8  428609.30  185306.31  43.23
958.0  428159.50  185005.24  43.21
959.1  427974.60  184737.64  43.17
960.3  427753.50  184496.90  43.13
961.4  427819.20  184392.04  43.10
962.6  427953.75  184338.07  43.07
963.7  427846.80  184166.65  43.04
964.9  427746.60  184180.63  43.06
966.0  427939.20  184029.53  43.00
967.2  427923.00  183989.28  43.00
968.3  427647.60  183897.77  43.00
969.5  427470.18  183789.94  42.99
970.6  427601.73  183783.09  42.98
971.8  427878.33  183886.87  42.98
972.9  427748.25  183760.77  42.96
974.0  427906.70  183795.18  42.95
975.2  428111.88  183713.68  42.91
976.3  428078.85  183633.09  42.90
977.5  428472.28  183641.78  42.86
978.6  428107.00  183596.36  42.89
979.7  428547.53  183683.45  42.86
980.9  428829.68  183642.43  42.82
982.0  428595.35  183505.45  42.82
983.2  428666.08  183436.67  42.79
984.3  428514.40  183327.93  42.78
985.4  428145.50  183270.52  42.81
986.6  428045.13  183114.53  42.78
987.7  429164.05  183505.06  42.76
988.9  429496.20  183564.24  42.74
990.0  430798.40  183907.12  42.69
993.1  374021.49  159384.35  42.61
996.9  374770.95  160002.10  42.69
1000.7  375953.78  160789.75  42.77
1004.5  376595.00  161348.50  42.84
1008.4  376490.08  161597.84  42.92
1012.2  376581.88  161907.50  42.99
1016.0  376767.60  162222.68  43.06
1019.8  377043.98  162554.70  43.11
1023.7  377140.17  162742.65  43.15
1027.5  376918.53  162838.57  43.20
1031.3  377231.75  163112.40  43.24
1035.1  377074.31  163214.07  43.28
1038.9  377129.13  163351.99  43.31
1042.7  377005.83  163426.31  43.35
1046.5  376896.83  163471.00  43.37
1050.3  376965.70  163573.26  43.39
1054.2  376688.67  163544.75  43.42
1058.0  376218.44  163363.89  43.42
1061.8  376095.50  163381.75  43.44
1065.6  375837.13  163269.78  43.44
1069.4  375900.27  163298.24  43.44
1073.2  375563.48  163108.12  43.43
1077.0  375102.33  162868.47  43.42
1080.8  374643.75  162581.25  43.40
1084.6  373598.87  162056.30  43.38
1088.4  372898.54  161735.27  43.37
1092.2  372060.00  161288.68  43.35
1096.0  371431.27  160938.97  43.33
1099.8  370941.78  160609.12  43.30
1103.6  370268.27  160187.29  43.26
1107.4  369352.38  159634.21  43.22
1111.2  369130.20  159385.80  43.18
1114.9  368480.00  158918.75  43.13
1118.7  367864.20  158422.27  43.07
1122.5  367186.73  157822.48  42.98
1126.3  366045.58  156979.50  42.89
1130.1  365524.58  156231.12  42.74
1133.9  363920.90  154800.60  42.54
1137.7  362498.50  153285.82  42.29
1141.4  360703.42  151446.39  41.99
1145.2  359988.02  149909.69  41.64
1149.0  358884.17  148293.13  41.32
1152.8  357251.60  146581.03  41.03
1156.6  355582.15  145091.28  40.80
1160.3  353806.67  143816.95  40.65
1164.1  351383.33  142450.46  40.54
1167.9  349576.04  141470.54  40.47
1171.7  348279.75  140771.25  40.42
1175.4  347071.10  140168.16  40.39
1179.2  346034.10  139592.92  40.34
1183.0  345746.33  139315.52  40.29
1186.7  345251.67  138962.53  40.25
1190.5  344207.07  138430.02  40.22
1194.3  342966.33  137884.11  40.20
1198.0  341735.90  137377.16  40.20
1201.8  340262.65  136787.89  40.20
1205.6  339020.00  136360.95  40.22
1209.3  338043.90  136116.47  40.27
1213.1  337046.25  135880.57  40.32
1216.8  336034.60  135717.12  40.39
1220.6  334898.67  135499.47  40.46
1224.3  333624.33  135215.35  40.53
1228.1  332341.40  134957.48  40.61
1231.9  331092.08  134656.23  40.67
1235.6  329606.93  134230.32  40.72
1239.4  328247.00  133863.20  40.78
1243.1  327003.83  133476.21  40.82
1246.9  325776.37  133079.84  40.85
1250.6  324808.53  132745.10  40.87
1254.3  323739.81  132364.00  40.89
1258.1  322737.33  131981.55  40.89
1261.8  321439.07  131474.10  40.90
1265.6  320022.40  130868.26  40.89
1269.3  318579.28  130228.20  40.88
1273.1  318531.23  130133.41  40.85
1276.8  318783.20  130129.31  40.82
1280.6  318626.27  129930.29  40.78
1284.3  317274.40  129203.89  40.72
1288.0  315802.97  128399.66  40.66
1291.8  314487.39  127603.82  40.58
1295.5  313067.33  126743.47  40.48
1299.2  311755.61  125887.19  40.38
1302.9  310293.67  124882.27  40.25
1306.7  308719.60  123776.45  40.09
1310.4  307211.35  122582.10  39.90
1314.1  305824.57  121368.13  39.69
1317.9  304577.29  120108.90  39.43
1321.6  303149.71  118685.98  39.15
1325.3  301485.45  117065.03  38.83
1329.0  300118.82  115504.88  38.49
1332.8  298020.80  113559.60  38.10
1336.5  296188.60  111712.74  37.72
1340.2  295810.67  110393.83  37.32
1343.9  295330.63  109037.23  36.92
1347.6  294646.95  107611.46  36.52
1351.4  294825.50  106551.43  36.14
1355.1  295167.77  105584.86  35.77
1358.8  295296.00  104496.00  35.39
1362.5  294789.38  103078.65  34.97
1366.2  293041.75  101032.09  34.48
1369.9  291147.50  98688.07  33.90
1373.6  289118.61  95929.49  33.18
1377.3  287249.40  92699.27  32.27
1381.0  286036.83  88955.93  31.10
1384.8  284001.25  84135.53  29.63
1388.4  281578.38  78692.80  27.95
1392.2  279673.08  72967.78  26.09
1395.9  278081.83  67160.78  24.15
1399.6  276428.50  61548.50  22.27
1403.3  275219.29  56507.13  20.53
1407.0  274074.90  52119.51  19.02
1410.7  272901.75  48460.38  17.76
1414.3  271685.58  45525.30  16.76
1418.1  270494.29  43284.15  16.00
1421.7  269583.77  41604.41  15.43
1425.4  268641.43  40376.19  15.03
1429.1  267771.00  39507.16  14.75
1432.8  266256.00  38840.01  14.59
1436.5  265450.93  38481.23  14.50
1440.2  264586.63  38285.11  14.47
1443.9  263280.88  38131.63  14.48
1447.6  261646.00  38027.00  14.53
1451.2  260554.98  38046.02  14.60
1454.9  259261.95  38084.94  14.69
1458.6  258173.14  38250.91  14.82
1462.3  256994.83  38523.99  14.99
1466.0  255618.28  38912.88  15.22
1469.7  253926.08  39421.59  15.52
1473.3  252908.33  40158.07  15.88
1477.0  250989.03  40867.81  16.28
1480.7  249399.52  41681.01  16.71
1484.4  247483.10  42458.11  17.16
1488.0  245930.67  43331.62  17.62
1491.7  244308.28  44175.23  18.08
1495.4  242556.39  44997.73  18.55
1499.0  240961.00  45807.57  19.01
1502.7  239633.83  46668.81  19.48
1506.4  238204.75  47470.70  19.93
1510.0  236777.03  48245.32  20.38
1513.7  235298.00  48967.34  20.81
1517.4  233963.00  49681.38  21.23
1521.0  232717.87  50383.75  21.65
1524.7  231501.83  51019.89  22.04
1528.3  230209.25  51614.77  22.42
1532.0  228986.45  52179.23  22.79
1535.7  227581.53  52648.27  23.13
1539.3  226320.96  53116.00  23.47
1543.0  225324.04  53621.90  23.80
1546.6  224629.17  54162.49  24.11
1550.3  223647.90  54590.27  24.41
1553.9  222568.67  54968.57  24.70
1557.6  221303.13  55265.57  24.97
1561.2  220033.35  55519.01  25.23
1564.9  218698.36  55736.24  25.49
1568.5  217371.35  55926.03  25.73
1572.2  216229.50  56133.76  25.96
1575.8  215124.00  56350.00  26.19
1579.5  214121.00  56561.42  26.42
1583.1  213131.30  56759.91  26.63
1586.8  211890.00  56878.00  26.84
1590.4  210836.80  57025.45  27.05
1594.0  209511.58  57082.94  27.25
1597.7  208353.78  57181.04  27.44
1601.3  207040.05  57224.48  27.64
1604.9  205738.33  57244.38  27.82
1608.6  204380.40  57223.80  28.00
1612.2  203306.40  57252.06  28.16
1615.8  202148.38  57237.61  28.31
1619.5  201026.25  57205.45  28.46
1623.1  199737.30  57103.71  28.59
1626.7  198486.93  56988.06  28.71
1630.3  197254.83  56857.54  28.82
1634.0  196140.00  56736.00  28.93
1637.6  195132.80  56612.30  29.01
1641.2  194100.75  56434.83  29.08
1644.8  192875.03  56145.12  29.11
1648.5  191787.58  55867.42  29.13
1652.1  190815.30  55570.11  29.12
1655.7  189854.00  55246.12  29.10
1659.3  188971.28  54928.26  29.07
1662.9  187524.17  54436.43  29.03
1666.6  186059.80  53949.69  29.00
1670.2  184628.09  53473.89  28.96
1673.8  183164.91  52972.45  28.92
1677.4  182003.70  52532.95  28.86
1681.0  181187.48  52151.90  28.78
1684.6  180801.83  51848.80  28.68
1688.2  180129.50  51388.76  28.53
1691.8  179457.75  50978.69  28.41
1695.4  179019.40  50608.80  28.27
1699.0  178656.80  50249.77  28.13
1702.6  178335.33  49884.10  27.97
1706.2  177726.79  49426.76  27.81
1709.8  176794.88  48874.73  27.64
1713.4  176059.63  48376.54  27.48
1717.0  175200.50  47857.43  27.32
1720.6  174404.10  47358.10  27.15
1724.2  173697.15  46890.09  27.00
1727.8  172984.70  46440.00  26.85
1731.4  172500.63  46075.07  26.71
1735.0  172283.10  45823.90  26.60
1738.6  172004.85  45535.57  26.47
1742.2  171367.08  45120.39  26.33
1745.8  170681.98  44661.22  26.17
1749.4  169666.20  44093.78  25.99
1753.0  168148.33  43380.16  25.80
1756.6  166455.33  42634.09  25.61
1760.1  165086.21  41992.14  25.44
1763.7  163376.67  41279.52  25.27
1767.3  161947.60  40679.84  25.12
1770.9  160707.34  40153.63  24.99
1774.5  159253.45  39602.23  24.87
1778.0  158084.48  39146.76  24.76
1781.6  156984.30  38736.39  24.68
1785.2  155824.28  38337.36  24.60
1788.8  154654.20  37967.87  24.55
1792.3  153430.13  37626.33  24.52
1795.9  152933.73  37476.55  24.51
1799.5  152421.00  37342.62  24.50
1803.1  151768.52  37197.88  24.51
1806.6  152195.40  37322.83  24.52
1810.2  153250.30  37610.57  24.54
1813.8  154144.80  37841.28  24.55
1817.3  154140.20  37843.51  24.55
1820.9  153346.95  37639.21  24.55
1824.5  152166.85  37317.92  24.52
1828.0  151312.33  37047.67  24.48
1831.6  150561.75  36777.93  24.43
1835.2  149869.17  36477.14  24.34
1838.7  149504.40  36171.39  24.19
1842.3  149145.00  35807.14  24.01
1845.8  148375.04  35236.37  23.75
1849.4  147863.63  34602.10  23.40
1852.9  147238.82  33782.41  22.94
1856.5  146355.45  32707.62  22.35
1860.0  145587.12  31441.17  21.60
1863.6  145315.03  30057.23  20.68
1867.1  145174.75  28444.50  19.59
1870.7  145148.13  26479.74  18.24
1874.2  144408.15  24040.35  16.65
1877.8  143172.07  21392.31  14.94
1881.3  141699.00  18648.95  13.16
1884.9  140729.97  16072.93  11.42
1888.4  139717.45  13642.24  9.76
1891.9  138676.93  11541.82  8.32
1895.5  137574.42  9838.09  7.15
1899.0  136986.63  8588.98  6.27
1901.3  168067.67  6950.17  4.14
1904.1  167990.25  6181.25  3.68
1906.8  167254.20  5593.00  3.34
1909.6  165550.70  5102.53  3.08
1912.4  163960.77  4753.78  2.90
1915.1  162800.00  4524.48  2.78
1917.9  161477.00  4356.78  2.70
1920.6  160410.43  4232.00  2.64
1923.3  159371.33  4152.71  2.61
1926.1  158063.93  4073.28  2.58
1928.8  156874.67  4052.89  2.58
1931.6  155921.08  4062.10  2.61
1934.3  155021.00  4085.42  2.64
1937.0  154152.23  4130.79  2.68
1939.8  153201.17  4185.44  2.73
1942.5  151976.00  4253.33  2.80
1945.2  150344.15  4326.30  2.88
1947.9  148995.00  4411.32  2.96
1950.7  147945.47  4525.22  3.06
1953.4  146248.70  4628.57  3.16
1956.1  144922.50  4749.14  3.28
1958.8  143746.85  4891.25  3.40
1961.5  142296.40  5023.20  3.53
1964.2  140804.30  5174.87  3.68
1966.9  139252.35  5327.43  3.83
1969.6  138024.00  5490.00  3.98
1972.3  136641.70  5651.50  4.14
1975.0  135617.40  5835.10  4.30
1977.7  134515.88  6024.72  4.48
1980.4  133384.83  6221.41  4.66
1983.1  132284.13  6424.18  4.86
1985.8  131370.00  6635.20  5.05
1988.4  130346.67  6840.89  5.25
1991.1  129430.93  7047.68  5.45
1993.8  128560.67  7263.85  5.65
1996.5  127923.03  7493.63  5.86
1999.1  127242.32  7714.79  6.06
2001.8  126547.40  7934.04  6.27
2004.5  125866.15  8151.18  6.48
2007.1  125130.90  8355.90  6.68
2009.8  124389.07  8561.39  6.88
2012.4  123804.27  8771.76  7.09
2015.1  123240.83  8967.16  7.28
2017.8  122463.83  9131.19  7.46
2020.4  121943.07  9311.74  7.64
2023.1  121574.60  9496.67  7.81
2025.7  121342.00  9683.56  7.98
2028.3  121021.33  9839.55  8.13
2031.0  120620.18  9988.73  8.28
2033.6  120338.40  10135.50  8.42
2036.2  120094.80  10274.70  8.56
2038.9  119494.50  10364.60  8.67
2041.5  119148.12  10471.62  8.79
2044.1  118572.30  10556.00  8.90
2046.8  118206.90  10645.90  9.01
2049.4  117589.20  10703.90  9.10
2052.0  117314.87  10794.40  9.20
2054.6  116926.25  10867.50  9.29
2057.2  116362.93  10934.13  9.40
2059.8  116022.33  11030.20  9.51
2062.4  115138.45  11078.88  9.62
2065.0  114607.53  11158.29  9.74
2067.6  113708.92  11192.20  9.84
2070.2  113098.75  11247.41  9.94
2072.8  112462.43  11296.80  10.04
2075.4  112026.25  11369.17  10.15
2078.0  111416.58  11421.26  10.25
2080.6  110844.80  11481.07  10.36
2083.2  110161.93  11522.32  10.46
2085.8  109659.92  11576.43  10.56
2088.4  108994.50  11615.83  10.66
2090.9  108189.32  11638.00  10.76
2093.5  107295.23  11642.14  10.85
2096.1  106533.05  11661.34  10.95
2098.7  105768.90  11675.98  11.04
2101.2  104808.73  11664.82  11.13
2103.8  104118.80  11688.11  11.23
2106.4  103455.07  11711.40  11.32
2108.9  102817.53  11725.96  11.40
2111.5  101961.67  11720.13  11.49
2114.0  101315.40  11734.69  11.58
2116.6  100791.25  11762.92  11.67
2119.1  100238.07  11779.48  11.75
2121.7  99750.00  11806.67  11.84
2124.2  99352.63  11835.00  11.91
2126.8  98566.57  11813.58  11.99
2129.3  98172.80  11830.13  12.05
2131.9  97574.40  11821.33  12.12
2134.4  97146.45  11835.40  12.18
2136.9  96748.38  11853.33  12.25
2139.4  96229.93  11854.73  12.32
2142.0  95777.73  11854.73  12.38
2144.5  95505.90  11884.47  12.44
2147.0  95274.00  11917.07  12.51
2149.5  94782.67  11905.15  12.56
2152.1  94612.47  11944.84  12.63
2154.6  94538.13  11989.16  12.68
2157.1  94012.50  11980.92  12.74
2159.6  93585.58  11980.92  12.80
2162.1  93411.50  12015.03  12.86
2164.6  93169.13  12022.51  12.90
2167.1  92852.68  12033.23  12.96
2169.6  92526.12  12036.97  13.01
2172.1  92065.57  12027.96  13.06
2174.6  91749.27  12037.40  13.12
2177.1  91310.87  12028.10  13.17
2179.5  90874.77  12027.82  13.24
2182.0  90405.15  12011.63  13.29
2184.5  89864.18  12001.28  13.35
2187.0  89258.20  11980.33  13.42
2189.5  88574.33  11945.84  13.49
2191.9  87799.00  11897.17  13.55
2194.4  87172.40  11861.10  13.61
2196.9  86438.40  11814.40  13.67
2199.3  85772.33  11761.11  13.71
2201.8  84874.67  11686.49  13.77
2204.3  84413.52  11668.74  13.82
2206.7  83784.10  11619.72  13.87
2209.2  83316.50  11583.27  13.90
2211.6  82694.70  11526.90  13.94
2214.1  82386.00  11512.15  13.97
2216.5  81820.87  11446.51  13.99
2219.0  81473.20  11400.15  13.99
2221.4  81088.58  11347.97  13.99
2223.9  80612.58  11262.03  13.97
2226.3  80116.75  11162.86  13.93
2228.7  79570.72  11046.27  13.88
2231.1  78972.30  10919.70  13.83
2233.6  78383.93  10771.04  13.74
2236.0  77826.00  10617.44  13.64
2238.4  77330.17  10462.08  13.53
2240.9  76903.87  10300.87  13.39
2243.3  76367.47  10122.07  13.25
2245.7  75789.15  9940.05  13.12
2248.1  75308.13  9757.37  12.96
2250.5  74815.10  9574.02  12.80
2252.9  74181.90  9365.34  12.62
2255.3  73610.10  9160.63  12.44
2257.7  73150.00  8983.33  12.28
2260.1  72681.47  8812.61  12.12
2262.5  72090.00  8626.67  11.97
2264.9  71550.55  8459.21  11.82
2267.3  70930.00  8286.67  11.68
2269.7  70434.00  8133.69  11.55
2272.1  69896.30  7979.95  11.42
2274.5  69324.27  7830.26  11.30
2276.8  68854.57  7706.16  11.19
2279.2  68259.60  7571.00  11.09
2281.6  67849.33  7452.69  10.98
2284.0  67387.20  7332.60  10.88
2286.3  66920.53  7214.93  10.78
2288.7  66507.35  7114.76  10.70
2291.1  65964.07  6985.96  10.59
2293.4  65521.87  6871.82  10.49
2295.8  64890.00  6736.20  10.38
2298.2  64294.20  6599.85  10.27
2300.5  63642.15  6458.40  10.15
2302.9  62888.67  6310.22  10.03
2305.2  62170.80  6173.13  9.93
2307.6  61497.65  6055.88  9.85
2309.9  60729.00  5927.89  9.76
2312.2  60140.00  5831.44  9.70
2314.6  59533.20  5737.35  9.64
2316.9  58819.05  5640.75  9.59
2319.2  58250.30  5566.90  9.56
2321.6  57627.50  5478.94  9.51
2323.9  57052.08  5381.95  9.43
2326.2  56506.93  5286.22  9.36
2328.6  55980.65  5190.17  9.27
2330.9  55482.00  5106.50  9.20
2333.2  55022.75  5023.56  9.13
2335.5  54570.00  4939.83  9.05
2337.8  54121.55  4848.90  8.96
2340.1  53539.25  4748.26  8.87
2342.4  53105.00  4661.94  8.78
2344.8  52672.92  4585.00  8.70
2347.1  52102.63  4496.33  8.63
2349.4  51569.02  4406.67  8.55
2351.6  50996.15  4307.52  8.45
2353.9  50488.53  4236.80  8.39
2356.2  49958.30  4161.34  8.33
2358.5  49358.40  4084.27  8.27
2360.8  48787.20  4013.33  8.23
2363.1  48332.62  3937.05  8.15
2365.4  47866.80  3857.07  8.06
2367.7  47401.20  3788.60  7.99
2369.9  46864.85  3709.80  7.92
2372.2  46233.60  3612.00  7.81
2374.5  45634.05  3526.60  7.73
2376.7  45014.58  3442.41  7.65
2379.0  44392.80  3350.40  7.55
2381.3  43773.33  3262.78  7.45
2383.5  43249.07  3179.74  7.35
2385.8  42618.87  3106.40  7.29
2388.0  42114.20  3028.67  7.19
2390.3  41616.40  2950.84  7.09
2392.5  41124.00  2868.00  6.97
2394.8  40656.00  2803.17  6.89
2397.0  40173.47  2738.09  6.82
2399.3  39705.48  2668.15  6.72
2401.5  39249.00  2592.92  6.61
2403.8  38723.60  2516.70  6.50
2406.0  38218.50  2450.22  6.41
2408.2  37811.40  2389.45  6.32
2410.4  37375.10  2309.42  6.18
2412.7  36946.00  2253.62  6.10
2414.9  36583.80  2196.88  6.01
2417.1  36169.60  2129.37  5.89
2419.3  35763.20  2073.60  5.80
2421.6  35365.83  2010.69  5.69
2423.8  35010.00  1953.64  5.58
2426.0  34639.53  1895.56  5.47
2428.2  34286.93  1846.75  5.39
2430.4  33969.97  1795.32  5.29
2432.6  33693.33  1746.66  5.18
2434.8  33363.20  1706.48  5.11
2437.0  33005.70  1647.82  4.99
2439.2  32656.27  1594.97  4.88
2441.4  32338.27  1536.02  4.75
2443.6  32068.48  1496.81  4.67
2445.7  31792.83  1467.01  4.61
2447.9  31507.33  1433.42  4.55
2450.1  31219.10  1376.90  4.41
2452.3  30830.80  1336.38  4.33
2454.5  30479.98  1290.68  4.23
2456.6  30102.67  1260.22  4.19
2458.8  29729.70  1210.73  4.07
2461.0  29438.83  1172.56  3.98
2463.1  29129.10  1139.75  3.91
2465.3  28856.93  1121.89  3.89
2467.5  28585.50  1086.58  3.80
2469.6  28326.75  1054.11  3.72
2471.8  28036.12  1016.13  3.62
2473.9  27738.25  995.50  3.59
2476.1  27360.67  970.67  3.55
2478.2  26993.47  939.39  3.48
2480.4  26693.65  915.88  3.43
2482.5  26368.12  903.19  3.43
2484.6  26024.17  883.06  3.39
2486.8  25732.30  863.50  3.36
2488.9  25426.95  826.00  3.25
2491.1  25069.33  803.91  3.21
2493.2  24668.50  793.01  3.21
2495.3  24242.40  769.60  3.17
2497.4  23892.40  740.60  3.10
2499.5  23595.30  722.85  3.06
2501.7  23450.37  723.07  3.08
2503.8  23353.18  718.81  3.08
2505.9  23284.58  706.11  3.03
2508.0  23262.13  700.67  3.01
2510.1  23266.22  691.49  2.97
2512.2  23359.55  691.18  2.96
2514.3  23482.38  702.38  2.99
2516.4  23679.40  722.33  3.05
