/*** Spectra Vista SIG Data ***/
name= 32_20221021_QUPA_22_avg.sig
comm= Averaged Ref/Tar of files: HR.102122.0013_moc.sig,HR.102122.0014_moc.sig
data=
337.3  3126.38  246.71  7.89
338.8  3270.80  232.26  7.10
340.3  3466.90  235.59  6.80
341.8  3658.00  239.08  6.54
343.2  3774.00  210.59  5.58
344.7  3923.80  214.47  5.47
346.2  4125.85  211.26  5.12
347.7  4325.75  208.99  4.83
349.2  4536.00  208.44  4.60
350.6  4810.98  202.51  4.21
352.1  5072.95  209.25  4.12
353.6  5309.10  203.25  3.83
355.1  5590.05  206.86  3.70
356.6  5899.50  210.70  3.57
358.0  6188.60  206.90  3.34
359.5  6489.00  211.01  3.25
361.0  6792.98  218.88  3.22
362.5  7143.10  224.17  3.14
364.0  7484.18  233.50  3.12
365.4  7811.80  236.85  3.03
366.9  8177.00  251.78  3.08
368.4  8537.08  248.59  2.91
369.9  8891.23  255.58  2.87
371.3  9318.30  269.29  2.89
372.8  9717.30  284.47  2.93
374.3  10131.88  284.11  2.80
375.8  10510.50  290.29  2.76
377.2  10975.20  298.98  2.72
378.7  11378.70  297.44  2.61
380.2  11755.30  293.60  2.50
381.7  12242.33  300.37  2.45
383.1  12693.45  303.38  2.39
384.6  13190.78  311.37  2.36
386.1  13647.63  321.21  2.35
387.6  14094.85  337.26  2.39
389.0  14579.20  340.75  2.34
390.5  15027.30  350.46  2.33
392.0  15579.05  350.65  2.25
393.4  16106.58  355.84  2.21
394.9  16651.80  375.10  2.25
396.4  17181.00  388.13  2.26
397.9  17758.13  396.82  2.23
399.3  18259.33  414.61  2.27
400.8  18818.38  423.73  2.25
402.2  19443.60  432.78  2.23
403.7  20030.40  445.73  2.23
405.2  20644.60  445.09  2.16
406.6  21228.00  467.98  2.20
408.1  21786.40  481.06  2.21
409.6  22389.00  496.07  2.22
411.0  23036.65  507.52  2.20
412.5  23678.03  526.58  2.22
414.0  24348.13  533.83  2.19
415.4  25022.63  553.66  2.21
416.9  25693.58  571.64  2.22
418.4  26369.10  588.53  2.23
419.8  27081.60  606.32  2.24
421.3  27807.00  625.91  2.25
422.7  28570.80  638.83  2.24
424.2  29345.63  655.72  2.23
425.7  30089.80  676.22  2.25
427.1  30842.93  693.59  2.25
428.6  31620.00  712.56  2.25
430.0  32368.28  735.34  2.27
431.5  33223.05  751.37  2.26
432.9  34090.55  776.03  2.28
434.4  34967.33  796.47  2.28
435.9  35812.00  813.20  2.27
437.3  36643.75  832.86  2.27
438.8  37480.58  855.23  2.28
440.2  38336.38  882.42  2.30
441.7  39288.80  908.14  2.31
443.1  40187.25  928.26  2.31
444.6  41160.20  952.19  2.31
446.0  42090.90  975.35  2.32
447.5  43027.33  998.55  2.32
448.9  43963.20  1024.26  2.33
450.4  44949.45  1055.98  2.35
451.8  45812.00  1077.15  2.35
453.3  46743.13  1103.16  2.36
454.7  47746.20  1135.31  2.38
456.2  48615.10  1158.89  2.38
457.6  49568.85  1178.06  2.38
459.1  50541.73  1201.92  2.38
460.5  51480.38  1227.45  2.38
462.0  52531.10  1252.42  2.38
463.4  53567.00  1281.93  2.39
464.8  54542.63  1305.05  2.39
466.3  55510.95  1329.97  2.40
467.7  56497.05  1358.04  2.40
469.2  57552.68  1385.38  2.41
470.6  58532.30  1411.83  2.41
472.0  59565.40  1442.49  2.42
473.5  60568.00  1465.37  2.42
474.9  61602.75  1497.07  2.43
476.4  62740.80  1521.88  2.43
477.8  63800.00  1549.43  2.43
479.2  64815.00  1579.26  2.44
480.7  65904.68  1614.59  2.45
482.1  67019.10  1642.76  2.45
483.6  68204.00  1672.90  2.45
485.0  69277.35  1706.81  2.46
486.4  70451.10  1741.85  2.47
487.9  71516.25  1780.07  2.49
489.3  72667.88  1819.59  2.50
490.7  73713.35  1861.24  2.52
492.2  74940.60  1903.02  2.54
493.6  76033.50  1952.22  2.57
495.0  77132.25  2005.30  2.60
496.5  78320.48  2065.82  2.64
497.9  79406.43  2127.46  2.68
499.3  80551.08  2193.29  2.72
500.7  81805.60  2271.59  2.78
502.2  82942.60  2362.70  2.85
503.6  84198.20  2472.41  2.94
505.0  85263.00  2586.77  3.03
506.5  86566.73  2727.89  3.15
507.9  87734.35  2879.02  3.28
509.3  89081.20  3062.76  3.44
510.7  90324.00  3277.67  3.63
512.2  91699.13  3520.32  3.84
513.6  93174.55  3809.31  4.09
515.0  94610.48  4124.03  4.36
516.4  95978.93  4474.85  4.66
517.8  97603.75  4875.15  4.99
519.3  98919.10  5297.83  5.36
520.7  100471.55  5770.14  5.74
522.1  101765.95  6254.01  6.15
523.5  103124.10  6758.18  6.55
524.9  104569.20  7269.15  6.95
526.3  105974.75  7779.34  7.34
527.8  107454.60  8290.97  7.72
529.2  108531.60  8776.10  8.09
530.6  110080.10  9285.99  8.44
532.0  111790.00  9785.20  8.75
533.4  113093.33  10232.06  9.05
534.8  113973.05  10607.21  9.31
536.3  115596.90  11029.13  9.54
537.7  117558.00  11470.68  9.76
539.1  119022.53  11847.14  9.95
540.5  120210.80  12183.93  10.14
541.9  121965.45  12577.05  10.31
543.3  123239.03  12917.70  10.48
544.7  124590.60  13258.20  10.64
546.1  126370.20  13652.74  10.80
547.5  127612.80  13977.28  10.95
549.0  129261.00  14330.17  11.09
550.4  130761.88  14647.63  11.20
551.8  132341.35  14942.80  11.29
553.2  133860.03  15192.64  11.35
554.6  135200.00  15372.39  11.37
556.0  136733.85  15522.93  11.35
557.4  138344.68  15632.64  11.30
558.8  139994.10  15701.25  11.22
560.2  141452.75  15706.27  11.10
561.6  143124.83  15690.82  10.96
563.0  144722.60  15620.62  10.79
564.4  146328.50  15513.33  10.60
565.8  147857.50  15367.09  10.39
567.2  149607.75  15198.97  10.16
568.6  151119.00  14980.78  9.91
570.0  152541.53  14714.66  9.65
571.4  154269.05  14456.56  9.37
572.8  156039.25  14198.36  9.10
574.2  157673.60  13934.40  8.84
575.6  159221.25  13683.54  8.59
577.0  160765.10  13454.75  8.37
578.4  162491.88  13272.68  8.17
579.8  164012.18  13091.99  7.98
581.2  165742.43  12957.06  7.82
582.5  167169.60  12812.84  7.66
583.9  168681.00  12695.12  7.53
585.3  170479.80  12613.93  7.40
586.7  171969.53  12532.80  7.29
588.1  173460.25  12471.08  7.19
589.5  175126.00  12438.65  7.10
590.9  176749.60  12424.45  7.03
592.3  178573.95  12444.22  6.97
593.7  180010.35  12447.94  6.92
595.0  181627.65  12483.86  6.87
596.4  183087.10  12505.63  6.83
597.8  184579.78  12528.47  6.79
599.2  186133.20  12541.13  6.74
600.6  187882.50  12549.11  6.68
602.0  189185.10  12499.44  6.61
603.3  190960.15  12454.78  6.52
604.7  192626.05  12369.63  6.42
606.1  194110.80  12240.21  6.31
607.5  195743.73  12099.63  6.18
608.9  197444.65  11936.08  6.05
610.2  198846.90  11741.36  5.90
611.6  200449.73  11554.55  5.76
613.0  202025.45  11364.31  5.63
614.4  203394.45  11171.08  5.49
615.8  204852.38  11001.76  5.37
617.1  206388.00  10853.22  5.26
618.5  208014.00  10738.88  5.16
619.9  209547.00  10642.81  5.08
621.3  211170.60  10575.76  5.01
622.6  212752.75  10536.88  4.95
624.0  214214.25  10518.80  4.91
625.4  215672.33  10520.61  4.88
626.8  217217.00  10550.09  4.86
628.1  218502.08  10581.02  4.84
629.5  220311.30  10652.49  4.84
630.9  221866.15  10710.60  4.83
632.2  223153.35  10742.27  4.81
633.6  224697.13  10773.10  4.79
635.0  226180.00  10758.36  4.76
636.3  227685.30  10705.24  4.70
637.7  229054.63  10597.26  4.63
639.1  230685.00  10457.50  4.53
640.4  232161.13  10272.21  4.42
641.8  233364.90  10041.59  4.30
643.2  234919.83  9811.78  4.18
644.5  236301.00  9573.95  4.05
645.9  237894.30  9345.19  3.93
647.2  239105.13  9128.21  3.82
648.6  240711.75  8956.29  3.72
650.0  242092.80  8804.16  3.64
651.3  242903.65  8653.29  3.56
652.7  244883.20  8548.92  3.49
654.0  246999.40  8453.37  3.42
655.4  248361.38  8328.49  3.35
656.8  248451.50  8155.14  3.28
658.1  249813.50  7999.48  3.20
659.5  252185.33  7865.78  3.12
660.8  253755.00  7694.36  3.03
662.2  254755.20  7526.40  2.95
663.5  256319.80  7385.45  2.88
664.9  257398.70  7267.11  2.82
666.2  258186.00  7163.63  2.77
667.6  259929.98  7110.20  2.74
668.9  260952.13  7081.86  2.71
670.3  262593.00  7069.22  2.69
671.6  263774.25  7081.90  2.68
673.0  264924.75  7121.72  2.69
674.3  266194.50  7183.77  2.70
675.7  267526.93  7263.94  2.72
677.0  268638.93  7361.39  2.74
678.4  269960.43  7478.43  2.77
679.7  271061.68  7618.14  2.81
681.1  272339.28  7798.15  2.86
682.4  273465.40  8020.41  2.93
683.8  274703.00  8297.61  3.02
685.1  275677.50  8657.83  3.14
686.4  276989.40  9140.06  3.30
687.8  278258.50  9805.90  3.52
689.1  279304.25  10705.43  3.83
690.5  280693.65  11948.95  4.26
691.8  281544.33  13610.22  4.83
693.1  282853.20  15829.76  5.60
694.5  284102.00  18565.95  6.53
695.8  285307.75  21849.10  7.66
697.1  286513.50  25626.90  8.94
698.5  287586.30  29872.55  10.39
699.8  288652.75  34511.35  11.96
701.1  289854.53  39479.12  13.62
702.5  290669.50  44597.46  15.34
703.8  291645.00  49859.36  17.10
705.1  292780.80  55200.74  18.85
706.5  293806.13  60513.51  20.60
707.8  294796.50  65787.55  22.32
709.1  295649.98  70958.42  24.00
710.5  296788.55  76137.82  25.65
711.8  297638.10  81144.61  27.26
713.1  298641.60  86125.79  28.84
714.4  299578.20  90973.17  30.37
715.8  300403.30  95696.31  31.86
717.1  301702.65  100474.75  33.30
718.4  302691.20  105028.48  34.70
719.7  303794.58  109491.78  36.04
721.0  304335.00  113636.57  37.34
722.4  305078.95  117709.71  38.58
723.7  306069.45  121726.28  39.77
725.0  307082.93  125612.12  40.90
726.3  308046.20  129306.24  41.98
727.6  308594.00  132654.99  42.99
729.0  309510.43  135984.55  43.94
730.3  310307.93  139089.42  44.82
731.6  311205.45  142072.21  45.65
732.9  312001.38  144844.32  46.42
734.2  312804.25  147465.53  47.14
735.5  313799.98  150039.09  47.81
736.8  314617.50  152362.56  48.43
738.1  315456.10  154558.57  49.00
739.5  316426.58  156689.23  49.52
740.8  317122.58  158554.65  50.00
742.1  317813.70  160343.09  50.45
743.4  318500.00  162004.29  50.86
744.7  319445.58  163687.85  51.24
746.0  320322.60  165220.44  51.58
747.3  320925.83  166501.04  51.88
748.6  321669.00  167776.70  52.16
749.9  322348.00  168965.09  52.42
751.2  322952.50  170066.90  52.66
752.5  323789.30  171199.57  52.87
753.8  324346.93  172135.98  53.07
755.1  325026.00  173046.35  53.24
756.4  325596.63  173857.36  53.40
757.7  326589.38  174837.35  53.53
759.0  328363.23  176169.81  53.65
760.3  329498.40  177159.09  53.77
761.6  331037.00  178308.16  53.86
762.9  331566.25  178873.43  53.95
764.2  331919.10  179328.47  54.03
765.5  332164.28  179690.77  54.10
766.8  332574.40  180122.29  54.16
768.1  333074.40  180575.40  54.21
769.3  333652.55  181056.94  54.27
770.6  334254.05  181566.40  54.32
771.9  334944.40  182087.78  54.36
773.2  335347.20  182414.83  54.40
774.5  335907.00  182853.69  54.44
775.8  336592.95  183308.78  54.46
777.1  337119.75  183707.47  54.49
778.4  337416.48  183963.42  54.52
779.6  338121.88  184448.72  54.55
780.9  338580.00  184775.15  54.57
782.2  339011.75  185108.40  54.60
783.5  339282.00  185338.05  54.63
784.8  339783.98  185681.00  54.65
786.0  340126.85  185937.91  54.67
787.3  340465.08  186191.71  54.69
788.6  340845.75  186467.22  54.71
789.9  341287.80  186751.72  54.72
791.2  341907.20  187152.68  54.74
792.4  342544.30  187571.22  54.76
793.7  343018.00  187871.19  54.77
795.0  343594.35  188240.96  54.79
796.2  344200.83  188621.80  54.80
797.5  344853.98  189028.02  54.81
798.8  345451.58  189414.89  54.83
800.0  346083.18  189808.33  54.84
801.3  346560.00  190098.48  54.85
802.6  347128.88  190483.67  54.87
803.8  347697.78  190849.02  54.89
805.1  348144.13  191128.55  54.90
806.4  348576.90  191401.34  54.91
807.7  349083.68  191731.92  54.92
808.9  349615.20  192071.36  54.94
810.2  350096.60  192373.46  54.95
811.4  350594.30  192688.52  54.96
812.7  351203.13  193068.57  54.97
814.0  351955.95  193549.62  54.99
815.2  352620.50  193943.07  55.00
816.5  352996.25  194201.69  55.02
817.7  353512.50  194494.93  55.02
819.0  353987.15  194816.15  55.03
820.2  354156.00  194946.40  55.05
821.5  354788.90  195385.85  55.07
822.7  355182.38  195608.70  55.07
824.0  355449.60  195825.14  55.09
825.2  355926.15  196127.33  55.10
826.5  356264.40  196329.03  55.11
827.7  356873.78  196680.22  55.11
829.0  357251.70  196920.00  55.12
830.2  357572.95  197140.20  55.13
831.5  358071.00  197434.82  55.14
832.7  358410.15  197660.30  55.15
834.0  358764.60  197874.73  55.15
835.2  359113.43  198118.30  55.17
836.4  359472.30  198332.44  55.17
837.7  359888.00  198596.55  55.18
838.9  360355.73  198905.73  55.20
840.1  360744.98  199167.28  55.21
841.4  361201.20  199449.13  55.22
842.6  361596.80  199710.56  55.23
843.8  361972.20  199985.06  55.25
845.1  362509.80  200324.91  55.26
846.3  362943.90  200608.65  55.27
847.5  363329.40  200888.22  55.29
848.8  363754.80  201159.00  55.30
850.0  364184.45  201444.81  55.31
851.2  364774.05  201783.69  55.32
852.5  365224.00  202037.95  55.32
853.7  365726.25  202394.32  55.34
854.9  366194.00  202672.05  55.35
856.1  366685.15  202990.49  55.36
857.4  366933.25  203143.63  55.36
858.6  367483.45  203490.37  55.37
859.8  367895.63  203746.45  55.38
861.0  368479.80  204055.36  55.38
862.2  368950.33  204356.87  55.39
863.5  369324.15  204602.75  55.40
864.7  369897.00  204922.84  55.40
865.9  370303.00  205192.85  55.41
867.1  370750.00  205408.21  55.40
868.3  371181.15  205700.63  55.42
869.5  371668.45  205990.63  55.42
870.8  372249.00  206311.76  55.42
872.0  372783.83  206649.96  55.43
873.2  373244.40  206909.94  55.44
874.4  373709.70  207198.81  55.44
875.6  374144.75  207405.89  55.43
876.8  374619.25  207729.06  55.45
878.0  375181.75  208020.87  55.45
879.2  375809.55  208334.68  55.44
880.4  376312.50  208608.54  55.43
881.6  376781.63  208861.59  55.43
882.8  377239.20  209133.03  55.44
884.0  377899.88  209466.98  55.43
885.2  378337.80  209770.89  55.45
886.5  379034.10  210084.56  55.43
887.7  379455.38  210362.71  55.44
888.8  380160.38  210717.47  55.43
890.0  380709.10  211034.30  55.43
891.2  381265.30  211368.46  55.44
892.4  382000.50  211704.84  55.42
893.6  382509.50  212033.32  55.43
894.8  383473.25  212500.12  55.41
896.0  384296.00  212936.62  55.41
897.2  385066.50  213405.77  55.42
898.4  385875.60  213804.08  55.41
899.6  386518.88  214124.96  55.40
900.8  386909.75  214304.93  55.39
902.0  387052.05  214434.75  55.40
903.2  387325.73  214584.93  55.40
904.3  387662.10  214754.77  55.40
905.5  388306.35  215071.07  55.39
906.7  388964.50  215354.90  55.37
907.9  389437.30  215643.05  55.37
909.1  389561.40  215773.51  55.39
910.2  389855.10  215882.01  55.37
911.4  390116.03  216008.91  55.37
912.6  390297.05  216095.07  55.37
913.8  390500.03  216185.94  55.36
915.0  390843.60  216402.69  55.37
916.2  391023.75  216463.65  55.36
917.3  390949.43  216440.00  55.36
918.5  391210.70  216538.44  55.35
919.7  391361.25  216655.34  55.36
920.8  391492.58  216652.12  55.34
922.0  391583.50  216643.35  55.32
923.2  391618.50  216726.90  55.34
924.4  392016.38  216746.65  55.29
925.5  392138.50  216867.73  55.30
926.7  392812.63  217109.67  55.27
927.9  393601.20  217519.72  55.26
929.0  395097.75  218269.70  55.24
930.2  397314.70  219394.74  55.22
931.4  399610.80  220687.78  55.23
932.5  402333.50  222095.25  55.20
933.7  403888.88  222790.98  55.16
934.9  404525.63  223086.88  55.15
936.0  404075.75  222722.32  55.12
937.2  401712.60  221414.65  55.12
938.3  399822.80  220241.62  55.08
939.5  398296.80  219244.53  55.05
940.7  398464.20  219211.79  55.01
941.8  399969.00  219967.92  55.00
943.0  401340.75  220636.27  54.97
944.2  402195.30  220938.66  54.93
945.3  401807.25  220606.29  54.90
946.5  400820.40  219893.63  54.86
947.6  401042.10  219757.23  54.80
948.8  400855.65  219442.28  54.74
949.9  400722.00  219215.52  54.71
951.1  400448.43  218784.24  54.63
952.2  400248.00  218466.52  54.58
953.4  399992.50  218015.16  54.50
954.5  399929.40  217646.08  54.42
955.7  399697.20  217272.24  54.36
956.8  399192.80  216816.73  54.31
958.0  398700.00  216304.25  54.25
959.1  398404.63  215928.54  54.20
960.3  398316.70  215519.43  54.11
961.4  398265.90  215243.19  54.05
962.6  398224.75  215165.35  54.03
963.7  397671.83  214771.53  54.01
964.9  397372.58  214583.34  54.00
966.0  397078.20  214395.78  53.99
967.2  397545.75  214346.41  53.92
968.3  396985.05  214126.16  53.94
969.5  396996.50  213922.80  53.89
970.6  396996.88  213755.49  53.84
971.8  397037.55  213789.45  53.85
972.9  396837.98  213570.82  53.82
974.0  396946.20  213669.35  53.83
975.2  397069.50  213446.79  53.76
976.3  396887.18  213363.35  53.76
977.5  397461.93  213193.46  53.64
978.6  397299.30  213036.11  53.62
979.7  397117.88  213029.93  53.64
980.9  396363.08  212810.84  53.69
982.0  395958.75  212549.29  53.68
983.2  395966.88  212457.22  53.66
984.3  395886.40  212175.23  53.59
985.4  396323.88  212056.01  53.51
986.6  395496.50  211785.40  53.55
987.7  396552.80  212364.46  53.55
988.9  396405.00  212276.11  53.55
990.0  396596.50  212467.61  53.57
993.1  382677.58  205936.09  53.81
996.9  381980.75  205895.25  53.90
1000.7  382322.68  206452.98  54.00
1004.5  382583.67  207031.28  54.11
1008.4  382309.42  207296.43  54.22
1012.2  382229.42  207661.85  54.33
1016.0  382067.40  207845.60  54.40
1019.8  381692.85  207905.78  54.47
1023.7  380934.33  207705.33  54.53
1027.5  379789.20  207286.06  54.58
1031.3  379153.95  207174.26  54.64
1035.1  378386.98  206976.31  54.70
1038.9  378113.63  207029.41  54.75
1042.7  377848.67  207120.89  54.82
1046.5  377733.17  207260.56  54.87
1050.3  377784.92  207429.86  54.91
1054.2  377461.58  207399.31  54.95
1058.0  377039.02  207271.17  54.97
1061.8  376995.25  207352.39  55.00
1065.6  376527.90  207129.89  55.01
1069.4  376077.47  206861.31  55.00
1073.2  375118.60  206244.05  54.98
1077.0  374471.80  205831.39  54.97
1080.8  374341.67  205728.82  54.96
1084.6  374082.33  205553.91  54.95
1088.4  374064.32  205545.07  54.95
1092.2  373522.50  205169.25  54.93
1096.0  372904.74  204716.72  54.90
1099.8  372275.80  204199.17  54.85
1103.6  371472.98  203541.09  54.79
1107.4  370462.72  202746.87  54.73
1111.2  370210.50  202403.90  54.67
1114.9  369686.33  201887.20  54.61
1118.7  369416.03  201410.55  54.52
1122.5  369013.67  200756.69  54.40
1126.3  368071.61  199653.14  54.24
1130.1  367688.70  198579.70  54.01
1133.9  366018.80  196511.94  53.69
1137.7  364477.40  194180.64  53.28
1141.4  362495.58  191323.42  52.78
1145.2  361666.93  188923.13  52.24
1149.0  360421.25  186441.60  51.73
1152.8  358601.85  183953.15  51.30
1156.6  356776.93  181859.03  50.97
1160.3  354974.67  180123.45  50.74
1164.1  352570.77  178381.57  50.59
1167.9  350845.83  177187.85  50.50
1171.7  349555.50  176289.75  50.43
1175.4  348195.90  175414.13  50.38
1179.2  346924.25  174531.87  50.31
1183.0  346598.33  174099.89  50.23
1186.7  346406.43  173812.03  50.18
1190.5  345835.73  173414.23  50.14
1194.3  344855.07  172857.49  50.12
1198.0  343447.78  172130.94  50.12
1201.8  341816.88  171340.17  50.13
1205.6  340672.67  170917.00  50.17
1209.3  340003.38  170849.33  50.25
1213.1  339343.80  170900.15  50.36
1216.8  338637.57  170984.12  50.49
1220.6  337547.47  170871.56  50.62
1224.3  336295.42  170668.17  50.75
1228.1  334882.80  170370.80  50.87
1231.9  333394.10  169956.67  50.98
1235.6  331696.50  169406.18  51.07
1239.4  330184.00  168928.75  51.16
1243.1  328861.39  168479.93  51.23
1246.9  327595.53  168012.17  51.29
1250.6  326548.07  167622.87  51.33
1254.3  325402.83  167144.97  51.37
1258.1  324217.13  166612.56  51.39
1261.8  322818.93  165927.51  51.40
1265.6  321551.72  165269.30  51.40
1269.3  320542.58  164736.67  51.39
1273.1  320789.96  164810.03  51.38
1276.8  320784.00  164634.14  51.32
1280.6  320001.07  163966.73  51.24
1284.3  318192.80  162737.20  51.14
1288.0  316809.95  161723.69  51.05
1291.8  316046.59  160987.40  50.94
1295.5  315116.27  160096.45  50.81
1299.2  313950.96  158987.89  50.64
1302.9  312400.79  157550.52  50.43
1306.7  310705.73  155932.16  50.19
1310.4  309060.35  154196.33  49.89
1314.1  307528.83  152394.92  49.55
1317.9  306174.17  150527.02  49.16
1321.6  304668.88  148458.04  48.73
1325.3  303007.95  146160.00  48.24
1329.0  301708.28  143953.72  47.71
1332.8  299745.60  141320.67  47.15
1336.5  298066.40  138789.27  46.56
1340.2  297949.17  137000.50  45.98
1343.9  298007.29  135303.47  45.40
1347.6  298432.20  133776.40  44.83
1351.4  300250.50  132948.67  44.28
1355.1  302704.23  132418.98  43.75
1358.8  304704.00  131600.00  43.19
1362.5  305092.85  129939.17  42.59
1366.2  302941.70  126906.70  41.89
1369.9  299577.13  123004.79  41.06
1373.6  296785.65  118762.74  40.02
1377.3  295390.20  114326.30  38.70
1381.0  294896.17  109313.62  37.07
1384.8  292743.75  102683.75  35.08
1388.4  289394.23  95042.23  32.84
1392.2  287135.75  87418.28  30.44
1395.9  285581.53  80034.19  28.02
1399.6  283650.08  72986.26  25.73
1403.3  282058.41  66789.07  23.68
1407.0  280245.00  61439.34  21.92
1410.7  278340.98  57041.33  20.49
1414.3  276364.78  53542.42  19.37
1418.1  274623.04  50890.67  18.53
1421.7  273189.06  48909.24  17.90
1425.4  271833.90  47454.34  17.46
1429.1  270615.38  46427.38  17.16
1432.8  268921.64  45644.62  16.97
1436.5  268057.52  45243.36  16.88
1440.2  267295.23  45055.12  16.86
1443.9  266084.87  44910.35  16.88
1447.6  264418.00  44798.60  16.94
1451.2  263157.03  44792.79  17.02
1454.9  261701.10  44828.85  17.13
1458.6  260497.26  45018.44  17.28
1462.3  259340.03  45370.60  17.49
1466.0  257988.71  45867.98  17.78
1469.7  256271.06  46479.16  18.14
1473.3  255207.50  47367.78  18.56
1477.0  253144.97  48183.64  19.03
1480.7  251478.09  49143.80  19.54
1484.4  249443.74  50062.70  20.07
1488.0  247837.33  51084.00  20.61
1491.7  246190.60  52101.98  21.16
1495.4  244492.65  53103.95  21.72
1499.0  242904.00  54114.00  22.28
1502.7  241608.92  55162.97  22.83
1506.4  240171.84  56145.87  23.38
1510.0  238716.53  57088.35  23.91
1513.7  237213.08  57971.77  24.44
1517.4  235840.67  58852.67  24.95
1521.0  234586.80  59725.03  25.46
1524.7  233346.75  60530.17  25.94
1528.3  232031.38  61269.55  26.41
1532.0  230807.50  61981.58  26.85
1535.7  229401.50  62593.97  27.29
1539.3  228119.07  63207.52  27.71
1543.0  227145.13  63854.66  28.11
1546.6  226431.83  64548.62  28.51
1550.3  225418.20  65107.70  28.88
1553.9  224350.90  65615.19  29.25
1557.6  223100.53  66034.72  29.60
1561.2  221818.95  66392.70  29.93
1564.9  220472.23  66709.40  30.26
1568.5  219120.65  66991.71  30.57
1572.2  217971.70  67299.50  30.88
1575.8  216874.00  67615.33  31.18
1579.5  215866.10  67925.02  31.47
1583.1  214814.21  68211.10  31.75
1586.8  213514.00  68390.00  32.03
1590.4  212338.37  68594.94  32.30
1594.0  211001.70  68720.78  32.57
1597.7  210033.70  68963.08  32.83
1601.3  208996.20  69164.55  33.09
1604.9  207908.45  69335.70  33.35
1608.6  206561.80  69371.32  33.58
1612.2  205326.00  69395.70  33.80
1615.8  203979.10  69357.93  34.00
1619.5  202765.83  69337.47  34.20
1623.1  201427.27  69251.39  34.38
1626.7  200205.85  69176.25  34.55
1630.3  199008.33  69073.06  34.71
1634.0  197890.00  68973.34  34.85
1637.6  196877.07  68870.40  34.98
1641.2  195842.95  68685.77  35.07
1644.8  194638.57  68387.80  35.14
1648.5  193506.77  68076.84  35.18
1652.1  192535.50  67759.90  35.19
1655.7  191600.60  67416.87  35.19
1659.3  190755.23  67077.47  35.16
1662.9  189323.33  66526.67  35.14
1666.6  187888.47  65972.67  35.11
1670.2  186455.68  65399.37  35.08
1673.8  184969.83  64762.76  35.01
1677.4  183788.05  64180.40  34.92
1681.0  182975.00  63656.53  34.79
1684.6  182562.25  63206.00  34.62
1688.2  181855.80  62594.88  34.42
1691.8  181168.89  62001.78  34.22
1695.4  180737.60  61467.07  34.01
1699.0  180364.80  60966.11  33.80
1702.6  180026.67  60443.67  33.57
1706.2  179398.16  59828.21  33.35
1709.8  178441.23  59109.74  33.13
1713.4  177681.16  58472.29  32.91
1717.0  176793.50  57810.17  32.70
1720.6  175955.48  57189.10  32.50
1724.2  175219.50  56590.63  32.30
1727.8  174489.70  56041.19  32.12
1731.4  174013.13  55619.67  31.96
1735.0  173835.20  55332.88  31.83
1738.6  173611.65  54986.55  31.67
1742.2  173041.98  54485.95  31.49
1745.8  172397.06  53910.79  31.27
1749.4  171406.13  53211.40  31.04
1753.0  169903.60  52326.62  30.80
1756.6  168248.50  51398.96  30.55
1760.1  166900.68  50603.69  30.32
1763.7  165155.33  49726.00  30.11
1767.3  163707.90  48995.02  29.93
1770.9  162444.80  48361.78  29.77
1774.5  160966.34  47688.12  29.63
1778.0  159831.53  47154.94  29.50
1781.6  158741.70  46677.15  29.40
1785.2  157612.25  46211.89  29.32
1788.8  156420.90  45798.30  29.28
1792.3  155197.20  45395.34  29.25
1795.9  154730.77  45251.16  29.25
1799.5  154473.33  45182.67  29.25
1803.1  155073.57  45432.80  29.30
1806.6  156902.78  46064.39  29.36
1810.2  158715.90  46652.12  29.39
1813.8  159849.35  47004.95  29.41
1817.3  159661.00  46931.27  29.39
1820.9  158711.67  46603.52  29.36
1824.5  157488.38  46185.26  29.33
1828.0  156549.25  45811.95  29.26
1831.6  156236.88  45597.01  29.18
1835.2  156088.33  45361.67  29.06
1838.7  155913.60  45029.12  28.88
1842.3  155655.00  44560.00  28.63
1845.8  154384.67  43662.81  28.28
1849.4  153744.13  42767.74  27.82
1852.9  152787.54  41597.00  27.23
1856.5  151690.07  40125.13  26.45
1860.0  150629.03  38370.05  25.47
1863.6  150706.93  36600.58  24.29
1867.1  151503.10  34683.02  22.89
1870.7  152445.98  32372.98  21.24
1874.2  151290.00  29255.55  19.34
1877.8  148508.93  25717.92  17.32
1881.3  145479.88  22157.55  15.23
1884.9  143669.90  18987.07  13.22
1888.4  142208.82  16106.82  11.33
1891.9  140769.13  13666.23  9.71
1895.5  139570.55  11719.72  8.40
1899.0  139076.13  10323.13  7.42
1901.3  178400.00  9217.34  5.17
1904.1  178471.50  8239.88  4.62
1906.8  177462.60  7458.90  4.20
1909.6  175267.05  6808.90  3.88
1912.4  173141.50  6373.04  3.68
1915.1  171631.90  6054.13  3.53
1917.9  170065.00  5800.67  3.41
1920.6  168715.73  5616.22  3.33
1923.3  167257.07  5483.57  3.28
1926.1  165395.83  5386.07  3.26
1928.8  163636.00  5331.34  3.26
1931.6  162262.93  5333.24  3.29
1934.3  161032.28  5355.63  3.33
1937.0  159865.20  5394.90  3.37
1939.8  158575.83  5455.75  3.44
1942.5  156959.00  5533.00  3.53
1945.2  154921.25  5601.20  3.62
1947.9  153259.17  5698.93  3.72
1950.7  151940.03  5830.70  3.84
1953.4  150059.15  5954.43  3.97
1956.1  148585.58  6097.30  4.10
1958.8  147268.55  6265.46  4.25
1961.5  145700.40  6430.80  4.41
1964.2  144107.60  6597.50  4.58
1966.9  142447.00  6778.45  4.76
1969.6  141147.00  6984.00  4.95
1972.3  139703.30  7177.85  5.14
1975.0  138608.70  7398.60  5.34
1977.7  137469.47  7622.01  5.54
1980.4  136286.60  7859.32  5.77
1983.1  135143.20  8089.07  5.99
1985.8  134188.80  8330.25  6.21
1988.4  133146.00  8575.67  6.44
1991.1  132193.60  8827.58  6.68
1993.8  131300.77  9081.97  6.92
1996.5  130637.28  9344.78  7.15
1999.1  129939.33  9624.82  7.41
2001.8  129232.37  9885.17  7.65
2004.5  128530.35  10133.48  7.88
2007.1  127777.80  10371.35  8.12
2009.8  127004.97  10606.05  8.35
2012.4  126397.88  10848.39  8.58
2015.1  125830.83  11080.89  8.81
2017.8  125036.57  11283.77  9.02
2020.4  124528.07  11494.64  9.23
2023.1  124147.33  11711.12  9.43
2025.7  123907.33  11925.34  9.62
2028.3  123552.00  12120.34  9.81
2031.0  123138.35  12291.26  9.98
2033.6  122852.70  12471.45  10.15
2036.2  122591.70  12632.40  10.30
2038.9  121982.70  12745.50  10.45
2041.5  121623.65  12874.52  10.59
2044.1  121060.50  12971.70  10.72
2046.8  120677.70  13089.15  10.85
2049.4  120016.50  13163.10  10.97
2052.0  119725.27  13265.94  11.08
2054.6  119315.00  13356.88  11.19
2057.2  118738.40  13444.97  11.32
2059.8  118397.80  13558.50  11.45
2062.4  117500.67  13606.72  11.58
2065.0  116956.80  13693.87  11.71
2067.6  116044.98  13737.47  11.84
2070.2  115426.10  13815.92  11.97
2072.8  114772.35  13881.30  12.09
2075.4  114327.50  13973.75  12.22
2078.0  113682.68  14035.77  12.35
2080.6  113115.20  14097.60  12.46
2083.2  112388.67  14149.40  12.59
2085.8  111873.32  14215.83  12.71
2088.4  111194.00  14270.25  12.83
2090.9  110384.67  14300.63  12.96
2093.5  109495.67  14302.82  13.06
2096.1  108702.53  14338.79  13.19
2098.7  107912.03  14369.54  13.32
2101.2  106930.93  14366.34  13.44
2103.8  106241.00  14396.90  13.55
2106.4  105551.07  14436.20  13.68
2108.9  104878.60  14471.14  13.80
2111.5  104005.27  14471.14  13.91
2114.0  103376.47  14501.70  14.03
2116.6  102838.75  14546.88  14.15
2119.1  102254.40  14570.20  14.25
2121.7  101771.25  14612.50  14.36
2124.2  101351.43  14662.25  14.47
2126.8  100534.03  14646.21  14.57
2129.3  100117.60  14678.40  14.66
2131.9  99528.00  14682.80  14.75
2134.4  99084.60  14713.13  14.85
2136.9  98684.95  14733.01  14.93
2139.4  98136.27  14731.97  15.01
2142.0  97675.20  14740.84  15.09
2144.5  97392.70  14778.45  15.17
2147.0  97158.93  14829.34  15.26
2149.5  96631.87  14838.27  15.36
2152.1  96454.05  14871.91  15.42
2154.6  96387.73  14923.74  15.48
2157.1  95856.42  14914.83  15.56
2159.6  95429.50  14914.84  15.63
2162.1  95249.70  14951.30  15.70
2164.6  95014.07  14960.40  15.75
2167.1  94689.35  14955.06  15.79
2169.6  94351.02  14963.26  15.86
2172.1  93856.83  14944.15  15.92
2174.6  93528.47  14951.77  15.99
2177.1  93093.27  14941.53  16.05
2179.5  92672.88  14939.28  16.12
2182.0  92162.95  14922.60  16.19
2184.5  91618.87  14896.05  16.26
2187.0  90993.93  14852.79  16.32
2189.5  90300.30  14808.23  16.40
2191.9  89509.00  14748.75  16.48
2194.4  88853.20  14702.23  16.55
2196.9  88080.00  14640.00  16.62
2199.3  87415.67  14587.00  16.69
2201.8  86500.13  14488.07  16.75
2204.3  86023.45  14450.14  16.80
2206.7  85360.10  14376.08  16.84
2209.2  84887.95  14350.60  16.91
2211.6  84239.10  14270.85  16.94
2214.1  83938.20  14238.45  16.96
2216.5  83360.53  14150.03  16.97
2219.0  83012.87  14105.34  16.99
2221.4  82625.67  14042.00  16.99
2223.9  82149.67  13937.88  16.97
2226.3  81624.08  13813.92  16.92
2228.7  81063.10  13668.65  16.86
2231.1  80457.30  13498.65  16.78
2233.6  79854.07  13315.64  16.67
2236.0  79293.67  13129.67  16.56
2238.4  78797.83  12941.25  16.42
2240.9  78334.27  12739.50  16.26
2243.3  77768.07  12520.97  16.10
2245.7  77192.10  12288.25  15.92
2248.1  76683.53  12054.69  15.72
2250.5  76162.85  11825.26  15.53
2252.9  75517.43  11566.32  15.32
2255.3  74943.40  11333.05  15.12
2257.7  74470.00  11110.00  14.92
2260.1  73965.73  10871.12  14.70
2262.5  73340.00  10640.00  14.51
2264.9  72808.45  10422.60  14.32
2267.3  72180.00  10210.00  14.15
2269.7  71678.13  10013.27  13.97
2272.1  71108.32  9841.38  13.84
2274.5  70542.23  9658.88  13.69
2276.8  70056.57  9500.81  13.56
2279.2  69445.50  9351.53  13.47
2281.6  69007.00  9216.04  13.36
2284.0  68538.60  9079.90  13.25
2286.3  68085.87  8947.73  13.14
2288.7  67668.25  8798.40  13.00
2291.1  67110.20  8652.28  12.89
2293.4  66651.20  8511.07  12.77
2295.8  66023.00  8348.15  12.64
2298.2  65412.00  8176.50  12.50
2300.5  64718.55  8010.90  12.38
2302.9  63973.67  7837.84  12.25
2305.2  63221.40  7668.35  12.13
2307.6  62519.00  7505.38  12.00
2309.9  61721.00  7341.84  11.90
2312.2  61111.33  7223.00  11.82
2314.6  60516.45  7115.63  11.76
2316.9  59823.00  7001.78  11.70
2319.2  59245.50  6893.84  11.64
2321.6  58603.53  6780.32  11.57
2323.9  58041.67  6671.88  11.49
2326.2  57498.10  6557.35  11.40
2328.6  56962.95  6452.88  11.33
2330.9  56437.50  6342.00  11.24
2333.2  55975.25  6249.46  11.16
2335.5  55522.30  6136.45  11.05
2337.8  55059.70  6033.28  10.96
2340.1  54466.62  5903.88  10.84
2342.4  54025.83  5806.67  10.75
2344.8  53557.17  5703.96  10.65
2347.1  52979.97  5593.00  10.56
2349.4  52417.30  5486.30  10.47
2351.6  51844.43  5387.15  10.39
2353.9  51338.10  5296.00  10.32
2356.2  50814.28  5202.60  10.24
2358.5  50198.40  5096.00  10.15
2360.8  49616.00  4995.20  10.07
2363.1  49151.43  4918.51  10.01
2365.4  48680.40  4825.10  9.91
2367.7  48222.00  4736.70  9.82
2369.9  47654.90  4631.53  9.72
2372.2  47013.33  4523.60  9.62
2374.5  46431.00  4412.10  9.50
2376.7  45781.28  4303.98  9.40
2379.0  45160.60  4205.45  9.31
2381.3  44531.67  4100.84  9.21
2383.5  44011.73  3995.20  9.08
2385.8  43383.70  3883.00  8.95
2388.0  42845.80  3793.70  8.85
2390.3  42328.40  3708.34  8.76
2392.5  41844.00  3612.00  8.63
2394.8  41357.80  3521.10  8.51
2397.0  40865.07  3433.73  8.40
2399.3  40399.93  3362.60  8.32
2401.5  39959.50  3264.63  8.17
2403.8  39401.02  3171.54  8.05
2406.0  38876.58  3085.54  7.94
2408.2  38459.67  3010.70  7.83
2410.4  38049.20  2939.83  7.73
2412.7  37637.17  2852.63  7.58
2414.9  37266.90  2776.68  7.45
2417.1  36842.70  2698.75  7.33
2419.3  36416.00  2630.40  7.22
2421.6  36011.67  2551.05  7.08
2423.8  35619.43  2483.12  6.97
2426.0  35262.73  2421.39  6.87
2428.2  34888.00  2338.94  6.70
2430.4  34578.70  2276.14  6.58
2432.6  34306.67  2226.67  6.49
2434.8  33991.43  2165.40  6.37
2437.0  33637.07  2095.60  6.23
2439.2  33251.00  2034.26  6.12
2441.4  32924.50  1983.65  6.02
2443.6  32690.23  1934.33  5.92
2445.7  32431.47  1874.25  5.78
2447.9  32133.58  1830.05  5.70
2450.1  31823.25  1784.35  5.61
2452.3  31451.93  1736.35  5.52
2454.5  31089.87  1680.73  5.41
2456.6  30687.60  1619.27  5.28
2458.8  30316.00  1573.00  5.19
2461.0  30015.50  1528.17  5.09
2463.1  29711.10  1491.38  5.02
2465.3  29398.37  1448.70  4.93
2467.5  29160.75  1408.63  4.83
2469.6  28938.33  1372.34  4.74
2471.8  28636.78  1336.49  4.67
2473.9  28281.25  1304.71  4.61
2476.1  27937.00  1266.42  4.53
2478.2  27587.57  1226.29  4.45
2480.4  27292.30  1204.98  4.42
2482.5  26941.00  1184.48  4.40
2484.6  26585.17  1153.17  4.34
2486.8  26328.90  1122.55  4.26
2488.9  26010.93  1089.05  4.19
2491.1  25672.27  1063.07  4.14
2493.2  25259.27  1029.85  4.08
2495.3  24835.63  1010.10  4.07
2497.4  24504.20  998.20  4.07
2499.5  24194.08  979.09  4.05
2501.7  24041.97  944.92  3.93
2503.8  23938.27  936.14  3.91
2505.9  23882.50  922.50  3.86
2508.0  23892.73  928.38  3.89
2510.1  23910.02  920.99  3.85
2512.2  24020.15  917.50  3.82
2514.3  24222.73  920.69  3.80
2516.4  24506.80  935.75  3.82
