/*** Spectra Vista SIG Data ***/
name= 40_20220825_CECA_12_avg.sig
comm= Averaged Ref/Tar of files: HR.082522.0038_moc.sig,HR.082522.0039_moc.sig,HR.082522.0040_moc.sig
data=
337.3  3374.50  284.52  8.43
338.8  3511.30  275.77  7.85
340.3  3654.30  281.10  7.69
341.8  3840.90  280.45  7.30
343.2  4040.40  278.24  6.89
344.7  4179.70  278.65  6.67
346.2  4370.95  255.99  5.86
347.7  4561.70  251.68  5.52
349.2  4762.80  252.00  5.29
350.6  5031.33  254.63  5.06
352.1  5323.03  266.75  5.01
353.6  5586.70  263.72  4.72
355.1  5926.80  264.91  4.47
356.6  6194.48  279.68  4.51
358.0  6475.70  272.21  4.20
359.5  6736.20  280.16  4.16
361.0  7062.30  279.30  3.95
362.5  7465.13  292.75  3.92
364.0  7828.28  298.22  3.81
365.4  8205.20  310.97  3.79
366.9  8591.38  313.08  3.64
368.4  8918.93  330.94  3.71
369.9  9296.60  338.71  3.64
371.3  9745.50  352.44  3.62
372.8  10195.20  364.62  3.58
374.3  10642.50  365.50  3.43
375.8  11103.40  370.11  3.33
377.2  11513.20  380.19  3.30
378.7  11916.70  394.53  3.31
380.2  12347.10  398.12  3.22
381.7  12890.93  407.18  3.16
383.1  13367.20  413.23  3.09
384.6  13919.10  420.81  3.02
386.1  14404.33  425.19  2.95
387.6  14876.40  438.39  2.95
389.0  15356.40  457.39  2.98
390.5  15876.90  463.74  2.92
392.0  16451.90  472.57  2.87
393.4  17052.48  479.96  2.81
394.9  17617.50  497.64  2.82
396.4  18190.13  503.70  2.77
397.9  18757.50  519.33  2.77
399.3  19348.30  526.76  2.72
400.8  19915.08  545.03  2.74
402.2  20597.45  559.74  2.72
403.7  21210.08  561.75  2.65
405.2  21852.03  574.51  2.63
406.6  22457.60  584.64  2.60
408.1  23074.60  602.67  2.61
409.6  23706.00  614.60  2.59
411.0  24381.70  631.96  2.59
412.5  25073.30  649.74  2.59
414.0  25754.00  662.87  2.57
415.4  26473.50  686.35  2.59
416.9  27177.75  704.18  2.59
418.4  27900.45  722.10  2.59
419.8  28646.80  749.84  2.62
421.3  29393.43  774.79  2.64
422.7  30189.00  802.72  2.66
424.2  30999.38  828.00  2.67
425.7  31785.00  860.64  2.71
427.1  32583.68  894.64  2.75
428.6  33402.50  930.00  2.78
430.0  34174.10  961.08  2.81
431.5  35073.75  996.99  2.84
432.9  35980.40  1029.41  2.86
434.4  36915.53  1069.60  2.90
435.9  37772.00  1105.07  2.93
437.3  38637.50  1138.50  2.95
438.8  39516.83  1176.50  2.98
440.2  40425.00  1209.16  2.99
441.7  41419.40  1245.31  3.01
443.1  42360.25  1284.37  3.03
444.6  43361.00  1316.99  3.04
446.0  44335.58  1359.78  3.07
447.5  45327.98  1394.18  3.08
448.9  46311.00  1434.48  3.10
450.4  47358.15  1474.57  3.11
451.8  48256.00  1506.27  3.12
453.3  49214.30  1544.59  3.14
454.7  50275.80  1582.76  3.15
456.2  51167.53  1615.21  3.16
457.6  52184.03  1647.87  3.16
459.1  53193.40  1680.73  3.16
460.5  54182.13  1712.00  3.16
462.0  55290.20  1749.23  3.16
463.4  56361.80  1782.83  3.16
464.8  57387.00  1816.70  3.17
466.3  58414.13  1853.17  3.17
467.7  59424.65  1884.17  3.17
469.2  60522.50  1916.08  3.17
470.6  61553.05  1946.39  3.16
472.0  62633.75  1976.13  3.16
473.5  63675.50  2013.28  3.16
474.9  64766.25  2048.20  3.16
476.4  65952.00  2088.96  3.17
477.8  67062.50  2128.60  3.17
479.2  68121.00  2161.47  3.17
480.7  69262.88  2198.27  3.17
482.1  70458.20  2236.86  3.17
483.6  71700.90  2275.39  3.17
485.0  72852.68  2314.07  3.18
486.4  74088.60  2362.92  3.19
487.9  75231.00  2408.25  3.20
489.3  76437.48  2458.09  3.22
490.7  77556.58  2505.21  3.23
492.2  78836.10  2557.80  3.24
493.6  79989.00  2611.61  3.26
495.0  81154.13  2671.50  3.29
496.5  82385.45  2739.33  3.33
497.9  83530.10  2805.86  3.36
499.3  84748.13  2884.13  3.40
500.7  86054.10  2969.07  3.45
502.2  87264.20  3058.21  3.50
503.6  88578.20  3163.33  3.57
505.0  89701.95  3271.83  3.65
506.5  91043.55  3408.10  3.74
507.9  92285.63  3554.05  3.85
509.3  93698.80  3727.63  3.98
510.7  94989.38  3913.65  4.12
512.2  96446.93  4135.99  4.29
513.6  97996.15  4379.62  4.47
515.0  99461.20  4654.42  4.68
516.4  100897.65  4961.25  4.92
517.8  102575.75  5312.88  5.18
519.3  103943.88  5686.30  5.47
520.7  105571.70  6097.70  5.78
522.1  106908.75  6519.80  6.10
523.5  108308.80  6961.12  6.43
524.9  109744.65  7408.38  6.75
526.3  111169.45  7850.41  7.06
527.8  112741.20  8300.16  7.36
529.2  114044.60  8731.40  7.66
530.6  115628.90  9167.08  7.93
532.0  117404.00  9589.07  8.17
533.4  118754.10  9947.76  8.38
534.8  119673.03  10236.15  8.55
536.3  121401.90  10562.52  8.70
537.7  123467.40  10899.84  8.83
539.1  124987.83  11171.38  8.94
540.5  126235.80  11407.33  9.04
541.9  128076.68  11683.94  9.12
543.3  129385.35  11911.45  9.21
544.7  130792.20  12140.24  9.28
546.1  132639.10  12411.52  9.36
547.5  133896.00  12617.17  9.42
549.0  135718.00  12865.60  9.48
550.4  137232.50  13060.25  9.52
551.8  138824.75  13233.43  9.53
553.2  140396.43  13370.29  9.52
554.6  141783.20  13445.12  9.48
556.0  143368.20  13496.40  9.41
557.4  145024.95  13514.74  9.32
558.8  146711.25  13500.54  9.20
560.2  148217.25  13433.55  9.06
561.6  149932.35  13353.73  8.91
563.0  151573.25  13234.81  8.73
564.4  153207.10  13090.44  8.54
565.8  154774.38  12908.67  8.34
567.2  156584.50  12722.27  8.12
568.6  158122.50  12487.40  7.90
570.0  159598.45  12226.15  7.66
571.4  161374.20  11979.67  7.42
572.8  163192.63  11745.03  7.20
574.2  164875.20  11512.11  6.98
575.6  166477.50  11293.50  6.78
577.0  168053.60  11099.61  6.60
578.4  169828.75  10942.75  6.44
579.8  171379.13  10794.15  6.30
581.2  173150.43  10676.78  6.17
582.5  174610.80  10562.76  6.05
583.9  176185.80  10472.11  5.94
585.3  178040.25  10409.73  5.85
586.7  179581.35  10344.71  5.76
588.1  181111.13  10294.93  5.68
589.5  182794.50  10267.13  5.62
590.9  184474.80  10255.63  5.56
592.3  186329.85  10270.92  5.51
593.7  187818.15  10278.58  5.47
595.0  189502.20  10301.04  5.44
596.4  190986.60  10315.11  5.40
597.8  192503.23  10320.53  5.36
599.2  194106.00  10329.44  5.32
600.6  195904.15  10333.09  5.27
602.0  197226.68  10299.66  5.22
603.3  199076.60  10272.71  5.16
604.7  200803.70  10217.96  5.09
606.1  202335.60  10138.40  5.01
607.5  204015.18  10051.99  4.93
608.9  205776.30  9953.02  4.84
610.2  207181.80  9835.56  4.75
611.6  208829.85  9725.72  4.66
613.0  210420.90  9617.92  4.57
614.4  211833.45  9507.94  4.49
615.8  213334.88  9416.55  4.41
617.1  214914.00  9335.48  4.34
618.5  216598.00  9278.61  4.28
619.9  218173.65  9231.61  4.23
621.3  219838.73  9201.78  4.19
622.6  221506.25  9190.67  4.15
624.0  223036.20  9191.72  4.12
625.4  224575.73  9206.45  4.10
626.8  226214.63  9242.87  4.09
628.1  227571.85  9272.05  4.07
629.5  229482.68  9324.51  4.06
630.9  231109.18  9371.63  4.06
632.2  232489.60  9404.15  4.04
633.6  234150.13  9437.02  4.03
635.0  235708.80  9443.95  4.01
636.3  237286.80  9434.27  3.98
637.7  238715.13  9391.77  3.93
639.1  240450.00  9338.00  3.88
640.4  241988.43  9259.34  3.83
641.8  243239.95  9152.54  3.76
643.2  244887.65  9058.16  3.70
644.5  246302.00  8952.23  3.63
645.9  248060.25  8853.54  3.57
647.2  249844.35  8771.96  3.51
648.6  251748.00  8712.90  3.46
650.0  253281.60  8645.76  3.41
651.3  253836.83  8563.94  3.37
652.7  255048.25  8497.77  3.33
654.0  257212.80  8469.95  3.29
655.4  258746.78  8426.75  3.26
656.8  259007.00  8332.41  3.22
658.1  260142.00  8256.75  3.17
659.5  262614.98  8211.28  3.13
660.8  264465.00  8154.00  3.08
662.2  265372.80  8072.96  3.04
663.5  267106.85  8033.07  3.01
664.9  268448.70  8003.15  2.98
666.2  269263.80  7974.24  2.96
667.6  271137.13  7989.37  2.95
668.9  272304.73  8012.89  2.94
670.3  273444.88  8043.07  2.94
671.6  275102.25  8112.50  2.95
673.0  276319.13  8206.90  2.97
674.3  277620.20  8303.71  2.99
675.7  278983.85  8420.88  3.02
677.0  280158.00  8551.57  3.05
678.4  281589.63  8701.34  3.09
679.7  282756.95  8859.92  3.13
681.1  284127.33  9065.47  3.19
682.4  285333.10  9276.11  3.25
683.8  286637.00  9523.63  3.32
685.1  287647.13  9794.00  3.40
686.4  288999.60  10129.12  3.50
687.8  290340.25  10531.67  3.63
689.1  291452.75  11033.03  3.79
690.5  292896.75  11699.48  3.99
691.8  293770.73  12556.03  4.27
693.1  295152.15  13710.80  4.65
694.5  296341.50  15169.70  5.12
695.8  297592.75  17001.83  5.71
697.1  298844.00  19243.47  6.44
698.5  299957.80  21919.12  7.31
699.8  301124.00  25042.27  8.32
701.1  302348.45  28597.71  9.46
702.5  303162.20  32490.04  10.72
703.8  304177.50  36732.00  12.08
705.1  305383.65  41256.02  13.51
706.5  306515.13  45973.17  15.00
707.8  307580.70  50841.78  16.53
709.1  308531.50  55800.59  18.09
710.5  309759.38  60881.76  19.65
711.8  310661.30  65954.48  21.23
713.1  311687.10  71071.59  22.80
714.4  312668.30  76153.01  24.36
715.8  313560.30  81183.89  25.89
717.1  314978.55  86291.86  27.40
718.4  315996.80  91227.73  28.87
719.7  317189.68  96112.09  30.30
721.0  317745.00  100704.00  31.69
722.4  318586.40  105236.34  33.03
723.7  319591.50  109680.36  34.32
725.0  320717.93  114012.84  35.55
726.3  321741.20  118126.98  36.71
727.6  322334.65  121922.02  37.82
729.0  323334.20  125659.57  38.86
730.3  324192.00  129151.83  39.84
731.6  325118.60  132513.69  40.76
732.9  326012.93  135659.11  41.61
734.2  326899.38  138626.22  42.41
735.5  328009.08  141513.85  43.14
736.8  328884.90  144121.28  43.82
738.1  329796.10  146593.04  44.45
739.5  330834.88  148953.46  45.02
740.8  331587.30  151043.38  45.55
742.1  332356.63  153007.10  46.04
743.4  333125.00  154830.00  46.48
744.7  334147.78  156658.99  46.88
746.0  335127.00  158325.96  47.24
747.3  335755.85  159711.63  47.57
748.6  336604.00  161074.83  47.85
749.9  337376.00  162323.20  48.11
751.2  338119.50  163472.37  48.35
752.5  339034.75  164612.51  48.55
753.8  339652.95  165579.73  48.75
755.1  340418.00  166521.33  48.92
756.4  341103.70  167341.34  49.06
757.7  342182.23  168301.96  49.18
759.0  344124.45  169612.81  49.29
760.3  345417.60  170568.64  49.38
761.6  347076.80  171683.49  49.47
762.9  347696.50  172230.77  49.53
764.2  348139.80  172658.55  49.59
765.5  348487.38  173003.24  49.64
766.8  349003.20  173383.68  49.68
768.1  349596.60  173803.68  49.72
769.3  350270.20  174242.93  49.75
770.6  350996.10  174694.95  49.77
771.9  351821.23  175177.12  49.79
773.2  352273.60  175466.56  49.81
774.5  352981.20  175859.49  49.82
775.8  353729.85  176273.50  49.83
777.1  354376.55  176633.45  49.84
778.4  354777.23  176863.87  49.85
779.6  355659.63  177327.46  49.86
780.9  356220.00  177624.00  49.86
782.2  356738.25  177914.37  49.87
783.5  357124.50  178128.13  49.88
784.8  357754.95  178443.87  49.88
786.0  358193.85  178688.86  49.89
787.3  358689.10  178920.69  49.88
788.6  359176.95  179178.99  49.89
789.9  359706.20  179465.63  49.89
791.2  360474.95  179848.75  49.89
792.4  361241.13  180236.95  49.89
793.7  361788.80  180515.87  49.90
795.0  362502.53  180864.53  49.89
796.2  363264.15  181228.22  49.89
797.5  364056.90  181634.90  49.89
798.8  364825.33  182009.92  49.89
800.0  365561.73  182394.38  49.89
801.3  366162.30  182666.00  49.89
802.6  366786.68  182998.47  49.89
803.8  367512.05  183361.97  49.89
805.1  368085.38  183630.07  49.89
806.4  368617.50  183916.32  49.89
807.7  369206.10  184218.30  49.90
808.9  369869.20  184519.13  49.89
810.2  370464.85  184814.51  49.89
811.4  371005.20  185096.25  49.89
812.7  371718.75  185450.42  49.89
814.0  372654.40  185899.24  49.89
815.2  373328.50  186243.97  49.89
816.5  373795.55  186477.84  49.89
817.7  374294.75  186734.59  49.89
819.0  374886.60  187014.59  49.89
820.2  375100.00  187111.47  49.88
821.5  375863.70  187494.28  49.88
822.7  376325.80  187704.11  49.88
824.0  376701.30  187877.88  49.87
825.2  377210.93  188138.16  49.88
826.5  377585.43  188299.48  49.87
827.7  378148.85  188571.76  49.87
829.0  378593.25  188780.14  49.86
830.2  378935.35  188945.15  49.86
831.5  379485.05  189185.86  49.85
832.7  379849.58  189345.94  49.85
834.0  380230.48  189506.61  49.84
835.2  380596.15  189692.29  49.84
836.4  380865.65  189833.53  49.84
837.7  381351.20  190054.11  49.84
838.9  381779.90  190287.80  49.84
840.1  382202.55  190477.53  49.84
841.4  382709.40  190713.63  49.83
842.6  383040.60  190909.55  49.84
843.8  383419.80  191098.51  49.84
845.1  383935.15  191344.40  49.84
846.3  384339.50  191526.68  49.83
847.5  384766.20  191737.56  49.83
848.8  385137.60  191967.28  49.84
850.0  385548.10  192151.73  49.84
851.2  386093.25  192456.54  49.85
852.5  386507.30  192634.23  49.84
853.7  386997.75  192870.30  49.84
854.9  387412.10  193100.13  49.84
856.1  387908.30  193324.82  49.84
857.4  388094.65  193418.81  49.84
858.6  388627.65  193657.07  49.83
859.8  389055.00  193870.75  49.83
861.0  389539.80  194088.96  49.83
862.2  389988.53  194338.00  49.83
863.5  390297.05  194502.10  49.83
864.7  390878.40  194761.60  49.83
865.9  391295.40  194969.97  49.83
867.1  391660.30  195093.59  49.81
868.3  392139.15  195328.56  49.81
869.5  392623.50  195550.21  49.81
870.8  393210.00  195840.00  49.81
872.0  393738.90  196075.58  49.80
873.2  394188.60  196281.54  49.79
874.4  394559.10  196521.39  49.81
875.6  395045.80  196714.51  49.80
876.8  395588.25  196936.55  49.78
878.0  396084.15  197168.42  49.78
879.2  396637.35  197423.30  49.77
880.4  397218.75  197656.05  49.76
881.6  397756.23  197882.95  49.75
882.8  398211.20  198078.40  49.74
884.0  398764.45  198383.73  49.75
885.2  399298.10  198646.35  49.75
886.5  400002.70  198941.07  49.73
887.7  400521.23  199159.31  49.73
888.8  401336.18  199478.47  49.70
890.0  401880.15  199741.31  49.70
891.2  402535.20  199993.28  49.68
892.4  403286.10  200300.03  49.67
893.6  403899.20  200600.70  49.67
894.8  404880.50  201052.20  49.66
896.0  405734.00  201477.50  49.66
897.2  406627.00  201876.13  49.65
898.4  407460.90  202226.64  49.63
899.6  408124.88  202500.85  49.62
900.8  408627.30  202683.08  49.60
902.0  408869.85  202791.46  49.60
903.2  409247.78  202941.75  49.59
904.3  409572.00  203127.16  49.59
905.5  410214.25  203415.60  49.59
906.7  410870.00  203649.27  49.57
907.9  411546.10  203922.97  49.55
909.1  411982.20  204091.56  49.54
910.2  412237.43  204148.91  49.52
911.4  412422.08  204240.27  49.52
912.6  412662.25  204333.65  49.52
913.8  413050.20  204422.06  49.49
915.0  413459.55  204618.12  49.49
916.2  413838.75  204726.60  49.47
917.3  413946.45  204720.63  49.46
918.5  414238.40  204777.40  49.43
919.7  414514.05  204867.20  49.42
920.8  414638.93  204858.50  49.41
922.0  414760.50  204909.83  49.40
923.2  415096.50  205004.80  49.39
924.4  415540.13  205016.40  49.34
925.5  415849.20  205118.60  49.33
926.7  416589.25  205342.72  49.29
927.9  417460.20  205736.88  49.28
929.0  419083.20  206363.16  49.24
930.2  421480.80  207438.20  49.22
931.4  423973.58  208610.73  49.20
932.5  426911.85  209881.37  49.16
933.7  428424.93  210521.43  49.14
934.9  429130.63  210739.67  49.11
936.0  428858.63  210473.90  49.08
937.2  426695.55  209305.28  49.05
938.3  425062.45  208313.47  49.01
939.5  423507.60  207439.20  48.98
940.7  423905.40  207426.00  48.93
941.8  425581.05  208077.44  48.89
943.0  426973.50  208694.80  48.88
944.2  427948.95  208927.25  48.82
945.3  427557.00  208591.50  48.79
946.5  427091.40  208016.28  48.71
947.6  427358.70  207913.85  48.65
948.8  427243.05  207606.75  48.59
949.9  427568.40  207427.92  48.51
951.1  427118.25  207022.01  48.47
952.2  426972.00  206692.80  48.41
953.4  426935.00  206255.20  48.31
954.5  426886.20  205882.56  48.23
955.7  426900.60  205546.32  48.15
956.8  426866.10  205145.59  48.06
958.0  426609.00  204725.07  47.99
959.1  426620.25  204386.46  47.91
960.3  426143.68  204033.82  47.88
961.4  426177.35  203870.86  47.84
962.6  426515.25  203851.43  47.79
963.7  426374.85  203587.04  47.75
964.9  426240.45  203464.13  47.73
966.0  426138.98  203305.41  47.71
967.2  426338.10  203184.18  47.66
968.3  426290.85  203186.88  47.66
969.5  426351.88  203157.83  47.65
970.6  426735.55  203185.41  47.61
971.8  426980.05  203289.61  47.61
972.9  426811.58  203237.66  47.62
974.0  427254.90  203231.24  47.57
975.2  427429.63  203265.02  47.56
976.3  427361.80  203211.97  47.55
977.5  427715.93  203357.30  47.54
978.6  427706.90  203304.15  47.53
979.7  428122.80  203358.33  47.50
980.9  428378.75  203397.24  47.48
982.0  428595.35  203306.82  47.44
983.2  428666.08  203280.03  47.42
984.3  427970.60  203308.69  47.51
985.4  428145.50  203195.54  47.46
986.6  428045.13  203234.43  47.48
987.7  429164.05  203755.09  47.48
988.9  429496.20  203694.72  47.43
990.0  430070.70  204144.11  47.47
993.1  369457.38  174852.88  47.33
996.9  370542.13  175818.10  47.45
1000.7  371918.05  176896.64  47.56
1004.5  372736.92  177644.58  47.66
1008.4  372697.13  178009.25  47.76
1012.2  372927.58  178450.11  47.85
1016.0  373219.80  178891.71  47.93
1019.8  373729.13  179388.83  48.00
1023.7  374104.83  179783.88  48.06
1027.5  374119.63  180031.81  48.12
1031.3  374691.70  180471.04  48.17
1035.1  374718.23  180658.70  48.21
1038.9  374831.97  180857.34  48.25
1042.7  374704.25  180945.20  48.29
1046.5  374613.00  180983.45  48.31
1050.3  374728.61  181096.39  48.33
1054.2  374493.58  181048.00  48.34
1058.0  373999.85  180821.74  48.35
1061.8  373876.12  180798.34  48.36
1065.6  373704.77  180693.40  48.35
1069.4  373832.93  180722.91  48.34
1073.2  373665.34  180547.22  48.32
1077.0  373330.85  180265.81  48.29
1080.8  372801.04  179847.47  48.24
1084.6  371574.35  179089.87  48.20
1088.4  370776.23  178589.90  48.17
1092.2  369837.00  177986.25  48.13
1096.0  369264.39  177522.78  48.07
1099.8  368841.42  177083.62  48.01
1103.6  368223.05  176561.03  47.95
1107.4  367353.78  175876.80  47.88
1111.2  367191.20  175515.12  47.80
1114.9  366533.42  174887.00  47.71
1118.7  365876.78  174173.88  47.60
1122.5  365171.73  173316.87  47.46
1126.3  364019.54  172186.18  47.30
1130.1  363492.43  171116.03  47.08
1133.9  361926.60  169230.60  46.76
1137.7  360519.60  167160.14  46.37
1141.4  358759.81  164655.00  45.90
1145.2  358108.64  162467.49  45.37
1149.0  357049.58  160203.75  44.87
1152.8  355459.45  157919.63  44.43
1156.6  353802.17  156018.50  44.10
1160.3  352030.33  154474.95  43.88
1164.1  349565.83  152919.26  43.75
1167.9  347707.29  151865.03  43.68
1171.7  346437.00  151162.88  43.63
1175.4  345313.60  150582.60  43.61
1179.2  344347.50  150040.47  43.57
1183.0  344089.67  149772.81  43.53
1186.7  343507.73  149368.90  43.48
1190.5  342345.73  148737.15  43.45
1194.3  341077.60  148101.04  43.42
1198.0  339887.08  147553.84  43.41
1201.8  338483.18  146956.32  43.42
1205.6  337233.33  146532.19  43.45
1209.3  336216.52  146322.77  43.52
1213.1  335138.85  146132.85  43.60
1216.8  334061.38  146009.04  43.71
1220.6  332906.93  145845.33  43.81
1224.3  331616.00  145612.77  43.91
1228.1  330362.60  145389.14  44.01
1231.9  329170.55  145133.57  44.09
1235.6  327724.43  144715.84  44.16
1239.4  326403.13  144354.39  44.23
1243.1  325164.67  143959.46  44.27
1246.9  323957.20  143532.25  44.31
1250.6  322997.27  143177.17  44.33
1254.3  321952.95  142759.11  44.34
1258.1  320975.67  142340.15  44.35
1261.8  319727.33  141764.46  44.34
1265.6  318286.88  141053.07  44.32
1269.3  316751.38  140262.31  44.28
1273.1  316637.88  140062.82  44.23
1276.8  316995.60  140025.54  44.17
1280.6  317005.97  139815.76  44.11
1284.3  315814.80  138997.03  44.01
1288.0  314357.46  138003.12  43.90
1291.8  312928.19  136954.37  43.77
1295.5  311421.73  135831.14  43.62
1299.2  310101.14  134729.95  43.45
1302.9  308654.79  133489.16  43.25
1306.7  307105.87  132100.03  43.01
1310.4  305639.70  130596.63  42.73
1314.1  304272.47  129056.90  42.41
1317.9  303071.67  127424.11  42.04
1321.6  301691.31  125598.19  41.63
1325.3  300054.30  123533.48  41.17
1329.0  298712.75  121500.32  40.67
1332.8  296588.60  119042.00  40.14
1336.5  294753.53  116663.50  39.58
1340.2  294369.83  114874.50  39.02
1343.9  293901.04  113056.58  38.47
1347.6  293287.35  111182.61  37.91
1351.4  293508.00  109684.64  37.37
1355.1  293906.43  108287.72  36.84
1358.8  293984.00  106701.71  36.30
1362.5  293463.03  104756.23  35.70
1366.2  291604.40  102070.31  35.00
1369.9  289718.75  99057.73  34.19
1373.6  287790.71  95525.24  33.19
1377.3  285977.40  91368.21  31.95
1381.0  284759.67  86528.62  30.39
1384.8  282603.75  80470.00  28.47
1388.4  280203.82  73856.70  26.36
1392.2  278386.42  67053.71  24.09
1395.9  276767.78  60299.78  21.79
1399.6  275073.46  53967.10  19.62
1403.3  273848.32  48454.62  17.69
1407.0  272724.70  43818.70  16.07
1410.7  271538.03  40101.13  14.77
1414.3  270335.51  37253.95  13.78
1418.1  269179.21  35186.13  13.07
1421.7  268279.73  33725.37  12.57
1425.4  267373.60  32727.78  12.24
1429.1  266541.00  32094.21  12.04
1432.8  265069.56  31657.52  11.94
1436.5  264264.69  31488.70  11.92
1440.2  263356.87  31451.34  11.94
1443.9  261995.07  31454.72  12.01
1447.6  260352.40  31488.60  12.09
1451.2  259261.57  31620.23  12.20
1454.9  258004.50  31771.71  12.31
1458.6  256905.44  32033.14  12.47
1462.3  255747.07  32403.28  12.67
1466.0  254395.80  32906.95  12.94
1469.7  252723.90  33535.81  13.27
1473.3  251706.83  34396.38  13.67
1477.0  249807.70  35258.58  14.11
1480.7  248234.93  36228.70  14.59
1484.4  246333.25  37165.85  15.09
1488.0  244786.67  38196.19  15.60
1491.7  243140.94  39199.47  16.12
1495.4  241391.73  40195.56  16.65
1499.0  239786.50  41177.93  17.17
1502.7  238451.67  42207.88  17.70
1506.4  237027.37  43183.71  18.22
1510.0  235598.97  44136.45  18.73
1513.7  234126.08  45035.09  19.24
1517.4  232802.00  45926.05  19.73
1521.0  231576.53  46808.93  20.21
1524.7  230347.00  47623.80  20.67
1528.3  229051.00  48398.30  21.13
1532.0  227828.88  49134.07  21.57
1535.7  226438.75  49780.25  21.98
1539.3  225174.13  50423.89  22.39
1543.0  224217.38  51090.39  22.79
1546.6  223516.58  51788.44  23.17
1550.3  222537.95  52374.39  23.54
1553.9  221460.03  52891.63  23.88
1557.6  220202.40  53332.82  24.22
1561.2  218945.25  53717.46  24.53
1564.9  217631.27  54069.28  24.84
1568.5  216302.33  54375.07  25.14
1572.2  215147.65  54692.64  25.42
1575.8  214074.00  55012.00  25.70
1579.5  213082.25  55318.88  25.96
1583.1  212115.99  55617.44  26.22
1586.8  210896.00  55824.00  26.47
1590.4  209868.50  56053.14  26.71
1594.0  208560.73  56184.81  26.94
1597.7  207391.77  56342.10  27.17
1601.3  206033.63  56432.70  27.39
1604.9  204681.46  56495.50  27.60
1608.6  203317.67  56520.63  27.80
1612.2  202282.58  56604.90  27.98
1615.8  201170.13  56638.68  28.15
1619.5  200079.92  56648.79  28.31
1623.1  198787.57  56574.97  28.46
1626.7  197550.60  56480.96  28.59
1630.3  196322.42  56366.48  28.71
1634.0  195202.00  56244.00  28.81
1637.6  194190.33  56113.94  28.90
1641.2  193173.45  55921.01  28.95
1644.8  191957.98  55600.94  28.97
1648.5  190871.63  55273.56  28.96
1652.1  189884.70  54927.56  28.93
1655.7  188945.20  54572.63  28.88
1659.3  188065.14  54254.73  28.85
1662.9  186631.67  53807.02  28.83
1666.6  185173.60  53372.95  28.82
1670.2  183742.42  52949.71  28.82
1673.8  182269.44  52478.75  28.79
1677.4  181104.50  52057.26  28.74
1681.0  180300.75  51679.38  28.66
1684.6  179914.58  51341.80  28.54
1688.2  179238.05  50826.80  28.36
1691.8  178595.11  50328.17  28.18
1695.4  178167.40  49854.17  27.98
1699.0  177802.80  49393.73  27.78
1702.6  177475.33  48911.48  27.56
1706.2  176876.70  48327.61  27.32
1709.8  175971.71  47663.69  27.09
1713.4  175256.18  47088.92  26.87
1717.0  174389.25  46540.46  26.69
1720.6  173621.03  46041.01  26.52
1724.2  172921.05  45578.82  26.36
1727.8  172217.15  45122.05  26.20
1731.4  171744.38  44739.75  26.05
1735.0  171507.05  44439.19  25.91
1738.6  171216.90  44085.47  25.75
1742.2  170591.67  43582.85  25.55
1745.8  169886.80  43026.32  25.33
1749.4  168866.78  42365.04  25.09
1753.0  167340.60  41576.08  24.85
1756.6  165651.50  40770.25  24.61
1760.1  164310.79  40080.18  24.39
1763.7  162579.33  39325.62  24.19
1767.3  161158.50  38674.57  24.00
1770.9  159936.82  38083.80  23.81
1774.5  158495.53  37467.07  23.64
1778.0  157355.28  36956.98  23.49
1781.6  156241.95  36515.83  23.37
1785.2  155103.08  36111.52  23.28
1788.8  153944.50  35761.12  23.23
1792.3  152729.40  35413.14  23.19
1795.9  152283.08  35261.24  23.16
1799.5  151763.00  35117.95  23.14
1803.1  150930.62  34914.72  23.13
1806.6  151130.99  34949.86  23.13
1810.2  152111.63  35172.60  23.12
1813.8  153060.80  35380.98  23.12
1817.3  153162.00  35372.17  23.09
1820.9  152507.48  35173.28  23.06
1824.5  151395.43  34841.14  23.01
1828.0  150621.17  34556.43  22.94
1831.6  149919.03  34257.83  22.85
1835.2  149274.17  33900.83  22.71
1838.7  148894.00  33522.17  22.51
1842.3  148515.00  33066.43  22.26
1845.8  147717.50  32392.12  21.93
1849.4  147260.10  31650.80  21.49
1852.9  146606.48  30693.01  20.94
1856.5  145726.90  29479.69  20.23
1860.0  144991.11  28049.21  19.35
1863.6  144799.14  26493.53  18.30
1867.1  144694.55  24708.25  17.08
1870.7  144626.85  22584.30  15.62
1874.2  143817.75  20039.34  13.93
1877.8  142581.13  17395.60  12.20
1881.3  141177.50  14780.27  10.47
1884.9  140323.79  12444.98  8.87
1888.4  139395.98  10355.82  7.43
1891.9  138486.73  8658.63  6.25
1895.5  137529.05  7375.32  5.36
1899.0  137160.75  6503.04  4.74
1901.3  166989.83  4794.50  2.87
1904.1  166893.75  4300.00  2.58
1906.8  166210.80  3929.20  2.36
1909.6  164606.40  3661.23  2.22
1912.4  163091.72  3453.91  2.12
1915.1  162047.05  3310.27  2.04
1917.9  160780.17  3214.22  2.00
1920.6  159775.63  3162.25  1.98
1923.3  158791.50  3120.05  1.96
1926.1  157550.23  3087.39  1.96
1928.8  156405.33  3070.22  1.96
1931.6  155534.22  3076.51  1.98
1934.3  154683.43  3090.04  2.00
1937.0  153895.33  3111.34  2.02
1939.8  153004.25  3146.80  2.06
1942.5  151833.00  3201.00  2.11
1945.2  150239.65  3239.50  2.16
1947.9  148964.90  3287.59  2.21
1950.7  147925.93  3362.99  2.27
1953.4  146239.15  3428.45  2.34
1956.1  144913.08  3512.42  2.42
1958.8  143737.53  3602.45  2.51
1961.5  142296.40  3689.20  2.59
1964.2  140813.40  3785.60  2.69
1966.9  139243.30  3888.48  2.79
1969.6  138024.00  4005.00  2.90
1972.3  136632.80  4120.70  3.02
1975.0  135590.85  4256.85  3.14
1977.7  134480.62  4387.76  3.26
1980.4  133358.53  4532.37  3.40
1983.1  132257.98  4683.76  3.54
1985.8  131352.60  4848.80  3.69
1988.4  130320.67  5012.22  3.85
1991.1  129396.40  5174.25  4.00
1993.8  128543.43  5342.33  4.16
1996.5  127897.18  5526.16  4.32
1999.1  127207.85  5715.72  4.49
2001.8  126512.87  5896.57  4.66
2004.5  125831.55  6078.07  4.83
2007.1  125104.95  6248.18  4.99
2009.8  124363.17  6423.20  5.16
2012.4  123752.57  6608.99  5.34
2015.1  123189.03  6785.80  5.51
2017.8  122394.77  6938.32  5.67
2020.4  121874.13  7108.75  5.83
2023.1  121514.17  7277.90  5.99
2025.7  121290.00  7456.22  6.15
2028.3  120943.33  7612.22  6.29
2031.0  120533.35  7751.32  6.43
2033.6  120251.40  7896.70  6.57
2036.2  119990.40  8035.90  6.70
2038.9  119390.10  8149.00  6.83
2041.5  119043.52  8266.30  6.94
2044.1  118485.30  8357.80  7.05
2046.8  118119.90  8456.40  7.16
2049.4  117493.50  8531.80  7.26
2052.0  117218.80  8631.44  7.36
2054.6  116830.00  8717.92  7.46
2057.2  116258.13  8800.29  7.57
2059.8  115917.53  8908.00  7.68
2062.4  115042.57  8975.26  7.80
2065.0  114528.93  9059.38  7.91
2067.6  113621.75  9106.01  8.01
2070.2  113011.58  9178.65  8.12
2072.8  112375.27  9251.29  8.23
2075.4  111930.00  9327.50  8.33
2078.0  111302.40  9389.38  8.44
2080.6  110730.40  9454.13  8.54
2083.2  110039.20  9503.07  8.64
2085.8  109554.52  9565.05  8.73
2088.4  108879.67  9610.67  8.83
2090.9  108074.70  9642.50  8.92
2093.5  107190.03  9660.87  9.01
2096.1  106418.87  9685.09  9.10
2098.7  105654.72  9702.66  9.18
2101.2  104686.47  9702.73  9.27
2103.8  104014.00  9728.93  9.35
2106.4  103332.80  9758.04  9.44
2108.9  102669.07  9781.33  9.53
2111.5  101821.93  9772.60  9.60
2114.0  101201.87  9781.34  9.67
2116.6  100686.25  9800.00  9.73
2119.1  100132.87  9815.74  9.80
2121.7  99645.00  9826.25  9.86
2124.2  99229.90  9844.97  9.92
2126.8  98443.60  9828.55  9.98
2129.3  98032.00  9844.27  10.04
2131.9  97442.40  9841.33  10.10
2134.4  97013.70  9858.90  10.16
2136.9  96632.90  9872.34  10.22
2139.4  96105.80  9865.64  10.27
2142.0  95644.73  9880.42  10.33
2144.5  95372.40  9911.63  10.39
2147.0  95140.00  9939.82  10.45
2149.5  94630.80  9954.71  10.52
2152.1  94468.73  9989.47  10.57
2154.6  94402.13  10039.82  10.64
2157.1  93867.17  10037.08  10.69
2159.6  93431.17  10046.17  10.75
2162.1  93256.80  10076.73  10.81
2164.6  93004.73  10098.42  10.86
2167.1  92687.38  10104.73  10.90
2169.6  92369.43  10113.75  10.95
2172.1  91899.37  10116.66  11.01
2174.6  91573.20  10131.56  11.06
2177.1  91125.20  10131.21  11.12
2179.5  90707.07  10133.43  11.17
2182.0  90218.15  10138.52  11.24
2184.5  89676.52  10134.00  11.30
2187.0  89060.10  10115.68  11.36
2189.5  88375.18  10096.59  11.42
2191.9  87599.50  10060.50  11.48
2194.4  86981.40  10037.05  11.54
2196.9  86246.40  10003.20  11.60
2199.3  85588.67  9972.78  11.65
2201.8  84709.20  9902.04  11.69
2204.3  84246.63  9885.38  11.73
2206.7  83616.65  9850.00  11.78
2209.2  83128.72  9830.62  11.83
2211.6  82506.60  9787.80  11.86
2214.1  82206.90  9787.48  11.91
2216.5  81642.07  9741.29  11.93
2219.0  81304.33  9714.80  11.95
2221.4  80929.92  9678.67  11.96
2223.9  80453.92  9619.16  11.96
2226.3  79938.25  9549.75  11.95
2228.7  79382.93  9461.64  11.92
2231.1  78794.10  9352.20  11.87
2233.6  78195.20  9231.38  11.81
2236.0  77657.42  9110.11  11.73
2238.4  77161.58  8987.80  11.65
2240.9  76725.07  8860.53  11.55
2243.3  76188.67  8714.84  11.44
2245.7  75620.00  8553.68  11.31
2248.1  75118.77  8395.26  11.18
2250.5  74615.43  8226.27  11.02
2252.9  74002.50  8039.78  10.86
2255.3  73450.90  7860.50  10.70
2257.7  72990.00  7706.67  10.56
2260.1  72510.90  7541.72  10.40
2262.5  71910.00  7370.00  10.25
2264.9  71370.85  7207.97  10.10
2267.3  70750.00  7056.67  9.97
2269.7  70253.40  6919.66  9.85
2272.1  69705.98  6777.94  9.72
2274.5  69144.57  6642.24  9.61
2276.8  68674.27  6520.85  9.50
2279.2  68088.75  6385.10  9.38
2281.6  67658.07  6271.53  9.27
2284.0  67215.50  6144.17  9.14
2286.3  66748.27  6022.58  9.02
2288.7  66344.42  5916.51  8.92
2291.1  65800.33  5795.48  8.81
2293.4  65347.33  5680.89  8.69
2295.8  64735.50  5541.40  8.56
2298.2  64138.95  5413.05  8.44
2300.5  63476.55  5295.75  8.34
2302.9  62733.67  5166.67  8.24
2305.2  62026.60  5033.27  8.11
2307.6  61363.53  4927.93  8.03
2309.9  60594.67  4825.67  7.96
2312.2  59995.33  4739.55  7.90
2314.6  59388.30  4660.95  7.85
2316.9  58694.85  4571.25  7.79
2319.2  58094.80  4492.22  7.73
2321.6  57471.75  4402.53  7.66
2323.9  56916.67  4322.92  7.60
2326.2  56371.30  4235.93  7.51
2328.6  55855.25  4162.58  7.45
2330.9  55356.00  4081.00  7.37
2333.2  54864.00  4004.03  7.30
2335.5  54430.90  3930.47  7.22
2337.8  53970.58  3860.43  7.15
2340.1  53388.28  3770.57  7.06
2342.4  52964.17  3690.56  6.97
2344.8  52541.92  3631.61  6.91
2347.1  51971.03  3545.89  6.82
2349.4  51447.83  3470.25  6.75
2351.6  50852.93  3389.46  6.67
2353.9  50356.13  3335.74  6.62
2356.2  49824.90  3275.71  6.57
2358.5  49235.20  3203.20  6.51
2360.8  48664.00  3132.27  6.44
2363.1  48231.67  3069.63  6.36
2365.4  47765.10  3009.57  6.30
2367.7  47287.20  2941.20  6.22
2369.9  46738.90  2877.77  6.16
2372.2  46118.93  2809.33  6.09
2374.5  45541.65  2748.90  6.04
2376.7  44910.03  2667.96  5.94
2379.0  44288.10  2598.11  5.87
2381.3  43668.33  2527.78  5.79
2383.5  43155.20  2452.27  5.68
2385.8  42548.27  2380.79  5.60
2388.0  42019.80  2328.53  5.54
2390.3  41497.73  2266.53  5.46
2392.5  41016.00  2204.00  5.37
2394.8  40547.10  2133.63  5.26
2397.0  40064.27  2070.75  5.17
2399.3  39595.83  2022.43  5.11
2401.5  39151.00  1976.33  5.05
2403.8  38612.75  1913.19  4.95
2406.0  38106.75  1850.08  4.86
2408.2  37699.20  1799.36  4.77
2410.4  37275.23  1747.67  4.69
2412.7  36870.60  1700.69  4.61
2414.9  36482.60  1652.93  4.53
2417.1  36080.70  1617.13  4.48
2419.3  35673.60  1574.40  4.41
2421.6  35288.33  1524.17  4.32
2423.8  34906.27  1469.56  4.21
2426.0  34535.67  1432.50  4.15
2428.2  34169.33  1389.42  4.07
2430.4  33864.10  1340.98  3.96
2432.6  33586.67  1297.78  3.86
2434.8  33283.00  1265.38  3.80
2437.0  32911.67  1240.35  3.77
2439.2  32548.13  1198.48  3.68
2441.4  32229.20  1158.83  3.60
2443.6  31985.58  1128.36  3.53
2445.7  31709.53  1101.41  3.47
2447.9  31437.75  1085.50  3.45
2450.1  31134.80  1049.07  3.37
2452.3  30774.33  1016.40  3.30
2454.5  30409.07  978.65  3.22
2456.6  30017.07  936.84  3.12
2458.8  29643.90  905.67  3.06
2461.0  29337.92  884.22  3.01
2463.1  29041.80  868.15  2.99
2465.3  28754.50  843.86  2.93
2467.5  28497.00  826.00  2.90
2469.6  28252.17  800.53  2.83
2471.8  27946.02  780.87  2.79
2473.9  27617.58  764.22  2.77
2476.1  27254.50  738.11  2.71
2478.2  26902.07  721.05  2.68
2480.4  26616.90  690.75  2.60
2482.5  26290.70  681.27  2.59
2484.6  25961.83  664.89  2.56
2486.8  25653.80  654.17  2.55
2488.9  25332.25  641.85  2.53
2491.1  24990.00  629.38  2.52
2493.2  24604.63  612.06  2.49
2495.3  24178.27  582.55  2.41
2497.4  23828.00  574.23  2.41
2499.5  23498.20  582.60  2.48
2501.7  23368.20  564.21  2.41
2503.8  23252.88  551.65  2.37
2505.9  23182.08  552.36  2.38
2508.0  23192.07  543.02  2.34
2510.1  23176.80  548.42  2.37
2512.2  23267.80  538.27  2.31
2514.3  23425.43  544.19  2.32
2516.4  23600.60  577.87  2.45
