/*** Spectra Vista SIG Data ***/
name= 62_20220722_CECA_17_avg.sig
comm= Averaged Ref/Tar of files: HR.072222.0060_moc.sig,HR.072222.0061_moc.sig,HR.072222.0062_moc.sig
data=
337.3  3051.94  277.90  9.11
338.8  3150.55  269.36  8.55
340.3  3279.50  268.61  8.19
341.8  3452.24  280.45  8.12
343.2  3618.60  284.16  7.85
344.7  3795.85  261.59  6.89
346.2  3942.03  261.44  6.63
347.7  4129.13  246.44  5.97
349.2  4271.40  246.96  5.78
350.6  4498.81  249.73  5.55
352.1  4733.56  257.22  5.43
353.6  5014.15  254.47  5.07
355.1  5270.14  264.91  5.03
356.6  5522.59  257.83  4.67
358.0  5773.90  259.45  4.49
359.5  6025.50  263.68  4.38
361.0  6299.21  279.30  4.43
362.5  6616.15  288.85  4.37
364.0  6939.35  302.04  4.35
365.4  7277.90  303.48  4.17
366.9  7610.69  305.72  4.02
368.4  7937.03  312.75  3.94
369.9  8269.65  331.51  4.01
371.3  8637.45  345.32  4.00
372.8  9000.45  357.54  3.97
374.3  9392.81  365.50  3.89
375.8  9769.38  370.11  3.79
377.2  10154.75  369.43  3.64
378.7  10544.80  373.01  3.54
380.2  10921.40  383.77  3.51
381.7  11404.55  392.76  3.44
383.1  11858.00  406.05  3.42
384.6  12341.06  413.62  3.35
386.1  12796.34  421.59  3.29
387.6  13232.45  424.01  3.20
389.0  13694.80  435.95  3.18
390.5  14164.43  438.96  3.10
392.0  14692.98  451.41  3.07
393.4  15226.36  465.94  3.06
394.9  15738.30  480.24  3.05
396.4  16249.50  493.35  3.04
397.9  16758.75  505.67  3.02
399.3  17271.65  520.01  3.01
400.8  17783.99  521.76  2.93
402.2  18375.68  527.01  2.87
403.7  18947.03  539.28  2.85
405.2  19484.53  558.73  2.87
406.6  20021.60  572.27  2.86
408.1  20588.60  584.59  2.84
409.6  21137.85  597.04  2.82
411.0  21744.98  606.34  2.79
412.5  22345.23  621.97  2.78
414.0  22932.06  646.57  2.82
415.4  23591.63  673.10  2.85
416.9  24199.76  693.90  2.87
418.4  24828.41  719.61  2.90
419.8  25489.10  742.56  2.91
421.3  26149.28  772.42  2.95
422.7  26865.60  805.04  3.00
424.2  27582.19  839.25  3.04
425.7  28272.35  875.85  3.10
427.1  28967.66  915.74  3.16
428.6  29698.00  948.60  3.19
430.0  30365.18  979.29  3.23
431.5  31155.94  1014.90  3.26
432.9  31958.98  1050.89  3.29
434.4  32782.76  1090.61  3.33
435.9  33544.00  1127.47  3.36
437.3  34313.13  1162.33  3.39
438.8  35077.80  1198.22  3.42
440.2  35856.98  1230.72  3.43
441.7  36742.80  1272.11  3.46
443.1  37570.38  1307.33  3.48
444.6  38461.60  1348.43  3.51
446.0  39314.25  1385.73  3.52
447.5  40190.29  1426.92  3.55
448.9  41041.35  1463.72  3.57
450.4  41951.53  1502.20  3.58
451.8  42744.00  1537.47  3.60
453.3  43585.51  1572.49  3.61
454.7  44518.33  1612.62  3.62
456.2  45315.46  1643.43  3.63
457.6  46210.28  1677.96  3.63
459.1  47097.21  1712.71  3.64
460.5  47942.69  1745.88  3.64
462.0  48906.40  1781.69  3.64
463.4  49847.45  1812.05  3.64
464.8  50754.75  1846.30  3.64
466.3  51668.10  1875.61  3.63
467.7  52577.16  1910.45  3.63
469.2  53541.30  1946.10  3.63
470.6  54436.73  1983.86  3.64
472.0  55385.13  2013.66  3.64
473.5  56295.19  2047.18  3.64
474.9  57235.13  2078.60  3.63
476.4  58291.20  2123.52  3.64
477.8  59276.00  2161.47  3.65
479.2  60211.25  2198.20  3.65
480.7  61222.01  2236.87  3.65
482.1  62257.83  2279.25  3.66
483.6  63348.80  2323.56  3.67
485.0  64341.38  2362.32  3.67
486.4  65438.63  2403.66  3.67
487.9  66434.06  2449.20  3.69
489.3  67506.76  2503.25  3.71
490.7  68493.34  2550.37  3.72
492.2  69619.20  2608.76  3.75
493.6  70620.33  2658.49  3.76
495.0  71640.56  2716.35  3.79
496.5  72721.96  2778.47  3.82
497.9  73741.88  2848.91  3.86
499.3  74805.81  2919.35  3.90
500.7  75952.93  3004.23  3.96
502.2  77000.40  3095.20  4.02
503.6  78131.90  3198.37  4.09
505.0  79110.00  3306.99  4.18
506.5  80309.51  3437.65  4.28
507.9  81418.90  3583.70  4.40
509.3  82680.20  3753.28  4.54
510.7  83815.88  3946.80  4.71
512.2  85105.76  4163.01  4.89
513.6  86451.58  4414.06  5.11
515.0  87754.03  4703.73  5.36
516.4  89011.91  5019.84  5.64
517.8  90477.69  5390.10  5.96
519.3  91677.51  5780.13  6.30
520.7  93088.28  6219.47  6.68
522.1  94289.33  6667.01  7.07
523.5  95534.70  7140.89  7.47
524.9  96813.00  7620.42  7.87
526.3  98032.03  8089.57  8.25
527.8  99376.20  8565.48  8.62
529.2  100515.40  9023.44  8.98
530.6  102045.90  9498.47  9.31
532.0  103656.00  9947.47  9.60
533.4  104819.36  10315.19  9.84
534.8  105634.69  10609.98  10.04
536.3  107205.45  10952.96  10.22
537.7  109103.40  11306.40  10.36
539.1  110444.33  11587.14  10.49
540.5  111522.75  11821.85  10.60
541.9  113116.54  12101.56  10.70
543.3  114268.40  12335.86  10.80
544.7  115447.80  12562.80  10.88
546.1  117051.41  12838.47  10.97
547.5  118232.80  13053.23  11.04
549.0  119867.00  13301.20  11.10
550.4  121183.44  13503.67  11.14
551.8  122558.36  13676.89  11.16
553.2  123945.44  13814.43  11.15
554.6  125158.80  13891.63  11.10
556.0  126544.28  13938.00  11.01
557.4  127999.03  13952.52  10.90
558.8  129462.98  13928.34  10.76
560.2  130766.50  13844.40  10.59
561.6  132272.40  13751.27  10.40
563.0  133713.38  13609.12  10.18
564.4  135150.78  13436.48  9.94
565.8  136525.94  13224.58  9.69
567.2  138099.88  13001.77  9.41
568.6  139466.44  12739.70  9.13
570.0  140770.84  12451.50  8.85
571.4  142340.58  12181.52  8.56
572.8  143924.13  11923.03  8.28
574.2  145392.80  11676.37  8.03
575.6  146767.50  11440.50  7.79
577.0  148148.65  11235.21  7.58
578.4  149712.06  11068.63  7.39
579.8  151079.85  10905.84  7.22
581.2  152639.53  10783.27  7.06
582.5  153919.35  10656.36  6.92
583.9  155293.90  10555.49  6.80
585.3  156927.04  10486.05  6.68
586.7  158267.04  10413.65  6.58
588.1  159619.56  10354.75  6.49
589.5  161099.75  10324.30  6.41
590.9  162582.60  10303.57  6.34
592.3  164223.03  10309.41  6.28
593.7  165535.50  10303.93  6.22
595.0  167013.56  10318.14  6.18
596.4  168330.58  10322.01  6.13
597.8  169667.74  10324.02  6.08
599.2  171065.40  10325.92  6.04
600.6  172645.36  10324.21  5.98
602.0  173826.90  10283.55  5.92
603.3  175452.18  10254.64  5.84
604.7  176961.34  10196.08  5.76
606.1  178309.80  10114.48  5.67
607.5  179785.68  10027.86  5.58
608.9  181322.28  9932.41  5.48
610.2  182574.00  9818.55  5.38
611.6  184026.11  9710.44  5.28
613.0  185422.40  9610.21  5.18
614.4  186669.23  9502.12  5.09
615.8  187989.75  9406.80  5.00
617.1  189372.75  9331.56  4.93
618.5  190853.40  9276.64  4.86
619.9  192211.61  9229.62  4.80
621.3  193683.60  9205.80  4.75
622.6  195131.38  9200.83  4.72
624.0  196454.48  9195.84  4.68
625.4  197802.83  9208.54  4.66
626.8  199245.64  9240.75  4.64
628.1  200459.88  9269.88  4.62
629.5  202166.85  9326.71  4.61
630.9  203640.11  9371.63  4.60
632.2  204913.71  9399.62  4.59
633.6  206381.94  9421.03  4.56
635.0  207776.00  9425.60  4.54
636.3  209157.00  9399.67  4.49
637.7  210402.56  9352.38  4.44
639.1  211907.50  9286.67  4.38
640.4  213257.71  9193.36  4.31
641.8  214372.36  9078.87  4.24
643.2  215831.35  8976.45  4.16
644.5  217074.63  8867.07  4.08
645.9  218604.83  8767.44  4.01
647.2  220297.18  8703.29  3.95
648.6  221980.50  8645.40  3.89
650.0  223290.00  8602.56  3.85
651.3  223776.30  8527.42  3.81
652.7  224864.28  8482.40  3.77
654.0  226858.85  8469.95  3.73
655.4  228182.73  8435.86  3.70
656.8  228316.60  8353.60  3.66
658.1  229372.15  8299.12  3.62
659.5  231630.79  8286.53  3.58
660.8  233381.25  8268.00  3.54
662.2  234180.80  8210.35  3.51
663.5  235609.55  8186.64  3.47
664.9  236801.50  8165.21  3.45
666.2  237473.40  8145.92  3.43
667.6  239000.29  8170.95  3.42
668.9  240161.55  8217.12  3.42
670.3  241135.38  8263.83  3.43
671.6  242567.44  8351.45  3.44
673.0  243640.50  8445.85  3.47
674.3  244779.60  8560.07  3.50
675.7  245992.76  8685.78  3.53
677.0  247010.38  8812.94  3.57
678.4  248254.79  8977.39  3.62
679.7  249256.93  9147.72  3.67
681.1  250462.95  9342.14  3.73
682.4  251520.10  9553.09  3.80
683.8  252669.30  9791.77  3.88
685.1  253574.63  10062.45  3.97
686.4  254778.30  10389.60  4.08
687.8  255941.75  10789.77  4.22
689.1  256920.75  11285.20  4.39
690.5  258187.20  11943.84  4.63
691.8  258934.48  12822.74  4.95
693.1  260157.90  14024.88  5.39
694.5  261238.25  15579.20  5.96
695.8  262353.00  17559.97  6.69
697.1  263445.00  20004.83  7.59
698.5  264420.95  22936.08  8.67
699.8  265433.55  26357.42  9.93
701.1  266499.28  30248.45  11.35
702.5  267194.95  34507.51  12.91
703.8  268087.50  39108.00  14.59
705.1  269156.06  43994.86  16.35
706.5  270122.19  49054.95  18.16
707.8  271027.28  54230.04  20.01
709.1  271840.36  59444.03  21.87
710.5  272911.96  64739.52  23.72
711.8  273710.20  69959.56  25.56
713.1  274624.50  75195.60  27.38
714.4  275471.90  80345.41  29.17
715.8  276230.10  85388.19  30.91
717.1  277441.73  90463.86  32.61
718.4  278320.00  95298.56  34.24
719.7  279375.49  100061.70  35.82
721.0  279877.50  104493.00  37.34
722.4  280589.65  108829.31  38.79
723.7  281505.53  113056.72  40.16
725.0  282483.11  117142.83  41.47
726.3  283383.79  120987.72  42.69
727.6  283897.35  124493.64  43.85
729.0  284762.89  127945.95  44.93
730.3  285486.98  131156.54  45.94
731.6  286330.78  134232.96  46.88
732.9  287097.13  137092.85  47.75
734.2  287874.81  139788.73  48.56
735.5  288839.95  142407.80  49.30
736.8  289578.45  144750.12  49.99
738.1  290373.05  146965.88  50.61
739.5  291284.58  149104.95  51.19
740.8  291962.28  150978.12  51.71
742.1  292691.85  152752.74  52.19
743.4  293412.50  154420.00  52.63
744.7  294346.10  156085.00  53.03
746.0  295175.40  157572.22  53.38
747.3  295732.65  158806.34  53.70
748.6  296459.75  160031.10  53.98
749.9  297167.00  161165.33  54.23
751.2  297861.58  162227.63  54.46
752.5  298711.45  163305.01  54.67
753.8  299301.89  164185.58  54.86
755.1  299962.00  165044.53  55.02
756.4  300517.76  165782.84  55.17
757.7  301453.08  166660.97  55.29
759.0  303134.78  167920.42  55.39
760.3  304246.80  168798.08  55.48
761.6  305740.40  169856.96  55.56
762.9  306287.50  170372.53  55.63
764.2  306660.00  170754.03  55.68
765.5  306963.46  171071.85  55.73
766.8  307414.40  171439.79  55.77
768.1  307948.60  171830.88  55.80
769.3  308532.53  172230.01  55.82
770.6  309196.88  172656.47  55.84
771.9  309925.00  173118.47  55.86
773.2  310326.80  173387.68  55.87
774.5  310924.90  173765.97  55.89
775.8  311623.28  174177.07  55.89
777.1  312196.50  174530.77  55.90
778.4  312552.35  174737.42  55.91
779.6  313301.50  175175.37  55.91
780.9  313800.00  175456.00  55.91
782.2  314267.25  175744.43  55.92
783.5  314607.50  175944.33  55.93
784.8  315139.39  176253.24  55.93
786.0  315565.08  176500.05  55.93
787.3  315977.53  176717.44  55.93
788.6  316404.15  176963.97  55.93
789.9  316880.20  177237.39  55.93
791.2  317524.81  177585.87  55.93
792.4  318208.75  177972.67  55.93
793.7  318686.10  178244.67  55.93
795.0  319308.00  178600.51  55.93
796.2  319952.41  178955.68  55.93
797.5  320668.01  179347.68  55.93
798.8  321322.45  179713.25  55.93
800.0  321984.71  180096.91  55.93
801.3  322499.35  180370.04  55.93
802.6  323088.41  180700.17  55.93
803.8  323701.31  181057.12  55.93
805.1  324214.63  181327.42  55.93
806.4  324669.15  181584.60  55.93
807.7  325209.94  181894.41  55.93
808.9  325719.38  182208.10  55.94
810.2  326267.73  182494.25  55.93
811.4  326754.85  182781.15  55.94
812.7  327335.94  183115.83  55.94
814.0  328150.68  183561.92  55.94
815.2  328760.38  183905.97  55.94
816.5  329174.29  184138.63  55.94
817.7  329645.05  184414.97  55.94
819.0  330111.38  184691.47  55.95
820.2  330264.00  184805.87  55.96
821.5  330923.48  185178.43  55.96
822.7  331254.54  185386.03  55.96
824.0  331581.60  185558.40  55.96
825.2  332056.46  185828.04  55.96
826.5  332366.89  186005.06  55.96
827.7  332861.28  186311.39  55.97
829.0  333254.64  186519.30  55.97
830.2  333564.98  186690.23  55.97
831.5  333999.00  186945.83  55.97
832.7  334297.16  187091.66  55.97
834.0  334634.89  187272.09  55.96
835.2  334978.19  187465.23  55.96
836.4  335251.40  187621.28  55.96
837.7  335606.40  187857.20  55.98
838.9  336012.58  188092.14  55.98
840.1  336402.11  188318.70  55.98
841.4  336848.00  188559.01  55.98
842.6  337205.20  188743.97  55.97
843.8  337536.00  188934.21  55.97
845.1  337998.25  189223.63  55.98
846.3  338363.00  189451.23  55.99
847.5  338725.80  189691.32  56.00
848.8  339096.60  189907.28  56.00
850.0  339469.03  190096.81  56.00
851.2  339996.83  190383.84  56.00
852.5  340372.05  190593.77  56.00
853.7  340833.38  190843.20  55.99
854.9  341274.30  191108.32  56.00
856.1  341645.85  191343.10  56.01
857.4  341838.00  191447.37  56.01
858.6  342323.23  191679.95  55.99
859.8  342712.50  191891.25  55.99
861.0  343137.60  192142.08  56.00
862.2  343612.09  192376.33  55.99
863.5  343969.93  192586.77  55.99
864.7  344450.70  192874.00  55.99
865.9  344869.90  193071.36  55.98
867.1  345205.33  193225.01  55.97
868.3  345582.45  193462.30  55.98
869.5  346023.10  193704.35  55.98
870.8  346545.00  193983.60  55.98
872.0  347034.60  194250.71  55.97
873.2  347454.90  194447.62  55.96
874.4  347884.88  194678.64  55.96
875.6  348257.76  194874.37  55.96
876.8  348770.93  195108.48  55.94
878.0  349257.88  195383.01  55.94
879.2  349692.15  195638.06  55.95
880.4  350263.31  195872.05  55.92
881.6  350732.53  196101.23  55.91
882.8  351131.20  196309.33  55.91
884.0  351710.94  196606.05  55.90
885.2  352203.20  196892.35  55.90
886.5  352823.35  197187.77  55.89
887.7  353258.10  197442.83  55.89
888.8  353918.81  197738.16  55.87
890.0  354545.75  198003.25  55.85
891.2  355076.15  198281.69  55.84
892.4  355678.58  198602.25  55.84
893.6  356254.13  198904.94  55.83
894.8  357178.50  199383.93  55.82
896.0  358044.38  199810.10  55.81
897.2  358821.13  200196.97  55.79
898.4  359584.50  200576.20  55.78
899.6  360134.63  200838.85  55.77
900.8  360553.50  201010.33  55.75
902.0  360849.30  201137.30  55.74
903.2  361225.46  201321.11  55.73
904.3  361568.40  201497.68  55.73
905.5  362206.89  201806.04  55.72
906.7  362802.75  202075.40  55.70
907.9  363355.83  202341.58  55.69
909.1  363754.13  202472.28  55.66
910.2  363979.24  202601.49  55.66
911.4  364332.15  202721.22  55.64
912.6  364589.23  202826.43  55.63
913.8  364869.23  202959.79  55.63
915.0  365291.33  203168.70  55.62
916.2  365483.63  203239.40  55.61
917.3  365575.61  203247.45  55.60
918.5  365906.25  203354.97  55.58
919.7  366235.20  203481.54  55.56
920.8  366417.36  203510.51  55.54
922.0  366520.00  203526.40  55.53
923.2  366775.50  203603.40  55.51
924.4  367108.88  203706.45  55.49
925.5  367515.85  203771.72  55.45
926.7  368181.75  204070.83  55.43
927.9  369019.20  204464.40  55.41
929.0  370450.13  205166.34  55.38
930.2  372548.20  206217.39  55.35
931.4  374788.35  207466.65  55.36
932.5  377442.05  208754.21  55.31
933.7  378874.85  209416.78  55.27
934.9  379596.88  209703.67  55.24
936.0  379292.88  209423.50  55.21
937.2  377474.18  208334.64  55.19
938.3  376003.93  207399.72  55.16
939.5  374608.80  206559.36  55.14
940.7  374913.90  206600.88  55.11
941.8  376374.34  207235.40  55.06
943.0  377859.00  207882.20  55.02
944.2  378816.10  208221.00  54.97
945.3  378558.38  207875.20  54.91
946.5  377833.28  207365.76  54.88
947.6  378062.75  207430.75  54.87
948.8  378154.73  207192.83  54.79
949.9  378415.80  207085.76  54.72
951.1  378190.15  206701.17  54.66
952.2  378012.00  206393.60  54.60
953.4  377816.75  205951.23  54.51
954.5  377921.70  205770.24  54.45
955.7  377955.90  205574.88  54.39
956.8  377838.60  205232.75  54.32
958.0  377657.50  204872.73  54.25
959.1  377637.93  204597.14  54.18
960.3  377273.99  204217.80  54.13
961.4  377273.68  204121.05  54.10
962.6  377606.25  204139.13  54.06
963.7  377555.18  203946.85  54.02
964.9  377667.11  203899.24  53.99
966.0  377532.90  203819.76  53.99
967.2  377734.50  203747.70  53.94
968.3  377447.85  203584.86  53.94
969.5  377426.25  203381.49  53.89
970.6  377507.94  203416.39  53.88
971.8  377874.35  203529.15  53.86
972.9  377792.25  203445.81  53.85
974.0  378206.95  203535.41  53.82
975.2  378307.63  203446.95  53.78
976.3  378423.14  203450.99  53.76
977.5  378364.09  203407.73  53.76
978.6  378494.60  203357.49  53.73
979.7  378429.98  203358.33  53.74
980.9  378326.08  203276.99  53.73
982.0  378680.55  203242.83  53.67
983.2  378595.43  203075.66  53.64
984.3  378484.80  203091.17  53.66
985.4  378677.34  203118.40  53.64
986.6  378608.06  203070.67  53.64
987.7  379594.95  203407.24  53.59
988.9  379514.70  203418.96  53.60
990.0  380587.10  203561.95  53.49
993.1  324996.58  173863.62  53.50
996.9  325758.18  174599.96  53.60
1000.7  326894.40  175509.36  53.69
1004.5  327534.00  176122.74  53.77
1008.4  327337.50  176339.16  53.87
1012.2  327462.50  176626.36  53.94
1016.0  327580.20  176939.48  54.01
1019.8  327846.75  177280.95  54.07
1023.7  328005.71  177496.54  54.11
1027.5  327937.78  177612.25  54.16
1031.3  328318.63  177940.80  54.20
1035.1  328370.70  178095.86  54.24
1038.9  328462.02  178232.01  54.26
1042.7  328380.83  178277.77  54.29
1046.5  328260.83  178281.45  54.31
1050.3  328348.34  178332.67  54.31
1054.2  328118.58  178247.83  54.32
1058.0  327682.95  178012.68  54.32
1061.8  327568.98  177966.27  54.33
1065.6  327423.40  177844.53  54.32
1069.4  327554.20  177853.95  54.30
1073.2  327279.71  177653.42  54.28
1077.0  326942.23  177361.96  54.25
1080.8  326461.46  176947.47  54.20
1084.6  325433.50  176245.18  54.16
1088.4  324743.07  175784.35  54.13
1092.2  324002.25  175240.93  54.09
1096.0  323471.10  174823.47  54.05
1099.8  323115.87  174431.81  53.98
1103.6  322555.88  173943.48  53.93
1107.4  321802.36  173311.14  53.86
1111.2  321624.70  173010.24  53.79
1114.9  321076.58  172470.42  53.72
1118.7  320547.15  171871.43  53.62
1122.5  319928.27  171144.50  53.49
1126.3  318940.30  170156.33  53.35
1130.1  318521.03  169287.46  53.15
1133.9  317119.60  167665.50  52.87
1137.7  315878.70  165930.21  52.53
1141.4  314309.23  163803.99  52.12
1145.2  313705.28  162023.60  51.65
1149.0  312746.88  160150.63  51.21
1152.8  311318.55  158214.23  50.82
1156.6  309887.78  156582.80  50.53
1160.3  308352.00  155208.43  50.33
1164.1  306212.40  153774.35  50.22
1167.9  304606.25  152765.18  50.15
1171.7  303486.75  152084.25  50.11
1175.4  302477.47  151506.54  50.09
1179.2  301620.30  150967.43  50.05
1183.0  301371.33  150709.34  50.01
1186.7  300875.63  150314.93  49.96
1190.5  299884.07  149704.38  49.92
1194.3  298811.43  149078.31  49.89
1198.0  297774.95  148515.75  49.88
1201.8  296474.05  147860.53  49.87
1205.6  295380.67  147387.24  49.90
1209.3  294516.95  147127.95  49.96
1213.1  293631.23  146888.38  50.02
1216.8  292728.79  146704.76  50.12
1220.6  291737.60  146484.80  50.21
1224.3  290646.00  146192.32  50.30
1228.1  289583.80  145932.34  50.39
1231.9  288514.13  145592.89  50.46
1235.6  287269.50  145138.06  50.52
1239.4  286135.88  144729.55  50.58
1243.1  285070.83  144290.51  50.62
1246.9  283990.11  143825.92  50.64
1250.6  283149.40  143438.49  50.66
1254.3  282217.47  142989.11  50.67
1258.1  281391.02  142554.07  50.66
1261.8  280287.60  141969.07  50.65
1265.6  279005.78  141259.27  50.63
1269.3  277654.63  140482.34  50.60
1273.1  277541.86  140304.83  50.55
1276.8  277848.80  140297.31  50.49
1280.6  277840.53  140101.00  50.42
1284.3  276700.80  139306.29  50.35
1288.0  275409.94  138392.92  50.25
1291.8  274191.82  137443.94  50.13
1295.5  272895.33  136444.21  50.00
1299.2  271777.97  135468.55  49.85
1302.9  270508.03  134347.61  49.66
1306.7  269152.10  133121.92  49.46
1310.4  267858.47  131798.48  49.20
1314.1  266656.87  130456.83  48.92
1317.9  265613.54  129060.09  48.59
1321.6  264395.77  127479.79  48.22
1325.3  262966.20  125686.73  47.80
1329.0  261772.93  123954.38  47.35
1332.8  259921.20  121785.40  46.85
1336.5  258312.00  119716.84  46.35
1340.2  257985.00  118241.50  45.83
1343.9  257629.17  116736.99  45.31
1347.6  257118.90  115164.30  44.79
1351.4  257393.00  113980.36  44.28
1355.1  257816.53  112891.59  43.79
1358.8  258016.00  111629.71  43.26
1362.5  257635.40  109990.00  42.69
1366.2  256025.95  107588.99  42.02
1369.9  254317.50  104861.18  41.23
1373.6  252601.36  101701.79  40.26
1377.3  251029.20  98005.33  39.04
1381.0  249969.00  93720.48  37.49
1384.8  248153.75  88244.47  35.56
1388.4  246015.47  82142.92  33.39
1392.2  244386.25  75791.56  31.01
1395.9  242955.03  69353.91  28.55
1399.6  241452.48  63185.94  26.17
1403.3  240393.38  57702.51  24.00
1407.0  239346.50  52994.23  22.14
1410.7  238244.33  49141.12  20.63
1414.3  237136.14  46145.55  19.46
1418.1  236118.63  43946.06  18.61
1421.7  235325.83  42399.99  18.02
1425.4  234501.80  41340.69  17.63
1429.1  233746.13  40677.86  17.40
1432.8  232450.12  40217.95  17.30
1436.5  231721.32  40062.13  17.29
1440.2  230931.50  40055.26  17.35
1443.9  229772.40  40083.58  17.44
1447.6  228351.20  40139.00  17.58
1451.2  227413.08  40300.25  17.72
1454.9  226295.55  40472.14  17.88
1458.6  225348.77  40764.75  18.09
1462.3  224342.43  41169.86  18.35
1466.0  223147.93  41700.74  18.69
1469.7  221704.82  42358.12  19.11
1473.3  220794.17  43262.47  19.59
1477.0  219122.57  44133.35  20.14
1480.7  217749.16  45120.03  20.72
1484.4  216083.35  46050.86  21.31
1488.0  214734.67  47082.10  21.93
1491.7  213315.58  48067.04  22.53
1495.4  211809.19  49028.31  23.15
1499.0  210395.00  49962.86  23.75
1502.7  209243.50  50948.50  24.35
1506.4  207994.82  51860.25  24.93
1510.0  206765.07  52733.88  25.50
1513.7  205514.17  53548.84  26.06
1517.4  204350.33  54352.00  26.60
1521.0  203285.73  55146.78  27.13
1524.7  202208.50  55860.54  27.63
1528.3  201083.50  56522.20  28.11
1532.0  200004.93  57140.23  28.57
1535.7  198786.42  57660.76  29.01
1539.3  197678.65  58178.61  29.43
1543.0  196817.08  58734.94  29.84
1546.6  196209.00  59327.05  30.24
1550.3  195351.20  59794.79  30.61
1553.9  194417.80  60205.00  30.97
1557.6  193297.13  60524.41  31.31
1561.2  192189.15  60786.13  31.63
1564.9  191064.84  61022.20  31.94
1568.5  189910.12  61219.55  32.24
1572.2  188916.30  61434.63  32.52
1575.8  187964.00  61654.00  32.80
1579.5  187099.65  61860.03  33.06
1583.1  186218.68  62060.97  33.33
1586.8  185150.00  62170.00  33.58
1590.4  184257.67  62310.01  33.82
1594.0  183100.88  62348.05  34.05
1597.7  182078.03  62417.73  34.28
1601.3  180901.35  62424.68  34.51
1604.9  179739.21  62403.94  34.72
1608.6  178581.15  62367.66  34.92
1612.2  177710.78  62395.22  35.11
1615.8  176727.85  62356.45  35.28
1619.5  175753.58  62291.00  35.44
1623.1  174597.30  62141.69  35.59
1626.7  173513.60  61985.11  35.72
1630.3  172455.33  61815.85  35.84
1634.0  171374.00  61614.00  35.95
1637.6  170375.47  61401.00  36.04
1641.2  169358.70  61119.50  36.09
1644.8  168171.33  60724.28  36.11
1648.5  167169.44  60364.67  36.11
1652.1  166253.10  59989.46  36.08
1655.7  165444.20  59621.74  36.04
1659.3  164703.89  59295.10  36.00
1662.9  163469.17  58809.88  35.98
1666.6  162230.87  58352.55  35.97
1670.2  161024.15  57896.24  35.96
1673.8  159812.82  57409.81  35.92
1677.4  158849.30  56980.78  35.87
1681.0  158174.85  56589.55  35.78
1684.6  157817.83  56256.88  35.65
1688.2  157192.35  55728.77  35.45
1691.8  156618.96  55237.35  35.27
1695.4  156242.60  54769.40  35.05
1699.0  155968.87  54328.63  34.83
1702.6  155731.67  53876.95  34.60
1706.2  155235.38  53314.95  34.34
1709.8  154453.63  52666.70  34.10
1713.4  153854.97  52112.10  33.87
1717.0  153119.75  51570.21  33.68
1720.6  152433.68  51066.62  33.50
1724.2  151787.25  50593.62  33.33
1727.8  151147.15  50135.85  33.17
1731.4  150720.63  49759.09  33.01
1735.0  150523.27  49473.73  32.87
1738.6  150297.60  49142.04  32.70
1742.2  149779.48  48667.36  32.49
1745.8  149227.84  48133.70  32.26
1749.4  148395.23  47488.53  32.00
1753.0  147054.07  46686.54  31.75
1756.6  145586.58  45867.09  31.51
1760.1  144413.60  45175.77  31.28
1763.7  142906.67  44400.95  31.07
1767.3  141658.63  43732.18  30.87
1770.9  140583.04  43123.50  30.67
1774.5  139320.24  42488.81  30.50
1778.0  138304.93  41963.72  30.34
1781.6  137349.90  41506.67  30.22
1785.2  136351.88  41080.49  30.13
1788.8  135326.20  40700.97  30.08
1792.3  134251.37  40324.81  30.04
1795.9  133848.00  40156.61  30.00
1799.5  133417.33  39997.00  29.98
1803.1  132714.05  39784.73  29.98
1806.6  132961.09  39856.42  29.98
1810.2  133921.43  40142.07  29.97
1813.8  134836.05  40398.36  29.96
1817.3  134978.20  40404.83  29.93
1820.9  134406.48  40185.72  29.90
1824.5  133430.38  39828.32  29.85
1828.0  132743.88  39523.72  29.77
1831.6  132127.85  39212.08  29.68
1835.2  131580.00  38857.14  29.53
1838.7  131250.53  38490.49  29.33
1842.3  130935.00  38050.71  29.06
1845.8  130239.13  37379.39  28.70
1849.4  129804.30  36644.80  28.23
1852.9  129217.32  35690.70  27.62
1856.5  128401.48  34478.15  26.85
1860.0  127722.98  33045.10  25.87
1863.6  127541.73  31500.30  24.70
1867.1  127458.80  29708.70  23.31
1870.7  127460.73  27537.70  21.60
1874.2  126769.95  24841.61  19.60
1877.8  125591.80  21935.76  17.47
1881.3  124247.38  18968.23  15.27
1884.9  123399.83  16219.37  13.14
1888.4  122498.89  13656.60  11.15
1891.9  121643.47  11475.40  9.43
1895.5  120720.70  9740.87  8.07
1899.0  120320.38  8493.04  7.06
1901.3  147403.00  6559.92  4.45
1904.1  147350.25  5837.25  3.96
1906.8  146717.55  5273.40  3.59
1909.6  145204.76  4839.54  3.33
1912.4  143744.21  4540.23  3.16
1915.1  142689.11  4329.46  3.03
1917.9  141504.25  4185.71  2.96
1920.6  140542.08  4090.94  2.91
1923.3  139545.18  4029.85  2.89
1926.1  138348.75  4000.64  2.89
1928.8  137203.00  4015.00  2.93
1931.6  136297.96  4048.28  2.97
1934.3  135448.63  4096.24  3.02
1937.0  134624.78  4171.57  3.10
1939.8  133700.63  4265.56  3.19
1942.5  132577.50  4361.50  3.29
1945.2  131137.05  4449.09  3.39
1947.9  129934.18  4557.64  3.51
1950.7  128993.25  4685.56  3.63
1953.4  127499.66  4808.42  3.77
1956.1  126326.94  4953.17  3.92
1958.8  125299.85  5114.85  4.08
1961.5  124055.10  5276.20  4.25
1964.2  122768.10  5446.35  4.44
1966.9  121408.01  5613.26  4.62
1969.6  120345.75  5805.00  4.82
1972.3  119142.08  5989.70  5.03
1975.0  118227.15  6203.85  5.25
1977.7  117272.69  6422.94  5.48
1980.4  116278.88  6647.33  5.72
1983.1  115334.58  6870.92  5.96
1985.8  114539.85  7103.55  6.20
1988.4  113652.50  7338.50  6.46
1991.1  112839.83  7573.59  6.71
1993.8  112066.21  7813.16  6.97
1996.5  111510.44  8078.13  7.24
1999.1  110922.35  8323.70  7.50
2001.8  110327.53  8572.90  7.77
2004.5  109723.09  8823.00  8.04
2007.1  109087.31  9056.55  8.30
2009.8  108443.30  9276.52  8.55
2012.4  107962.53  9510.65  8.81
2015.1  107491.48  9742.72  9.06
2017.8  106785.70  9934.81  9.30
2020.4  106353.36  10135.36  9.53
2023.1  106041.08  10349.21  9.76
2025.7  105820.00  10558.17  9.98
2028.3  105521.00  10744.50  10.18
2031.0  105189.90  10919.29  10.38
2033.6  104954.63  11085.98  10.56
2036.2  104732.78  11236.05  10.73
2038.9  104210.78  11355.68  10.90
2041.5  103926.64  11495.11  11.06
2044.1  103447.35  11592.75  11.21
2046.8  103140.68  11703.68  11.35
2049.4  102579.53  11779.80  11.48
2052.0  102304.45  11883.88  11.62
2054.6  101948.44  11976.56  11.75
2057.2  101472.60  12054.18  11.88
2059.8  101204.05  12163.35  12.02
2062.4  100448.69  12212.05  12.16
2065.0  99992.30  12294.35  12.30
2067.6  99232.71  12327.55  12.42
2070.2  98709.71  12390.74  12.55
2072.8  98160.56  12447.40  12.68
2075.4  97774.69  12521.25  12.81
2078.0  97211.74  12571.15  12.93
2080.6  96723.00  12630.20  13.06
2083.2  96133.08  12670.03  13.18
2085.8  95709.79  12722.66  13.29
2088.4  95121.75  12753.13  13.41
2090.9  94419.89  12768.74  13.52
2093.5  93667.45  12770.85  13.63
2096.1  92995.74  12777.56  13.74
2098.7  92317.23  12781.95  13.85
2101.2  91477.30  12763.77  13.95
2103.8  90894.35  12772.50  14.05
2106.4  90317.95  12785.60  14.16
2108.9  89767.75  12798.70  14.26
2111.5  89027.60  12785.60  14.36
2114.0  88470.85  12789.97  14.46
2116.6  88022.81  12801.25  14.54
2119.1  87559.28  12810.29  14.63
2121.7  87136.88  12818.75  14.71
2124.2  86783.43  12832.21  14.79
2126.8  86092.04  12806.10  14.87
2129.3  85740.60  12817.20  14.95
2131.9  85225.80  12801.80  15.02
2134.4  84860.44  12812.59  15.10
2136.9  84520.48  12827.54  15.18
2139.4  84062.65  12825.63  15.26
2142.0  83676.95  12830.07  15.33
2144.5  83444.18  12862.73  15.41
2147.0  83227.40  12901.97  15.50
2149.5  82798.60  12908.67  15.59
2152.1  82655.65  12947.23  15.66
2154.6  82565.60  12997.07  15.74
2157.1  82090.63  12984.62  15.82
2159.6  81750.00  12989.17  15.89
2162.1  81606.53  13022.10  15.96
2164.6  81391.70  13040.12  16.02
2167.1  81100.31  13049.52  16.09
2169.6  80807.13  13055.41  16.16
2172.1  80406.18  13044.39  16.22
2174.6  80140.45  13056.73  16.29
2177.1  79755.44  13050.05  16.36
2179.5  79391.98  13045.66  16.43
2182.0  78960.75  13036.24  16.51
2184.5  78496.28  13012.34  16.58
2187.0  77959.43  12977.91  16.65
2189.5  77355.55  12937.64  16.72
2191.9  76693.50  12886.75  16.80
2194.4  76151.70  12854.30  16.88
2196.9  75506.40  12799.20  16.95
2199.3  74936.00  12752.75  17.02
2201.8  74168.00  12663.07  17.07
2204.3  73764.89  12621.78  17.11
2206.7  73224.90  12573.53  17.17
2209.2  72827.81  12539.48  17.22
2211.6  72267.53  12483.90  17.27
2214.1  71998.20  12464.86  17.31
2216.5  71512.55  12404.25  17.35
2219.0  71229.45  12369.48  17.37
2221.4  70886.81  12316.50  17.37
2223.9  70462.88  12242.13  17.37
2226.3  70016.63  12150.40  17.35
2228.7  69536.66  12042.84  17.32
2231.1  69030.23  11904.75  17.25
2233.6  68517.65  11773.48  17.18
2236.0  68038.25  11632.25  17.10
2238.4  67614.31  11481.02  16.98
2240.9  67228.80  11326.48  16.85
2243.3  66759.45  11150.17  16.70
2245.7  66252.08  10949.98  16.53
2248.1  65839.80  10766.50  16.35
2250.5  65395.83  10567.36  16.16
2252.9  64845.63  10340.42  15.95
2255.3  64356.60  10131.59  15.74
2257.7  63967.50  9935.00  15.53
2260.1  63556.15  9737.35  15.32
2262.5  63030.00  9530.00  15.12
2264.9  62573.04  9336.91  14.92
2267.3  62047.50  9137.50  14.73
2269.7  61622.23  8969.80  14.56
2272.1  61136.73  8797.14  14.39
2274.5  60663.73  8625.60  14.22
2276.8  60242.74  8471.60  14.06
2279.2  59734.69  8303.81  13.90
2281.6  59365.65  8164.07  13.75
2284.0  58963.80  8021.93  13.60
2286.3  58558.00  7871.07  13.44
2288.7  58205.39  7726.61  13.27
2291.1  57739.03  7577.79  13.12
2293.4  57341.90  7448.47  12.99
2295.8  56794.20  7279.53  12.82
2298.2  56278.13  7118.21  12.65
2300.5  55719.23  6957.79  12.49
2302.9  55071.50  6799.33  12.35
2305.2  54438.08  6646.08  12.21
2307.6  53868.48  6512.40  12.09
2309.9  53180.50  6380.83  12.00
2312.2  52653.50  6277.50  11.92
2314.6  52125.19  6178.95  11.85
2316.9  51496.43  6072.87  11.79
2319.2  50988.45  5971.20  11.71
2321.6  50439.64  5861.39  11.62
2323.9  49960.94  5757.82  11.52
2326.2  49485.30  5660.09  11.44
2328.6  49047.08  5556.79  11.33
2330.9  48588.75  5454.75  11.23
2333.2  48164.75  5363.11  11.13
2335.5  47772.83  5277.78  11.05
2337.8  47384.66  5178.69  10.93
2340.1  46883.24  5065.47  10.80
2342.4  46507.50  4967.09  10.68
2344.8  46144.75  4885.21  10.59
2347.1  45640.53  4784.21  10.48
2349.4  45162.83  4693.10  10.39
2351.6  44658.81  4599.46  10.30
2353.9  44246.43  4518.15  10.21
2356.2  43796.89  4432.77  10.12
2358.5  43260.00  4342.80  10.04
2360.8  42747.60  4250.40  9.94
2363.1  42365.35  4172.60  9.85
2365.4  41951.25  4093.43  9.76
2367.7  41544.45  4015.65  9.67
2369.9  41065.43  3930.21  9.57
2372.2  40531.80  3838.47  9.47
2374.5  40012.09  3742.20  9.35
2376.7  39458.91  3647.63  9.24
2379.0  38922.23  3548.17  9.12
2381.3  38395.00  3465.00  9.02
2383.5  37954.40  3379.20  8.90
2385.8  37409.18  3279.96  8.77
2388.0  36948.75  3197.80  8.65
2390.3  36498.90  3117.97  8.54
2392.5  36072.00  3030.00  8.40
2394.8  35664.75  2955.43  8.29
2397.0  35235.20  2872.57  8.15
2399.3  34841.29  2805.21  8.05
2401.5  34434.75  2731.75  7.93
2403.8  33975.53  2641.93  7.78
2406.0  33525.00  2567.15  7.66
2408.2  33155.10  2490.22  7.51
2410.4  32778.11  2424.89  7.40
2412.7  32431.43  2359.40  7.28
2414.9  32115.19  2302.30  7.17
2417.1  31746.83  2222.50  7.00
2419.3  31382.40  2156.80  6.87
2421.6  31029.06  2086.04  6.72
2423.8  30682.38  2026.05  6.60
2426.0  30371.26  1979.96  6.52
2428.2  30046.80  1920.80  6.39
2430.4  29775.00  1859.29  6.24
2432.6  29540.00  1800.00  6.09
2434.8  29262.98  1741.01  5.95
2437.0  28945.48  1695.96  5.86
2439.2  28618.16  1659.17  5.80
2441.4  28333.48  1595.10  5.63
2443.6  28134.19  1547.47  5.50
2445.7  27895.09  1506.34  5.40
2447.9  27648.94  1450.81  5.25
2450.1  27376.43  1415.54  5.17
2452.3  27040.48  1372.85  5.08
2454.5  26732.04  1308.41  4.89
2456.6  26407.60  1269.73  4.81
2458.8  26083.20  1233.38  4.73
2461.0  25809.44  1200.19  4.65
2463.1  25535.25  1164.00  4.56
2465.3  25297.38  1119.45  4.43
2467.5  25078.69  1095.19  4.37
2469.6  24858.63  1074.00  4.32
2471.8  24574.78  1043.66  4.25
2473.9  24299.25  1014.36  4.17
2476.1  23978.50  978.25  4.08
2478.2  23684.03  955.89  4.04
2480.4  23404.91  928.68  3.97
2482.5  23085.65  905.78  3.92
2484.6  22778.94  884.35  3.88
2486.8  22572.68  863.50  3.83
2488.9  22301.85  840.46  3.77
2491.1  21991.20  805.23  3.66
2493.2  21626.85  790.35  3.65
2495.3  21284.25  773.61  3.63
2497.4  20974.28  752.68  3.59
2499.5  20682.30  736.34  3.56
2501.7  20558.10  727.18  3.54
2503.8  20473.74  714.64  3.49
2505.9  20410.31  696.15  3.41
2508.0  20402.54  683.15  3.35
2510.1  20400.41  688.51  3.37
2512.2  20451.08  692.71  3.39
2514.3  20587.43  688.15  3.34
2516.4  20832.75  709.20  3.40
