/*** Spectra Vista SIG Data ***/
name= 36_20220926_QUPH_11_avg.sig
comm= Averaged Ref/Tar of files: HR.092722.0025_moc.sig,HR.092722.0026_moc.sig
data=
337.3  6317.33  458.40  7.26
338.8  6541.60  426.03  6.51
340.3  6900.33  432.12  6.26
341.8  7167.28  440.67  6.15
343.2  7638.95  406.06  5.32
344.7  7986.38  404.84  5.07
346.2  8307.25  399.50  4.81
347.7  8785.65  384.45  4.38
349.2  9072.00  399.60  4.40
350.6  9569.55  396.56  4.14
352.1  10117.25  414.39  4.10
353.6  10664.00  402.98  3.78
355.1  11176.20  418.16  3.74
356.6  11778.58  418.34  3.55
358.0  12285.05  425.18  3.46
359.5  12804.75  435.54  3.40
361.0  13520.40  440.52  3.26
362.5  14188.05  469.64  3.31
364.0  14935.80  468.77  3.14
365.4  15601.65  490.02  3.14
366.9  16252.50  487.58  3.00
368.4  16943.65  496.32  2.93
369.9  17596.00  530.00  3.01
371.3  18541.33  562.77  3.04
372.8  19221.50  593.72  3.09
374.3  20145.80  601.15  2.98
375.8  20971.53  603.72  2.88
377.2  21744.45  601.72  2.77
378.7  22650.25  609.53  2.69
380.2  23409.90  625.17  2.67
381.7  24317.75  648.08  2.67
383.1  25360.73  677.90  2.67
384.6  26234.93  683.48  2.61
386.1  27206.10  685.43  2.52
387.6  28075.05  706.01  2.51
389.0  29043.45  733.95  2.53
390.5  30070.45  758.08  2.52
392.0  31153.50  783.65  2.52
393.4  32212.13  785.31  2.44
394.9  33237.70  799.86  2.41
396.4  34357.40  831.29  2.42
397.9  35470.80  866.02  2.44
399.3  36401.85  887.85  2.44
400.8  37577.10  917.87  2.44
402.2  38758.50  957.00  2.47
403.7  39907.50  985.95  2.47
405.2  41075.10  1007.62  2.45
406.6  42310.20  1035.43  2.45
408.1  43364.63  1062.89  2.45
409.6  44528.78  1093.82  2.46
411.0  45760.55  1133.04  2.48
412.5  47119.10  1175.95  2.50
414.0  48464.50  1220.13  2.52
415.4  49768.20  1249.46  2.51
416.9  51034.00  1291.93  2.53
418.4  52308.00  1333.65  2.55
419.8  53661.30  1368.55  2.55
421.3  55128.15  1420.65  2.58
422.7  56581.20  1477.55  2.61
424.2  58077.30  1517.02  2.61
425.7  59486.63  1558.67  2.62
427.1  60939.50  1600.79  2.63
428.6  62452.00  1642.80  2.63
430.0  63969.95  1689.84  2.64
431.5  65630.83  1739.64  2.65
432.9  67248.75  1791.68  2.66
434.4  68924.35  1833.81  2.66
435.9  70568.40  1877.65  2.66
437.3  72260.25  1932.22  2.67
438.8  73859.03  1981.89  2.68
440.2  75539.28  2041.30  2.70
441.7  77437.98  2103.63  2.72
443.1  79207.20  2150.94  2.72
444.6  80989.35  2210.51  2.73
446.0  82797.65  2274.66  2.75
447.5  84750.00  2342.86  2.76
448.9  86464.83  2407.04  2.78
450.4  88325.00  2467.86  2.79
451.8  90148.50  2534.04  2.81
453.3  91975.73  2599.72  2.83
454.7  93767.40  2662.36  2.84
456.2  95531.45  2733.85  2.86
457.6  97418.70  2799.52  2.87
459.1  99247.05  2859.15  2.88
460.5  101104.88  2918.23  2.89
462.0  103121.10  2979.13  2.89
463.4  105092.23  3038.88  2.89
464.8  107046.45  3105.90  2.90
466.3  108949.80  3167.78  2.91
467.7  110948.80  3232.92  2.91
469.2  112808.25  3300.67  2.93
470.6  114847.25  3363.50  2.93
472.0  116879.68  3427.94  2.93
473.5  118891.73  3498.99  2.94
474.9  121027.15  3561.82  2.94
476.4  123098.40  3645.78  2.96
477.8  125188.00  3716.00  2.97
479.2  127233.50  3791.39  2.98
480.7  129356.40  3868.55  2.99
482.1  131554.68  3937.43  2.99
483.6  133724.70  4017.60  3.00
485.0  135958.50  4108.33  3.02
486.4  138044.78  4191.20  3.04
487.9  140261.25  4289.97  3.06
489.3  142380.83  4381.51  3.08
490.7  144554.45  4478.85  3.10
492.2  146783.88  4588.64  3.13
493.6  149027.80  4697.80  3.15
495.0  151299.53  4830.99  3.19
496.5  153458.55  4973.40  3.24
497.9  155722.00  5131.83  3.30
499.3  158020.38  5298.02  3.35
500.7  160262.90  5478.07  3.42
502.2  162604.23  5693.39  3.50
503.6  164913.60  5922.00  3.59
505.0  167174.15  6182.95  3.70
506.5  169587.00  6489.01  3.83
507.9  172021.33  6832.85  3.97
509.3  174278.93  7209.07  4.14
510.7  176831.85  7646.37  4.32
512.2  179459.63  8144.72  4.54
513.6  182291.88  8697.73  4.77
515.0  185044.13  9310.10  5.03
516.4  187854.40  9997.09  5.32
517.8  190613.75  10740.40  5.63
519.3  193528.00  11556.12  5.97
520.7  196176.90  12404.06  6.32
522.1  198805.75  13287.12  6.68
523.5  201348.45  14182.76  7.04
524.9  204253.05  15097.23  7.39
526.3  206842.95  15980.34  7.73
527.8  209620.88  16856.04  8.04
529.2  212169.60  17716.11  8.35
530.6  214885.80  18549.51  8.63
532.0  217661.28  19317.96  8.88
533.4  220156.85  20008.49  9.09
534.8  222732.68  20653.64  9.27
536.3  225621.10  21275.27  9.43
537.7  228507.75  21856.18  9.56
539.1  231318.75  22396.40  9.68
540.5  234150.75  22927.82  9.79
541.9  237067.13  23452.43  9.89
543.3  239658.10  23947.02  9.99
544.7  242594.00  24476.57  10.09
546.1  245383.60  25004.60  10.19
547.5  248248.80  25521.95  10.28
549.0  251241.20  26045.72  10.37
550.4  254074.28  26526.83  10.44
551.8  257005.90  26959.96  10.49
553.2  259854.00  27316.95  10.51
554.6  262634.95  27583.07  10.50
556.0  265494.60  27764.70  10.46
557.4  268550.50  27877.06  10.38
558.8  271398.43  27892.15  10.28
560.2  274560.00  27882.86  10.16
561.6  277456.58  27789.54  10.02
563.0  280205.90  27640.04  9.86
564.4  283327.10  27483.30  9.70
565.8  286300.00  27256.93  9.52
567.2  289429.33  26998.60  9.33
568.6  292405.95  26658.45  9.12
570.0  295221.88  26240.27  8.89
571.4  298594.63  25833.93  8.65
572.8  301697.20  25398.74  8.42
574.2  304514.18  24950.55  8.19
575.6  307529.13  24556.73  7.99
577.0  310471.98  24204.76  7.80
578.4  313840.63  23928.13  7.62
579.8  316842.48  23661.25  7.47
581.2  319866.00  23429.25  7.32
582.5  322717.50  23220.00  7.20
583.9  325699.60  23063.20  7.08
585.3  328546.30  22922.90  6.98
586.7  331485.00  22816.20  6.88
588.1  334401.60  22744.13  6.80
589.5  337683.45  22729.12  6.73
590.9  340578.38  22715.44  6.67
592.3  343478.03  22744.00  6.62
593.7  346388.00  22813.38  6.59
595.0  349246.20  22902.60  6.56
596.4  352503.63  23023.59  6.53
597.8  355089.70  23095.59  6.50
599.2  358144.80  23180.77  6.47
600.6  361246.88  23251.33  6.44
602.0  364167.00  23275.29  6.39
603.3  367016.00  23247.71  6.33
604.7  369982.30  23167.91  6.26
606.1  372926.85  23052.16  6.18
607.5  376181.10  22880.42  6.08
608.9  379186.50  22664.95  5.98
610.2  382293.45  22425.62  5.87
611.6  385137.50  22161.07  5.75
613.0  387900.48  21898.79  5.65
614.4  390614.90  21641.88  5.54
615.8  393793.40  21432.27  5.44
617.1  396420.13  21221.17  5.35
618.5  399598.65  21079.17  5.28
619.9  402274.65  20947.24  5.21
621.3  405152.48  20871.46  5.15
622.6  407979.00  20826.00  5.10
624.0  410632.13  20817.91  5.07
625.4  413681.63  20872.05  5.05
626.8  416549.25  20944.21  5.03
628.1  419247.85  21030.70  5.02
629.5  421911.00  21136.28  5.01
630.9  424637.20  21237.38  5.00
632.2  427514.30  21345.93  4.99
633.6  429876.20  21406.59  4.98
635.0  432664.98  21429.04  4.95
636.3  435620.93  21393.14  4.91
637.7  438257.08  21275.64  4.85
639.1  441182.50  21117.33  4.79
640.4  443762.50  20900.88  4.71
641.8  446515.20  20656.80  4.63
643.2  449011.80  20384.50  4.54
644.5  451850.00  20105.00  4.45
645.9  454353.55  19821.25  4.36
647.2  456638.88  19536.28  4.28
648.6  459198.00  19311.32  4.21
650.0  461941.20  19138.63  4.14
651.3  464897.70  19030.90  4.09
652.7  468696.00  18932.68  4.04
654.0  471343.65  18805.39  3.99
655.4  473485.95  18606.53  3.93
656.8  475359.68  18413.55  3.87
658.1  478017.75  18195.68  3.81
659.5  480902.40  17958.86  3.73
660.8  483580.65  17699.70  3.66
662.2  486211.48  17464.35  3.59
663.5  488905.70  17230.61  3.52
664.9  490800.70  17008.61  3.47
666.2  492933.35  16835.37  3.42
667.6  495429.75  16758.00  3.38
668.9  497966.40  16718.40  3.36
670.3  501037.25  16751.88  3.34
671.6  503033.60  16790.40  3.34
673.0  505280.80  16893.38  3.34
674.3  507649.45  17036.80  3.36
675.7  510095.70  17216.10  3.38
677.0  512315.93  17426.86  3.40
678.4  514460.20  17669.75  3.43
679.7  516707.33  17987.85  3.48
681.1  519116.13  18375.10  3.54
682.4  521170.13  18826.61  3.61
683.8  523416.00  19371.43  3.70
685.1  525573.45  20048.53  3.81
686.4  527717.13  20898.25  3.96
687.8  530023.50  22008.11  4.15
689.1  532340.90  23448.40  4.40
690.5  534339.50  25318.23  4.74
691.8  536837.95  27823.21  5.18
693.1  539182.50  31015.50  5.75
694.5  541443.00  34966.25  6.46
695.8  543759.10  39654.63  7.29
697.1  545944.10  45023.49  8.25
698.5  548235.38  51066.18  9.31
699.8  550537.20  57689.03  10.48
701.1  552400.28  64696.43  11.71
702.5  554332.50  72045.88  13.00
703.8  556682.93  79637.54  14.31
705.1  558404.15  87249.30  15.62
706.5  560578.05  94980.38  16.94
707.8  562336.75  102688.39  18.26
709.1  564574.05  110475.91  19.57
710.5  566682.28  118263.43  20.87
711.8  568546.00  126002.29  22.16
713.1  570352.00  133760.72  23.45
714.4  572361.58  141558.40  24.73
715.8  574577.43  149427.18  26.01
717.1  576699.75  157269.42  27.27
718.4  578889.68  165063.22  28.51
719.7  580983.08  172794.28  29.74
721.0  582669.18  180317.86  30.95
722.4  584429.85  187738.65  32.12
723.7  586274.50  195044.80  33.27
725.0  587901.78  202090.25  34.37
726.3  590070.00  209084.95  35.43
727.6  591711.00  215668.18  36.45
729.0  593496.40  222040.45  37.41
730.3  595339.05  228167.99  38.33
731.6  596765.90  233845.62  39.19
732.9  598568.75  239414.60  40.00
734.2  600129.75  244558.29  40.75
735.5  601849.60  249444.64  41.45
736.8  603755.95  254169.78  42.10
738.1  605521.28  258534.20  42.70
739.5  607204.35  262598.06  43.25
740.8  609007.58  266467.58  43.75
742.1  610473.60  269938.29  44.22
743.4  612065.65  273253.15  44.64
744.7  613823.00  276381.00  45.03
746.0  615181.40  279151.32  45.38
747.3  616677.60  281749.30  45.69
748.6  618098.75  284142.74  45.97
749.9  619755.25  286444.06  46.22
751.2  620875.50  288380.14  46.45
752.5  622251.83  290288.06  46.65
753.8  623421.00  291980.70  46.84
755.1  624982.73  293690.51  46.99
756.4  625937.60  295095.01  47.14
757.7  627899.25  296782.95  47.27
759.0  631294.80  299110.57  47.38
760.3  633858.80  300919.44  47.47
761.6  636600.50  302745.01  47.56
762.9  637868.00  303841.22  47.63
764.2  638535.05  304587.31  47.70
765.5  639288.15  305328.50  47.76
766.8  639713.40  305870.66  47.81
768.1  640725.75  306619.65  47.86
769.3  641843.75  307428.68  47.90
770.6  643121.20  308288.46  47.94
771.9  644157.20  308994.36  47.97
773.2  645392.48  309798.87  48.00
774.5  646222.50  310378.63  48.03
775.8  647138.33  311006.54  48.06
777.1  648203.18  311674.21  48.08
778.4  649318.50  312376.90  48.11
779.6  650501.40  313066.12  48.13
780.9  651084.08  313474.05  48.15
782.2  651948.80  314027.88  48.17
783.5  652709.00  314532.54  48.19
784.8  653317.88  314993.63  48.21
786.0  654065.95  315455.67  48.23
787.3  654803.48  315899.35  48.24
788.6  655498.88  316366.00  48.26
789.9  656113.80  316743.97  48.28
791.2  657335.75  317425.72  48.29
792.4  658334.88  318028.86  48.31
793.7  659640.18  318797.85  48.33
795.0  660580.60  319333.07  48.34
796.2  661830.40  319979.34  48.35
797.5  662856.25  320567.05  48.36
798.8  664153.00  321283.13  48.37
800.0  665210.00  321860.00  48.38
801.3  666295.88  322450.88  48.39
802.6  667224.00  322971.43  48.41
803.8  668159.10  323571.15  48.43
805.1  668938.13  324079.07  48.45
806.4  669833.40  324569.47  48.46
807.7  670954.85  325156.04  48.46
808.9  672042.55  325745.06  48.47
810.2  672804.30  326206.80  48.48
811.4  673818.80  326761.09  48.49
812.7  674972.05  327442.04  48.51
814.0  676148.55  328100.85  48.52
815.2  677486.85  328809.52  48.53
816.5  678549.38  329424.38  48.55
817.7  679392.00  329874.86  48.55
819.0  679954.80  330266.20  48.57
820.2  680629.20  330719.91  48.59
821.5  681679.20  331319.57  48.60
822.7  682759.88  331868.00  48.61
824.0  683678.45  332371.84  48.62
825.2  684258.90  332768.06  48.63
826.5  684941.05  333198.76  48.65
827.7  685873.40  333794.78  48.67
829.0  686823.00  334326.03  48.68
830.2  687741.40  334861.20  48.69
831.5  688758.08  335369.35  48.69
832.7  689705.55  335857.12  48.70
834.0  690338.03  336236.02  48.71
835.2  691403.35  336818.57  48.72
836.4  692110.80  337301.26  48.74
837.7  692977.50  337801.34  48.75
838.9  694164.85  338491.32  48.76
840.1  695027.85  338993.68  48.77
841.4  696035.40  339531.03  48.78
842.6  696922.80  340066.90  48.80
843.8  697902.40  340620.80  48.81
845.1  698682.60  341174.27  48.83
846.3  699679.05  341712.00  48.84
847.5  700576.50  342265.86  48.85
848.8  701665.45  342838.45  48.86
850.0  702936.40  343491.94  48.87
851.2  703840.25  344049.94  48.88
852.5  705023.70  344749.68  48.90
853.7  705864.38  345187.48  48.90
854.9  707077.80  345849.22  48.91
856.1  708204.85  346416.67  48.91
857.4  709249.05  346976.55  48.92
858.6  710234.00  347551.00  48.93
859.8  711488.60  348232.03  48.94
861.0  712535.60  348863.75  48.96
862.2  713630.40  349418.40  48.96
863.5  714680.63  349975.09  48.97
864.7  715731.25  350524.11  48.97
865.9  716844.13  351122.16  48.98
867.1  717631.25  351576.79  48.99
868.3  718931.28  352250.69  49.00
869.5  720209.85  352896.62  49.00
870.8  721399.05  353517.82  49.00
872.0  722538.35  354065.25  49.00
873.2  723344.83  354623.33  49.03
874.4  724200.30  355077.76  49.03
875.6  725461.63  355689.80  49.03
876.8  726947.10  356454.22  49.03
878.0  728090.65  356996.15  49.03
879.2  729202.25  357605.57  49.04
880.4  730400.00  358156.86  49.04
881.6  731372.40  358658.39  49.04
882.8  732745.45  359315.65  49.04
884.0  733775.90  359740.79  49.03
885.2  735160.75  360473.47  49.03
886.5  736494.33  361146.33  49.04
887.7  737528.85  361709.67  49.04
888.8  738864.40  362459.34  49.06
890.0  739777.50  362880.00  49.05
891.2  740989.28  363404.79  49.04
892.4  742286.33  364085.46  49.05
893.6  744084.73  364934.85  49.04
894.8  745617.15  365779.69  49.06
896.0  747253.63  366477.21  49.04
897.2  749175.08  367356.12  49.03
898.4  751041.90  368318.70  49.04
899.6  752288.40  368902.70  49.04
900.8  752670.75  369212.07  49.05
902.0  753344.80  369520.01  49.05
903.2  753540.70  369623.62  49.05
904.3  754650.00  370116.97  49.04
905.5  755790.75  370656.00  49.04
906.7  756948.85  371235.23  49.04
907.9  758121.08  371732.13  49.03
909.1  759102.58  372247.43  49.04
910.2  759543.75  372397.50  49.03
911.4  759619.80  372463.81  49.03
912.6  759995.00  372653.22  49.03
913.8  761032.65  373152.40  49.03
915.0  761418.20  373351.80  49.03
916.2  761707.73  373427.24  49.03
917.3  762581.43  373755.47  49.01
918.5  762953.25  373919.51  49.01
919.7  762763.25  373893.25  49.02
920.8  762774.25  374021.36  49.03
922.0  762983.65  373953.53  49.01
923.2  763497.23  374091.43  49.00
924.4  764314.88  374273.63  48.97
925.5  764915.60  374641.09  48.98
926.7  765491.08  374957.65  48.98
927.9  766915.98  375591.02  48.97
929.0  769888.80  376998.30  48.97
930.2  774215.80  378938.18  48.94
931.4  779313.65  381160.32  48.91
932.5  783626.80  383229.63  48.90
933.7  786438.23  384368.67  48.87
934.9  787683.75  384985.00  48.88
936.0  786546.90  384363.13  48.87
937.2  783606.90  382616.86  48.83
938.3  779632.75  380467.29  48.80
939.5  777675.60  379337.40  48.78
940.7  777361.20  379130.95  48.77
941.8  780663.00  380334.60  48.72
943.0  782315.48  381130.69  48.72
944.2  783972.00  381633.43  48.68
945.3  783282.60  381056.40  48.65
946.5  781471.25  380012.50  48.63
947.6  782341.00  380344.14  48.62
948.8  781262.60  379459.29  48.57
949.9  781753.35  379222.23  48.51
951.1  781786.28  378723.58  48.44
952.2  781031.15  377988.17  48.40
953.4  781031.25  377394.30  48.32
954.5  779320.50  376377.75  48.30
955.7  778458.35  375688.90  48.26
956.8  778890.68  375466.22  48.21
958.0  778392.45  374414.21  48.10
959.1  777924.00  373701.60  48.04
960.3  777462.50  373303.58  48.02
961.4  777405.80  373251.95  48.01
962.6  777146.40  372688.46  47.96
963.7  777376.60  372556.20  47.92
964.9  777837.28  372543.50  47.89
966.0  777536.90  372381.30  47.89
967.2  777697.20  372313.20  47.87
968.3  778428.95  372851.69  47.90
969.5  778971.88  372692.52  47.84
970.6  779100.85  372784.33  47.85
971.8  779034.90  372615.83  47.83
972.9  779838.50  372769.50  47.80
974.0  780599.50  372911.10  47.77
975.2  779051.25  372228.75  47.78
976.3  779200.75  372435.08  47.80
977.5  778523.85  371822.47  47.76
978.6  778638.45  371902.62  47.76
979.7  777884.80  371571.20  47.77
980.9  778257.08  371384.33  47.72
982.0  777832.15  371418.69  47.75
983.2  777029.40  370905.60  47.73
984.3  774445.00  370153.10  47.80
985.4  774268.60  369483.80  47.72
986.6  775635.50  369767.25  47.67
987.7  773581.00  369191.91  47.73
988.9  774856.20  369781.28  47.72
990.0  773856.95  369278.36  47.72
993.1  857200.80  408994.52  47.71
996.9  856168.90  409600.05  47.84
1000.7  855379.33  410099.93  47.94
1004.5  854016.93  410423.32  48.06
1008.4  854553.58  411614.33  48.17
1012.2  855209.96  412909.84  48.28
1016.0  854624.28  413450.62  48.38
1019.8  852796.32  413336.19  48.47
1023.7  851013.35  413151.32  48.55
1027.5  848210.47  412514.35  48.63
1031.3  846355.27  412206.44  48.70
1035.1  845145.90  412095.64  48.76
1038.9  844464.46  412248.78  48.82
1042.7  843991.35  412404.94  48.86
1046.5  843176.25  412397.61  48.91
1050.3  841519.76  411902.44  48.95
1054.2  839422.38  411201.50  48.99
1058.0  838447.20  410965.12  49.02
1061.8  837180.17  410601.21  49.05
1065.6  835134.17  409729.07  49.06
1069.4  832783.80  408658.85  49.07
1073.2  830613.88  407557.82  49.07
1077.0  828962.93  406732.44  49.07
1080.8  828448.50  406284.52  49.04
1084.6  828041.50  405974.43  49.03
1088.4  827454.78  405602.42  49.02
1092.2  826271.13  404824.21  48.99
1096.0  824803.50  403909.61  48.97
1099.8  823180.25  402828.06  48.94
1103.6  821265.10  401579.47  48.90
1107.4  819666.13  400391.87  48.85
1111.2  818138.62  399248.96  48.80
1114.9  817150.50  398253.50  48.74
1118.7  816562.00  397283.09  48.65
1122.5  816603.78  396367.17  48.54
1126.3  814139.55  394032.45  48.40
1130.1  813549.38  392104.13  48.20
1133.9  810144.38  388242.33  47.92
1137.7  807408.20  384202.11  47.58
1141.4  803562.33  379116.11  47.18
1145.2  802520.62  375034.73  46.73
1149.0  800476.65  370655.43  46.30
1152.8  797038.30  366039.98  45.93
1156.6  793504.89  362049.94  45.63
1160.3  790352.85  358899.79  45.41
1164.1  785690.67  355618.30  45.26
1167.9  782614.38  353467.19  45.16
1171.7  780037.80  351771.03  45.10
1175.4  777555.78  350260.80  45.05
1179.2  775479.75  348853.43  44.99
1183.0  775584.50  348464.78  44.93
1186.7  775751.67  348125.45  44.88
1190.5  774462.67  347266.71  44.84
1194.3  771763.65  345847.24  44.81
1198.0  768645.78  344430.89  44.81
1201.8  766047.33  343382.11  44.83
1205.6  764476.92  342921.68  44.86
1209.3  763347.75  342841.40  44.91
1213.1  762202.38  342825.15  44.98
1216.8  760409.87  342795.99  45.08
1220.6  758231.67  342576.91  45.18
1224.3  755929.17  342289.88  45.28
1228.1  753763.99  342132.91  45.39
1231.9  751324.60  341699.52  45.48
1235.6  748827.20  341144.18  45.56
1239.4  746440.82  340628.68  45.63
1243.1  744183.90  340042.65  45.69
1246.9  742152.77  339483.09  45.74
1250.6  739981.50  338803.56  45.79
1254.3  737990.40  338123.20  45.82
1258.1  735822.67  337299.02  45.84
1261.8  733220.13  336279.32  45.86
1265.6  730928.73  335209.61  45.86
1269.3  728780.07  334130.65  45.85
1273.1  729364.88  334204.95  45.82
1276.8  729306.27  333923.53  45.79
1280.6  728290.29  333131.45  45.74
1284.3  725474.52  331388.12  45.68
1288.0  723575.88  329917.32  45.60
1291.8  722206.80  328507.20  45.49
1295.5  720706.86  326964.97  45.37
1299.2  718436.55  324865.87  45.22
1302.9  715532.95  322292.40  45.04
1306.7  712364.63  319388.07  44.83
1310.4  709312.23  316190.32  44.58
1314.1  706764.38  313003.80  44.29
1317.9  704172.41  309471.50  43.95
1321.6  701356.72  305574.68  43.57
1325.3  698506.88  301309.83  43.14
1329.0  695884.93  296999.27  42.68
1332.8  692157.50  291955.77  42.18
1336.5  688674.00  286938.94  41.67
1340.2  686939.85  282655.27  41.15
1343.9  686491.60  278973.13  40.64
1347.6  686685.75  275578.59  40.13
1351.4  687445.00  272597.41  39.65
1355.1  689990.68  270406.56  39.19
1358.8  690326.33  267181.77  38.70
1362.5  690790.98  263700.56  38.17
1366.2  687913.50  258379.63  37.56
1369.9  682428.00  251338.36  36.83
1373.6  677657.93  243374.34  35.91
1377.3  675561.60  234675.50  34.74
1381.0  673628.28  223985.42  33.25
1384.8  669794.15  210450.93  31.42
1388.4  664559.90  195117.85  29.36
1392.2  659932.78  179133.80  27.14
1395.9  658034.53  163770.96  24.89
1399.6  653831.86  148750.23  22.75
1403.3  651186.00  135616.15  20.83
1407.0  648313.88  124332.51  19.18
1410.7  646279.59  115198.53  17.82
1414.3  643568.00  107790.59  16.75
1418.1  640937.50  102092.89  15.93
1421.7  638628.90  97745.59  15.31
1425.4  636919.28  94570.32  14.85
1429.1  633055.50  91934.50  14.52
1432.8  631533.00  90339.61  14.30
1436.5  628124.25  88972.97  14.16
1440.2  624846.00  88008.90  14.08
1443.9  622768.40  87502.99  14.05
1447.6  619196.80  87053.91  14.06
1451.2  616023.45  86797.74  14.09
1454.9  614204.27  86902.91  14.15
1458.6  610382.27  86967.17  14.25
1462.3  609490.60  87787.99  14.40
1466.0  609493.75  89133.01  14.62
1469.7  607704.53  90642.69  14.92
1473.3  605476.67  92418.82  15.26
1477.0  601257.73  94156.31  15.66
1480.7  597971.38  96221.64  16.09
1484.4  594244.30  98279.16  16.54
1488.0  591146.55  100549.22  17.01
1491.7  587672.58  102781.37  17.49
1495.4  584213.65  105017.71  17.98
1499.0  581324.25  107302.33  18.46
1502.7  578562.44  109643.54  18.95
1506.4  575866.49  111917.84  19.43
1510.0  573121.25  114147.94  19.92
1513.7  570455.00  116312.11  20.39
1517.4  567961.33  118436.01  20.85
1521.0  565560.14  120518.55  21.31
1524.7  563080.44  122454.98  21.75
1528.3  560672.10  124349.91  22.18
1532.0  558157.60  126122.15  22.60
1535.7  555454.13  127716.40  22.99
1539.3  552931.10  129278.84  23.38
1543.0  551237.75  130974.38  23.76
1546.6  549832.75  132660.06  24.13
1550.3  548287.65  134229.91  24.48
1553.9  545977.13  135511.79  24.82
1557.6  543808.03  136739.21  25.14
1561.2  541291.53  137773.76  25.45
1564.9  538617.80  138701.22  25.75
1568.5  535912.00  139553.15  26.04
1572.2  533632.87  140425.70  26.32
1575.8  531743.55  141406.72  26.59
1579.5  529915.20  142282.95  26.85
1583.1  527540.65  143034.96  27.11
1586.8  525287.17  143750.73  27.37
1590.4  523039.83  144411.54  27.61
1594.0  520719.07  145007.70  27.85
1597.7  518767.53  145688.44  28.08
1601.3  516734.10  146306.12  28.31
1604.9  514258.43  146759.08  28.54
1608.6  511435.35  146992.37  28.74
1612.2  508578.88  147160.53  28.94
1615.8  506113.80  147347.45  29.11
1619.5  503849.92  147548.48  29.28
1623.1  501084.38  147528.70  29.44
1626.7  498298.83  147434.76  29.59
1630.3  495741.60  147317.95  29.72
1634.0  493387.59  147179.72  29.83
1637.6  491203.33  146989.19  29.92
1641.2  488969.13  146619.79  29.99
1644.8  486436.58  145988.93  30.01
1648.5  483755.83  145220.80  30.02
1652.1  481650.88  144452.56  29.99
1655.7  479814.63  143710.98  29.95
1659.3  477988.88  142993.02  29.92
1662.9  474767.20  141919.03  29.89
1666.6  471207.00  140803.72  29.88
1670.2  467928.73  139777.86  29.87
1673.8  464725.30  138720.44  29.85
1677.4  462156.83  137795.34  29.82
1681.0  460507.75  136989.56  29.75
1684.6  459592.38  136251.10  29.65
1688.2  458094.00  135205.20  29.51
1691.8  456465.30  134110.70  29.38
1695.4  455663.07  133187.23  29.23
1699.0  454753.20  132220.99  29.08
1702.6  454169.20  131271.62  28.90
1706.2  452618.20  129992.31  28.72
1709.8  450437.96  128513.01  28.53
1713.4  448893.90  127205.19  28.34
1717.0  447184.73  125918.41  28.16
1720.6  445453.47  124638.20  27.98
1724.2  443992.75  123463.81  27.81
1727.8  442627.56  122386.79  27.65
1731.4  441821.93  121580.96  27.52
1735.0  441835.85  121039.55  27.39
1738.6  441375.00  120288.07  27.25
1742.2  440510.30  119324.56  27.09
1745.8  438935.47  118064.92  26.90
1749.4  436644.03  116570.78  26.70
1753.0  432966.80  114663.86  26.48
1756.6  429185.75  112774.75  26.28
1760.1  425937.20  111064.41  26.08
1763.7  422167.93  109306.58  25.89
1767.3  419109.27  107852.73  25.73
1770.9  416452.83  106577.03  25.59
1774.5  413313.33  105281.35  25.47
1778.0  411175.56  104280.48  25.36
1781.6  408946.50  103353.61  25.27
1785.2  406349.67  102416.43  25.20
1788.8  403606.88  101570.12  25.17
1792.3  401330.14  100908.86  25.14
1795.9  400814.87  100734.01  25.13
1799.5  401437.20  100920.02  25.14
1803.1  404047.71  101632.51  25.15
1806.6  406903.12  102409.33  25.17
1810.2  409242.23  103062.72  25.18
1813.8  409058.07  103085.31  25.20
1817.3  408378.03  102963.89  25.21
1820.9  407343.75  102728.05  25.22
1824.5  406277.34  102410.69  25.21
1828.0  406656.19  102382.58  25.18
1831.6  407816.83  102432.74  25.12
1835.2  407726.57  102014.86  25.02
1838.7  408147.25  101503.14  24.87
1842.3  406605.50  100244.54  24.65
1845.8  404586.42  98557.55  24.36
1849.4  404008.97  96772.37  23.95
1852.9  402098.96  94193.23  23.43
1856.5  400390.58  91065.05  22.74
1860.0  399864.93  87553.52  21.90
1863.6  399438.27  83328.50  20.86
1867.1  400129.23  78532.48  19.63
1870.7  401671.15  72906.48  18.15
1874.2  400027.58  65855.05  16.46
1877.8  394996.31  58052.20  14.70
1881.3  390172.65  50247.18  12.88
1884.9  386905.40  43088.95  11.14
1888.4  383970.18  36589.87  9.53
1891.9  381603.40  31159.95  8.17
1895.5  379645.35  26923.04  7.09
1899.0  378653.20  23881.52  6.31
1901.3  401617.87  16822.14  4.19
1904.1  401589.17  15160.55  3.78
1906.8  399856.72  13860.24  3.47
1909.6  395848.87  12795.00  3.23
1912.4  391809.25  11961.30  3.05
1915.1  387709.53  11401.85  2.94
1917.9  383776.10  10938.53  2.85
1920.6  380639.40  10633.97  2.79
1923.3  377773.60  10430.27  2.76
1926.1  374202.30  10271.03  2.74
1928.8  370110.00  10123.10  2.74
1931.6  368671.92  10117.27  2.74
1934.3  364672.48  10055.59  2.76
1937.0  360621.60  10081.50  2.80
1939.8  357156.42  10153.01  2.84
1942.5  352500.23  10176.54  2.89
1945.2  348654.42  10247.46  2.94
1947.9  345709.87  10386.14  3.00
1950.7  341454.38  10522.20  3.08
1953.4  337925.23  10697.19  3.17
1956.1  335271.97  10883.33  3.25
1958.8  333074.00  11115.42  3.34
1961.5  330156.40  11368.88  3.44
1964.2  326827.00  11623.33  3.56
1966.9  323900.00  11892.14  3.67
1969.6  321230.30  12181.64  3.79
1972.3  318691.63  12501.18  3.92
1975.0  316200.00  12834.00  4.06
1977.7  314053.68  13163.74  4.19
1980.4  311880.80  13562.27  4.35
1983.1  309585.43  13945.75  4.50
1985.8  307489.20  14351.40  4.67
1988.4  305514.55  14743.58  4.83
1991.1  303748.90  15133.65  4.98
1993.8  302287.30  15590.40  5.16
1996.5  300785.10  16047.15  5.34
1999.1  299467.67  16527.61  5.52
2001.8  298269.32  16979.32  5.69
2004.5  297056.70  17433.63  5.87
2007.1  295579.60  17887.87  6.05
2009.8  293714.17  18283.13  6.22
2012.4  292439.68  18722.09  6.40
2015.1  291318.03  19176.69  6.58
2017.8  290166.90  19592.31  6.75
2020.4  289081.20  20000.10  6.92
2023.1  288628.47  20424.34  7.08
2025.7  288365.32  20864.07  7.24
2028.3  287602.50  21255.79  7.39
2031.0  287043.30  21624.43  7.53
2033.6  286765.00  21995.00  7.67
2036.2  286351.57  22334.55  7.80
2038.9  285396.80  22620.00  7.93
2041.5  284479.17  22875.00  8.04
2044.1  283729.17  23125.00  8.15
2046.8  282607.07  23335.48  8.26
2049.4  281783.47  23579.33  8.37
2052.0  281575.35  23826.58  8.46
2054.6  281240.00  24047.60  8.55
2057.2  280175.50  24281.18  8.67
2059.8  278712.00  24475.50  8.78
2062.4  277335.93  24642.04  8.89
2065.0  276007.60  24828.48  9.00
2067.6  274190.53  24956.05  9.10
2070.2  272718.20  25113.80  9.21
2072.8  271827.42  25331.63  9.32
2075.4  270827.50  25516.42  9.42
2078.0  270231.38  25729.22  9.52
2080.6  268984.97  25896.40  9.63
2083.2  267716.02  26027.65  9.72
2085.8  266405.30  26185.78  9.83
2088.4  265386.57  26347.16  9.93
2090.9  263719.00  26455.75  10.03
2093.5  261807.60  26493.20  10.12
2096.1  260081.25  26555.10  10.21
2098.7  258616.37  26628.59  10.30
2101.2  256757.20  26685.80  10.39
2103.8  255308.08  26770.83  10.49
2106.4  253899.27  26845.25  10.57
2108.9  252837.35  26940.10  10.66
2111.5  251920.67  27054.71  10.74
2114.0  251333.33  27202.50  10.82
2116.6  249194.37  27171.47  10.90
2119.1  248096.10  27222.65  10.97
2121.7  247570.00  27352.14  11.05
2124.2  247415.33  27499.09  11.11
2126.8  246257.05  27525.30  11.18
2129.3  245158.13  27578.10  11.25
2131.9  245370.13  27777.34  11.32
2134.4  244581.87  27831.89  11.38
2136.9  244321.43  27963.15  11.45
2139.4  243243.25  27998.42  11.51
2142.0  242820.00  28115.41  11.58
2144.5  242296.58  28195.30  11.64
2147.0  241872.38  28308.80  11.70
2149.5  241508.80  28424.19  11.77
2152.1  241907.90  28639.44  11.84
2154.6  241999.20  28814.40  11.91
2157.1  241915.10  28962.98  11.97
2159.6  240863.60  28962.99  12.02
2162.1  240707.20  29057.34  12.07
2164.6  240081.65  29125.39  12.13
2167.1  239122.07  29163.54  12.20
2169.6  239262.23  29294.50  12.24
2172.1  238450.30  29349.20  12.31
2174.6  238098.23  29440.84  12.36
2177.1  237052.25  29453.92  12.43
2179.5  236614.27  29528.32  12.48
2182.0  236304.50  29629.63  12.54
2184.5  235385.40  29644.13  12.59
2187.0  234614.63  29720.00  12.67
2189.5  233644.13  29755.15  12.74
2191.9  232429.63  29763.25  12.81
2194.4  230759.75  29694.00  12.87
2196.9  229681.28  29700.83  12.93
2199.3  228241.70  29632.10  12.98
2201.8  227073.47  29606.97  13.04
2204.3  226311.50  29640.10  13.10
2206.7  225168.85  29624.00  13.16
2209.2  223975.80  29576.70  13.21
2211.6  222044.20  29409.30  13.24
2214.1  221374.30  29401.69  13.28
2216.5  221049.78  29404.48  13.30
2219.0  219700.80  29242.58  13.31
2221.4  219740.40  29226.23  13.30
2223.9  218614.07  29083.17  13.30
2226.3  217351.75  28859.26  13.28
2228.7  216411.00  28626.44  13.23
2231.1  215780.07  28371.49  13.15
2233.6  214744.00  28084.00  13.08
2236.0  213732.48  27761.00  12.99
2238.4  212837.28  27392.47  12.87
2240.9  212158.20  27030.10  12.74
2243.3  211346.83  26631.35  12.60
2245.7  210566.00  26210.22  12.45
2248.1  209580.80  25778.14  12.30
2250.5  208749.20  25386.53  12.16
2252.9  208099.97  24988.22  12.01
2255.3  207334.53  24599.25  11.86
2257.7  206442.13  24210.09  11.73
2260.1  205559.20  23799.20  11.58
2262.5  204536.80  23401.60  11.44
2264.9  203639.53  23002.57  11.30
2267.3  202745.40  22679.80  11.19
2269.7  201826.93  22337.32  11.07
2272.1  201026.00  22014.25  10.95
2274.5  200276.93  21722.17  10.85
2276.8  199571.73  21451.20  10.75
2279.2  198829.80  21169.25  10.65
2281.6  198286.85  20924.23  10.55
2284.0  197920.80  20745.45  10.48
2286.3  197440.27  20534.27  10.40
2288.7  196855.70  20283.20  10.30
2291.1  196328.50  20053.75  10.21
2293.4  195620.40  19755.45  10.10
2295.8  194978.12  19488.52  10.00
2298.2  194185.20  19202.55  9.89
2300.5  193071.55  18870.00  9.77
2302.9  191666.25  18535.63  9.67
2305.2  190226.42  18176.21  9.56
2307.6  188781.60  17865.87  9.46
2309.9  187745.73  17609.17  9.38
2312.2  186759.67  17386.09  9.31
2314.6  185752.30  17170.52  9.24
2316.9  184750.70  16999.80  9.20
2319.2  184035.87  16851.36  9.16
2321.6  183433.22  16690.80  9.10
2323.9  182631.20  16482.90  9.03
2326.2  181798.93  16253.66  8.94
2328.6  181097.50  16044.90  8.86
2330.9  180790.93  15882.60  8.79
2333.2  180352.50  15707.00  8.71
2335.5  179797.15  15521.68  8.63
2337.8  179358.00  15304.50  8.53
2340.1  178782.47  15111.94  8.45
2342.4  178313.40  14962.73  8.39
2344.8  177556.37  14753.34  8.31
2347.1  176876.60  14547.00  8.22
2349.4  176327.87  14357.54  8.14
2351.6  175484.00  14193.00  8.09
2353.9  174421.20  13981.20  8.02
2356.2  173605.53  13841.21  7.97
2358.5  172807.38  13631.32  7.89
2360.8  172147.92  13478.13  7.83
2363.1  171801.33  13332.17  7.76
2365.4  171315.00  13182.75  7.70
2367.7  170703.33  12977.57  7.60
2369.9  169962.47  12797.13  7.53
2372.2  168806.80  12564.03  7.44
2374.5  167620.00  12346.25  7.37
2376.7  166710.80  12154.20  7.29
2379.0  165544.50  11905.30  7.19
2381.3  164181.05  11699.05  7.13
2383.5  163235.33  11482.34  7.03
2385.8  162553.42  11296.54  6.95
2388.0  161686.80  11092.15  6.86
2390.3  160941.67  10898.05  6.77
2392.5  160455.00  10697.00  6.67
2394.8  159546.92  10515.92  6.59
2397.0  159128.80  10348.67  6.50
2399.3  158524.03  10181.79  6.42
2401.5  157760.00  9983.25  6.33
2403.8  157104.67  9756.50  6.21
2406.0  156620.57  9607.22  6.13
2408.2  155842.05  9415.35  6.04
2410.4  154983.65  9197.46  5.93
2412.7  154591.40  8994.60  5.82
2414.9  154047.20  8868.90  5.76
2417.1  154035.93  8731.77  5.67
2419.3  153576.87  8574.80  5.58
2421.6  152689.13  8365.00  5.48
2423.8  152133.63  8201.35  5.39
2426.0  151752.30  8051.35  5.31
2428.2  151362.75  7854.00  5.19
2430.4  151318.73  7731.19  5.11
2432.6  151187.60  7607.30  5.03
2434.8  150573.25  7392.88  4.91
2437.0  150183.80  7240.35  4.82
2439.2  149773.43  7126.17  4.76
2441.4  148898.80  6939.40  4.66
2443.6  148698.73  6791.07  4.57
2445.7  148968.57  6724.05  4.51
2447.9  148894.20  6565.00  4.41
2450.1  148147.92  6458.59  4.36
2452.3  147215.93  6291.00  4.27
2454.5  146554.80  6166.07  4.21
2456.6  145904.00  6044.80  4.14
2458.8  144768.40  5875.57  4.06
2461.0  144445.17  5721.30  3.96
2463.1  144169.50  5638.92  3.91
2465.3  143516.67  5559.00  3.87
2467.5  143134.33  5488.17  3.83
2469.6  142791.17  5356.54  3.75
2471.8  142486.47  5284.32  3.71
2473.9  141834.33  5114.96  3.61
2476.1  141107.08  5064.59  3.59
2478.2  140234.33  4963.35  3.54
2480.4  139359.90  4908.73  3.52
2482.5  138457.48  4739.48  3.42
2484.6  137514.00  4674.00  3.40
2486.8  136838.93  4608.35  3.37
2488.9  136572.40  4588.90  3.36
2491.1  135097.00  4503.23  3.33
2493.2  133695.80  4430.72  3.31
2495.3  132134.97  4384.24  3.32
2497.4  131012.45  4200.80  3.21
2499.5  130291.00  4165.77  3.20
2501.7  130229.50  4208.25  3.23
2503.8  130613.00  4214.82  3.23
2505.9  131201.60  4195.40  3.20
2508.0  132075.17  4281.13  3.24
2510.1  133047.60  4296.75  3.23
2512.2  134052.50  4260.59  3.18
2514.3  135142.58  4253.50  3.15
2516.4  136619.67  4423.35  3.24
