/*** Spectra Vista SIG Data ***/
name= 25_20220926_QUPA_38_avg.sig
comm= Averaged Ref/Tar of files: HR.092622.0070_moc.sig,HR.092622.0071_moc.sig,HR.092622.0072_moc.sig
data=
337.3  3076.75  233.24  7.58
338.8  3222.70  226.07  7.01
340.3  3326.35  232.69  7.00
341.8  3520.83  234.72  6.67
343.2  3685.20  222.00  6.02
344.7  3838.50  200.46  5.22
346.2  4003.30  204.25  5.10
347.7  4247.10  196.63  4.63
349.2  4384.80  194.04  4.43
350.6  4627.35  199.54  4.31
352.1  4894.33  198.87  4.06
353.6  5170.30  197.79  3.83
355.1  5455.35  197.56  3.62
356.6  5735.63  186.82  3.26
358.0  5965.30  191.40  3.21
359.5  6272.70  198.79  3.17
361.0  6583.50  205.49  3.12
362.5  6938.18  213.71  3.08
364.0  7312.13  225.58  3.08
365.4  7671.30  216.37  2.82
366.9  8011.25  228.37  2.85
368.4  8346.15  233.66  2.80
369.9  8702.05  247.73  2.85
371.3  9131.40  264.33  2.89
372.8  9584.55  269.93  2.82
374.3  9997.50  269.65  2.70
375.8  10402.70  265.91  2.56
377.2  10813.80  265.41  2.45
378.7  11217.30  273.48  2.44
380.2  11620.80  281.55  2.42
381.7  12161.25  294.57  2.42
383.1  12639.55  297.35  2.35
384.6  13136.83  302.12  2.30
386.1  13593.58  305.38  2.25
387.6  14067.90  316.21  2.25
389.0  14579.20  314.45  2.16
390.5  15053.85  323.03  2.15
392.0  15631.95  333.27  2.13
393.4  16211.68  345.95  2.13
394.9  16730.10  354.96  2.12
396.4  17284.50  367.43  2.13
397.9  17860.63  374.98  2.10
399.3  18411.28  377.34  2.05
400.8  18967.93  388.83  2.05
402.2  19615.45  404.26  2.06
403.7  20198.93  420.51  2.08
405.2  20857.68  423.78  2.03
406.6  21436.80  435.39  2.03
408.1  22012.40  453.51  2.06
409.6  22608.50  466.07  2.06
411.0  23292.85  477.53  2.05
412.5  23969.58  486.61  2.03
414.0  24633.38  499.19  2.03
415.4  25320.75  515.43  2.04
416.9  26001.98  530.06  2.04
418.4  26705.25  551.54  2.07
419.8  27427.40  561.17  2.05
421.3  28163.50  578.12  2.05
422.7  28953.60  593.92  2.05
424.2  29716.88  606.94  2.04
425.7  30497.30  630.81  2.07
427.1  31270.20  648.83  2.07
428.6  32069.50  664.43  2.07
430.0  32808.35  681.36  2.08
431.5  33685.73  695.51  2.06
432.9  34574.00  716.39  2.07
434.4  35468.70  739.17  2.08
435.9  36316.00  760.67  2.09
437.3  37166.25  780.54  2.10
438.8  38010.00  795.95  2.09
440.2  38902.33  811.64  2.09
441.7  39865.00  835.71  2.10
443.1  40770.25  858.60  2.11
444.6  41749.70  882.50  2.11
446.0  42700.73  905.66  2.12
447.5  43673.58  930.17  2.13
448.9  44621.10  952.45  2.13
450.4  45635.80  981.61  2.15
451.8  46514.00  1002.30  2.15
453.3  47436.10  1022.90  2.16
454.7  48457.65  1043.90  2.15
456.2  49329.25  1069.02  2.17
457.6  50298.98  1088.55  2.16
459.1  51287.93  1113.53  2.17
460.5  52229.38  1135.09  2.17
462.0  53315.55  1163.15  2.18
463.4  54361.60  1185.96  2.18
464.8  55347.38  1206.66  2.18
466.3  56324.40  1232.33  2.19
467.7  57299.33  1255.02  2.19
469.2  58369.03  1278.95  2.19
470.6  59361.25  1302.90  2.19
472.0  60423.98  1327.27  2.20
473.5  61443.75  1348.00  2.19
474.9  62472.00  1371.80  2.20
476.4  63633.60  1394.88  2.19
477.8  64699.00  1427.28  2.21
479.2  65714.00  1456.77  2.22
480.7  66816.60  1485.14  2.22
482.1  67958.35  1509.54  2.22
483.6  69172.15  1534.11  2.22
485.0  70247.18  1565.71  2.23
486.4  71455.05  1599.53  2.24
487.9  72540.00  1638.98  2.26
489.3  73713.35  1669.32  2.26
490.7  74773.55  1705.16  2.28
492.2  75999.00  1739.99  2.29
493.6  77117.60  1782.42  2.31
495.0  78229.13  1823.25  2.33
496.5  79406.43  1874.00  2.36
497.9  80521.73  1931.23  2.40
499.3  81695.73  1987.97  2.43
500.7  82948.30  2055.88  2.48
502.2  84125.20  2130.63  2.53
503.6  85395.40  2216.77  2.60
505.0  86464.30  2317.14  2.68
506.5  87793.05  2432.95  2.77
507.9  88979.65  2560.77  2.88
509.3  90294.80  2713.83  3.01
510.7  91567.13  2894.29  3.16
512.2  92958.45  3100.55  3.34
513.6  94451.70  3345.94  3.54
515.0  95876.50  3619.79  3.78
516.4  97268.85  3931.67  4.04
517.8  98903.25  4288.35  4.34
519.3  100242.15  4665.86  4.65
520.7  101806.30  5089.85  5.00
522.1  103107.55  5518.73  5.35
523.5  104472.40  5964.95  5.71
524.9  105950.25  6427.70  6.07
526.3  107409.75  6888.48  6.41
527.8  108880.20  7339.86  6.74
529.2  109887.50  7758.43  7.06
530.6  111409.50  8202.78  7.36
532.0  113148.00  8626.80  7.62
533.4  114477.98  8980.77  7.84
534.8  115361.68  9272.05  8.04
536.3  117041.70  9599.75  8.20
537.7  119057.40  9941.40  8.35
539.1  120526.18  10217.84  8.48
540.5  121717.05  10455.38  8.59
541.9  123472.65  10730.95  8.69
543.3  124743.78  10961.14  8.79
544.7  126049.80  11197.84  8.88
546.1  127847.23  11473.44  8.97
547.5  129091.20  11697.65  9.06
549.0  130768.00  11952.97  9.14
550.4  132281.25  12176.96  9.21
551.8  133856.95  12377.75  9.25
553.2  135378.90  12538.58  9.26
554.6  136718.40  12639.81  9.25
556.0  138255.30  12708.42  9.19
557.4  139883.10  12737.26  9.11
558.8  141536.25  12725.67  8.99
560.2  142988.25  12656.12  8.85
561.6  144657.30  12568.38  8.69
563.0  146262.43  12435.22  8.50
564.4  147858.25  12271.06  8.30
565.8  149387.50  12072.48  8.08
567.2  151123.50  11860.12  7.85
568.6  152619.75  11608.70  7.61
570.0  154056.08  11322.54  7.35
571.4  155782.90  11050.37  7.09
572.8  157552.25  10789.77  6.85
574.2  159174.40  10530.24  6.62
575.6  160728.75  10290.75  6.40
577.0  162256.70  10069.81  6.21
578.4  163993.38  9886.77  6.03
579.8  165526.88  9715.88  5.87
581.2  167247.18  9577.54  5.73
582.5  168678.90  9437.22  5.59
583.9  170191.40  9324.36  5.48
585.3  171994.28  9237.90  5.37
586.7  173484.68  9147.82  5.27
588.1  174975.88  9075.97  5.19
589.5  176632.75  9030.29  5.11
590.9  178274.80  8992.89  5.04
592.3  180079.95  8982.45  4.99
593.7  181531.35  8969.68  4.94
595.0  183153.83  8977.93  4.90
596.4  184615.20  8976.08  4.86
597.8  186096.48  8982.09  4.83
599.2  187651.20  8982.16  4.79
600.6  189414.88  8982.83  4.74
602.0  190715.55  8953.58  4.69
603.3  192518.40  8926.74  4.64
604.7  194185.00  8871.88  4.57
606.1  195656.40  8790.14  4.49
607.5  197303.33  8697.56  4.41
608.9  199004.20  8601.88  4.32
610.2  200406.15  8478.54  4.23
611.6  202011.15  8357.68  4.14
613.0  203571.60  8235.54  4.05
614.4  204951.30  8112.60  3.96
615.8  206417.25  8000.85  3.88
617.1  207946.20  7902.23  3.80
618.5  209582.80  7828.21  3.74
619.9  211084.28  7762.99  3.68
621.3  212723.33  7724.43  3.63
622.6  214338.75  7700.23  3.59
624.0  215805.60  7687.92  3.56
625.4  217286.85  7694.34  3.54
626.8  218857.28  7714.07  3.52
628.1  220157.03  7740.41  3.52
629.5  221963.80  7783.83  3.51
630.9  223510.10  7824.98  3.50
632.2  224833.88  7843.02  3.49
633.6  226375.38  7850.67  3.47
635.0  227865.60  7828.29  3.44
636.3  229380.70  7781.54  3.39
637.7  230757.38  7697.70  3.34
639.1  232417.50  7602.00  3.27
640.4  233893.28  7480.06  3.20
641.8  235093.93  7336.77  3.12
643.2  236686.28  7198.58  3.04
644.5  238053.00  7060.32  2.97
645.9  239702.40  6943.35  2.90
647.2  241146.15  6844.11  2.84
648.6  242878.50  6779.03  2.79
650.0  244274.40  6716.88  2.75
651.3  244866.60  6662.62  2.72
652.7  246519.75  6629.18  2.69
654.0  248602.40  6628.02  2.67
655.4  250046.73  6591.84  2.64
656.8  250154.00  6520.20  2.61
658.1  251516.00  6471.77  2.57
659.5  253968.75  6432.37  2.53
660.8  255667.50  6389.25  2.50
662.2  256681.60  6321.28  2.46
663.5  258269.00  6286.17  2.43
664.9  259409.80  6252.83  2.41
666.2  260161.80  6224.14  2.39
667.6  261872.25  6224.21  2.38
668.9  262911.80  6240.93  2.37
670.3  264450.13  6279.92  2.37
671.6  265721.25  6332.91  2.38
673.0  266893.88  6402.98  2.40
674.3  268161.40  6481.19  2.42
675.7  269491.60  6576.14  2.44
677.0  270577.13  6680.18  2.47
678.4  271876.60  6806.46  2.50
679.7  272977.85  6945.22  2.54
681.1  274281.88  7108.89  2.59
682.4  275410.20  7297.42  2.65
683.8  276647.80  7508.84  2.71
685.1  277646.63  7761.45  2.80
686.4  278898.60  8063.78  2.89
687.8  280194.25  8467.61  3.02
689.1  281262.25  8994.19  3.20
690.5  282548.70  9720.02  3.44
691.8  283432.23  10716.08  3.78
693.1  284733.15  12086.80  4.24
694.5  285899.25  13863.85  4.85
695.8  287150.50  16080.46  5.60
697.1  288288.00  18737.66  6.50
698.5  289356.90  21816.97  7.54
699.8  290444.08  25297.74  8.71
701.1  291555.15  29127.55  9.99
702.5  292383.30  33189.84  11.35
703.8  293332.50  37452.00  12.77
705.1  294485.10  41882.43  14.22
706.5  295551.38  46396.05  15.70
707.8  296517.45  50982.59  17.19
709.1  297346.68  55589.25  18.70
710.5  298462.93  60295.36  20.20
711.8  299288.30  65003.01  21.72
713.1  300314.10  69791.57  23.24
714.4  301228.40  74576.40  24.76
715.8  302098.10  79382.05  26.28
717.1  303401.25  84331.77  27.80
718.4  304348.80  89196.05  29.31
719.7  305457.73  94087.84  30.80
721.0  305955.00  98777.25  32.28
722.4  306747.65  103484.21  33.74
723.7  307722.90  108180.18  35.16
725.0  308764.58  112808.42  36.54
726.3  309735.25  117289.31  37.87
727.6  310283.05  121495.95  39.16
729.0  311183.95  125684.78  40.39
730.3  312011.78  129680.64  41.56
731.6  312918.55  133546.18  42.68
732.9  313723.73  137195.26  43.73
734.2  314534.00  140678.54  44.73
735.5  315587.88  144075.73  45.65
736.8  316347.60  147172.26  46.52
738.1  317200.80  150131.83  47.33
739.5  318191.35  152966.51  48.07
740.8  318884.78  155502.73  48.76
742.1  319597.50  157872.91  49.40
743.4  320275.00  160076.67  49.98
744.7  321182.65  162264.62  50.52
746.0  322097.10  164268.85  51.00
747.3  322712.58  165982.27  51.43
748.6  323471.50  167650.53  51.83
749.9  324194.00  169153.40  52.18
751.2  324835.30  170532.00  52.50
752.5  325619.80  171904.87  52.79
753.8  326146.10  173057.17  53.06
755.1  326820.00  174178.33  53.29
756.4  327414.88  175171.07  53.50
757.7  328414.63  176306.98  53.68
759.0  330225.20  177801.13  53.84
760.3  331425.60  178907.52  53.98
761.6  333005.40  180160.03  54.10
762.9  333519.00  180826.43  54.22
764.2  333882.80  181339.18  54.31
765.5  334164.13  181759.34  54.39
766.8  334560.00  182234.56  54.47
768.1  335102.00  182726.03  54.53
769.3  335671.00  183236.55  54.59
770.6  336322.35  183755.41  54.64
771.9  337057.53  184301.13  54.68
773.2  337392.00  184661.53  54.73
774.5  337994.80  185109.69  54.77
775.8  338641.30  185583.40  54.80
777.1  339189.40  185988.66  54.83
778.4  339535.08  186250.44  54.85
779.6  340291.80  186765.15  54.88
780.9  340770.00  187087.00  54.90
782.2  341189.75  187422.95  54.93
783.5  341447.50  187657.35  54.96
784.8  341941.73  188000.65  54.98
786.0  342338.50  188269.56  55.00
787.3  342731.28  188547.84  55.01
788.6  343168.98  188834.70  55.03
789.9  343574.00  189139.58  55.05
791.2  344220.03  189535.47  55.06
792.4  344852.55  189954.69  55.08
793.7  345322.60  190254.19  55.09
795.0  345928.28  190635.45  55.11
796.2  346562.35  191032.54  55.12
797.5  347250.00  191459.76  55.14
798.8  347882.10  191869.40  55.15
800.0  348544.75  192269.22  55.16
801.3  349014.80  192574.25  55.18
802.6  349586.10  192925.17  55.19
803.8  350188.50  193297.61  55.20
805.1  350665.00  193610.73  55.21
806.4  351091.50  193899.79  55.23
807.7  351623.03  194246.17  55.24
808.9  352146.95  194595.50  55.26
810.2  352588.25  194907.67  55.28
811.4  353080.50  195205.46  55.29
812.7  353721.88  195601.25  55.30
814.0  354548.40  196096.21  55.31
815.2  355167.25  196485.24  55.32
816.5  355575.03  196763.35  55.34
817.7  356040.65  197062.87  55.35
819.0  356550.70  197399.14  55.36
820.2  356664.00  197527.73  55.38
821.5  357378.60  197939.40  55.39
822.7  357763.05  198198.86  55.40
824.0  358020.00  198430.29  55.42
825.2  358487.78  198758.81  55.44
826.5  358817.25  198969.44  55.45
827.7  359323.05  199310.15  55.47
829.0  359785.40  199569.48  55.47
830.2  360094.90  199806.02  55.49
831.5  360578.50  200118.56  55.50
832.7  360905.48  200344.04  55.51
834.0  361195.68  200572.31  55.53
835.2  361582.10  200829.34  55.54
836.4  361926.40  201065.48  55.55
837.7  362327.00  201342.16  55.57
838.9  362779.03  201655.28  55.59
840.1  363154.05  201930.91  55.60
841.4  363591.00  202216.91  55.62
842.6  363908.80  202483.03  55.64
843.8  364257.60  202734.51  55.66
845.1  364765.10  203101.64  55.68
846.3  365227.70  203386.41  55.69
847.5  365582.70  203675.99  55.71
848.8  365979.60  203977.08  55.73
850.0  366439.85  204243.18  55.74
851.2  366994.80  204613.56  55.75
852.5  367410.20  204887.66  55.77
853.7  367814.25  205213.43  55.79
854.9  368309.20  205537.95  55.81
856.1  368827.55  205877.95  55.82
857.4  369035.83  206032.00  55.83
858.6  369542.95  206366.48  55.84
859.8  369907.50  206626.50  55.86
861.0  370375.20  206933.22  55.87
862.2  370869.35  207240.49  55.88
863.5  371191.60  207502.43  55.90
864.7  371784.60  207827.18  55.90
865.9  372211.40  208108.57  55.91
867.1  372455.45  208346.67  55.94
868.3  372902.70  208629.41  55.95
869.5  373408.40  208930.17  55.95
870.8  374008.50  209270.85  55.95
872.0  374562.30  209586.84  55.96
873.2  374963.70  209874.43  55.97
874.4  375368.18  210168.27  55.99
875.6  375820.03  210425.18  55.99
876.8  376312.90  210733.07  56.00
878.0  376814.75  211008.10  56.00
879.2  377379.90  211316.77  56.00
880.4  377901.38  211640.94  56.00
881.6  378388.55  211939.31  56.01
882.8  378865.60  212165.31  56.00
884.0  379458.23  212524.31  56.01
885.2  379916.40  212812.82  56.02
886.5  380544.55  213160.04  56.01
887.7  381075.83  213425.27  56.01
888.8  381712.05  213811.69  56.01
890.0  382280.75  214151.18  56.02
891.2  382858.20  214469.93  56.02
892.4  383520.90  214810.35  56.01
893.6  384051.10  215114.22  56.01
894.8  384939.50  215623.47  56.01
896.0  385784.75  216103.64  56.02
897.2  386678.50  216568.84  56.01
898.4  387307.80  216981.71  56.02
899.6  387973.13  217303.04  56.01
900.8  388280.28  217495.29  56.02
902.0  388442.40  217628.99  56.03
903.2  388845.08  217802.44  56.01
904.3  389203.50  218001.67  56.01
905.5  389759.43  218322.66  56.01
906.7  390326.50  218653.97  56.02
907.9  390819.10  218907.83  56.01
909.1  391196.25  219054.33  56.00
910.2  391276.20  219169.15  56.01
911.4  391555.13  219282.86  56.00
912.6  391755.65  219413.96  56.01
913.8  391978.73  219508.91  56.00
915.0  392343.00  219753.73  56.01
916.2  392544.75  219814.08  56.00
917.3  392619.60  219807.88  55.98
918.5  392771.90  219886.35  55.98
919.7  392939.85  220021.76  55.99
920.8  392955.85  220049.96  56.00
922.0  393065.75  220024.29  55.98
923.2  393256.50  220106.25  55.97
924.4  393538.50  220200.75  55.95
925.5  393822.10  220289.71  55.94
926.7  394378.75  220572.10  55.93
927.9  395191.80  220997.00  55.92
929.0  396569.25  221691.29  55.90
930.2  398815.70  222823.45  55.87
931.4  401143.05  224086.46  55.86
932.5  403899.00  225536.37  55.84
933.7  405163.48  226225.57  55.84
934.9  405820.63  226441.54  55.80
936.0  405388.75  226109.54  55.78
937.2  403367.10  224835.52  55.74
938.3  401661.45  223774.85  55.71
939.5  399988.80  222836.40  55.71
940.7  400183.20  222816.78  55.68
941.8  401547.83  223514.84  55.66
943.0  402954.00  224074.45  55.61
944.2  404021.80  224355.08  55.53
945.3  403474.50  223942.55  55.50
946.5  402696.90  223328.52  55.46
947.6  402758.40  223239.78  55.43
948.8  402601.88  222934.73  55.37
949.9  402696.00  222739.58  55.31
951.1  402253.15  222275.28  55.26
952.2  402084.00  221924.80  55.19
953.4  401857.75  221336.09  55.08
954.5  401824.80  221024.70  55.01
955.7  401839.20  220633.14  54.91
956.8  401371.80  220231.53  54.87
958.0  400915.00  219742.77  54.81
959.1  400661.88  219412.22  54.76
960.3  400386.48  218905.54  54.67
961.4  399907.75  218584.96  54.66
962.6  400382.50  218556.10  54.59
963.7  400125.08  218265.65  54.55
964.9  400133.85  218165.83  54.52
966.0  399907.13  217955.81  54.50
967.2  399923.10  217888.53  54.48
968.3  399427.20  217649.84  54.49
969.5  399233.10  217481.39  54.47
970.6  399306.68  217409.93  54.45
971.8  399432.95  217502.32  54.45
972.9  399648.00  217329.42  54.38
974.0  400205.20  217375.30  54.32
975.2  400139.63  217273.88  54.30
976.3  400113.90  217170.54  54.28
977.5  399730.98  217110.27  54.31
978.6  399299.80  217094.26  54.37
979.7  399666.23  216892.90  54.27
980.9  399970.48  216594.31  54.15
982.0  399798.35  216537.44  54.16
983.2  399543.35  216461.89  54.18
984.3  399149.20  216214.88  54.17
985.4  399216.75  216213.48  54.16
986.6  398567.13  216049.18  54.21
987.7  399161.70  216299.55  54.19
988.9  399162.60  216218.82  54.17
990.0  399507.30  216442.24  54.18
993.1  372919.81  201135.90  53.94
996.9  372621.88  201427.64  54.06
1000.7  373242.28  202207.05  54.18
1004.5  373543.08  202846.89  54.30
1008.4  373320.63  203145.54  54.42
1012.2  373354.71  203554.06  54.52
1016.0  373307.40  203893.87  54.62
1019.8  373163.18  204137.27  54.70
1023.7  372700.99  204168.32  54.78
1027.5  371787.22  203968.84  54.86
1031.3  371465.15  204058.31  54.93
1035.1  370881.18  204036.82  55.01
1038.9  370631.43  204178.01  55.09
1042.7  370360.42  204282.63  55.16
1046.5  370238.33  204422.74  55.21
1050.3  370254.43  204608.12  55.26
1054.2  369917.92  204592.76  55.31
1058.0  369471.49  204502.15  55.35
1061.8  369347.38  204569.83  55.39
1065.6  368989.53  204433.56  55.40
1069.4  368605.53  204239.41  55.41
1073.2  367822.65  203772.52  55.40
1077.0  367205.75  203382.68  55.39
1080.8  367001.04  203187.96  55.36
1084.6  366467.73  202841.13  55.35
1088.4  366262.59  202685.43  55.34
1092.2  365625.00  202234.50  55.31
1096.0  364988.43  201772.98  55.28
1099.8  364413.62  201307.21  55.24
1103.6  363628.32  200705.17  55.20
1107.4  362607.11  199952.53  55.14
1111.2  362371.40  199600.04  55.08
1114.9  361735.50  198984.08  55.01
1118.7  361302.98  198403.70  54.91
1122.5  360819.33  197678.96  54.79
1126.3  359780.87  196513.39  54.62
1130.1  359322.54  195386.30  54.38
1133.9  357730.80  193283.07  54.03
1137.7  356279.10  190922.45  53.59
1141.4  354367.76  188044.81  53.06
1145.2  353573.08  185593.15  52.49
1149.0  352363.96  183028.61  51.94
1152.8  350672.20  180497.06  51.47
1156.6  348925.50  178350.54  51.11
1160.3  347188.00  176589.70  50.86
1164.1  344840.33  174808.50  50.69
1167.9  343083.33  173586.11  50.60
1171.7  341782.88  172688.25  50.53
1175.4  340509.77  171828.82  50.46
1179.2  339311.13  170997.29  50.40
1183.0  339001.33  170568.29  50.31
1186.7  338700.13  170219.41  50.26
1190.5  337971.60  169722.58  50.22
1194.3  336931.60  169141.45  50.20
1198.0  335641.63  168458.65  50.19
1201.8  334045.75  167716.15  50.21
1205.6  332878.33  167281.63  50.25
1209.3  332077.38  167145.64  50.33
1213.1  331324.05  167128.70  50.44
1216.8  330513.79  167168.30  50.58
1220.6  329416.27  167077.45  50.72
1224.3  328161.67  166888.04  50.86
1228.1  326812.40  166658.93  51.00
1231.9  325403.60  166316.55  51.11
1235.6  323808.83  165831.52  51.21
1239.4  322361.50  165406.56  51.31
1243.1  321063.33  164993.69  51.39
1246.9  319845.88  164573.95  51.45
1250.6  318836.73  164209.56  51.50
1254.3  317724.64  163785.52  51.55
1258.1  316624.35  163302.59  51.58
1261.8  315273.33  162661.24  51.59
1265.6  313973.87  161989.19  51.59
1269.3  312858.63  161374.23  51.58
1273.1  313017.26  161399.79  51.56
1276.8  313092.40  161299.46  51.52
1280.6  312488.77  160767.95  51.45
1284.3  310829.20  159623.02  51.35
1288.0  309468.72  158576.41  51.24
1291.8  308575.43  157710.20  51.11
1295.5  307533.60  156722.79  50.96
1299.2  306346.78  155576.43  50.78
1302.9  304830.75  154134.03  50.56
1306.7  303195.67  152501.25  50.30
1310.4  301618.13  150741.44  49.98
1314.1  300163.97  148930.59  49.62
1317.9  298858.96  147034.17  49.20
1321.6  297422.45  144921.75  48.73
1325.3  295776.08  142570.28  48.20
1329.0  294479.27  140280.62  47.64
1332.8  292492.20  137569.91  47.03
1336.5  290768.93  134950.55  46.41
1340.2  290517.50  133031.89  45.79
1343.9  290327.08  131160.05  45.18
1347.6  290151.00  129347.40  44.58
1351.4  291105.50  128088.56  44.00
1355.1  292361.30  127005.76  43.44
1358.8  293376.00  125749.34  42.86
1362.5  293301.28  123871.74  42.23
1366.2  291475.20  120967.09  41.50
1369.9  288940.88  117390.33  40.63
1373.6  286478.62  113286.03  39.54
1377.3  284816.70  108738.33  38.18
1381.0  284016.00  103574.45  36.47
1384.8  282083.75  96987.22  34.38
1388.4  279276.78  89538.63  32.06
1392.2  277212.33  82010.71  29.58
1395.9  275694.10  74672.94  27.09
1399.6  273989.43  67787.51  24.74
1403.3  272682.20  61765.66  22.65
1407.0  271296.00  56621.18  20.87
1410.7  269782.43  52396.30  19.42
1414.3  268203.02  49028.56  18.28
1418.1  266778.42  46456.08  17.41
1421.7  265610.28  44514.70  16.76
1425.4  264456.08  43075.50  16.29
1429.1  263404.50  42028.42  15.96
1432.8  261833.81  41219.00  15.74
1436.5  261049.38  40758.56  15.61
1440.2  260321.37  40497.55  15.56
1443.9  259144.60  40288.66  15.55
1447.6  257580.40  40135.82  15.58
1451.2  256416.05  40100.99  15.64
1454.9  255050.25  40110.47  15.73
1458.6  253887.11  40257.86  15.86
1462.3  252710.33  40549.91  16.05
1466.0  251369.41  40994.60  16.31
1469.7  249711.04  41556.67  16.64
1473.3  248680.83  42383.78  17.04
1477.0  246765.77  43164.61  17.49
1480.7  245168.66  44087.41  17.98
1484.4  243222.76  44978.46  18.49
1488.0  241677.33  45978.37  19.02
1491.7  240076.69  46972.20  19.57
1495.4  238363.59  47961.62  20.12
1499.0  236814.00  48958.45  20.67
1502.7  235539.50  50000.20  21.23
1506.4  234112.63  50997.61  21.78
1510.0  232711.27  51959.44  22.33
1513.7  231224.88  52869.64  22.87
1517.4  229906.67  53781.85  23.39
1521.0  228651.87  54676.21  23.91
1524.7  227417.67  55522.76  24.41
1528.3  226169.50  56305.39  24.90
1532.0  224977.32  57062.70  25.36
1535.7  223617.08  57721.90  25.81
1539.3  222370.78  58385.82  26.26
1543.0  221415.72  59077.81  26.68
1546.6  220714.00  59807.22  27.10
1550.3  219713.90  60418.12  27.50
1553.9  218653.37  60963.92  27.88
1557.6  217401.80  61430.52  28.26
1561.2  216141.30  61835.70  28.61
1564.9  214859.60  62208.52  28.95
1568.5  213567.32  62545.96  29.29
1572.2  212436.00  62906.54  29.61
1575.8  211358.00  63261.33  29.93
1579.5  210367.65  63611.51  30.24
1583.1  209362.14  63941.24  30.54
1586.8  208096.00  64166.67  30.84
1590.4  207005.70  64422.36  31.12
1594.0  205708.21  64591.01  31.40
1597.7  204735.48  64855.00  31.68
1601.3  203623.88  65060.10  31.95
1604.9  202497.25  65244.42  32.22
1608.6  201178.22  65323.92  32.47
1612.2  200010.53  65415.72  32.71
1615.8  198738.48  65446.48  32.93
1619.5  197574.92  65485.65  33.14
1623.1  196287.53  65441.59  33.34
1626.7  195063.05  65403.00  33.53
1630.3  193873.08  65334.11  33.70
1634.0  192794.00  65264.89  33.85
1637.6  191813.07  65191.19  33.99
1641.2  190799.00  65051.50  34.09
1644.8  189601.89  64782.33  34.17
1648.5  188532.41  64505.39  34.21
1652.1  187572.30  64223.93  34.24
1655.7  186630.60  63906.31  34.24
1659.3  185799.81  63592.94  34.23
1662.9  184393.33  63076.29  34.21
1666.6  182993.27  62559.16  34.19
1670.2  181563.38  62031.61  34.17
1673.8  180128.72  61463.84  34.12
1677.4  178982.95  60948.90  34.05
1681.0  178175.43  60484.96  33.95
1684.6  177759.83  60092.02  33.81
1688.2  177101.40  59562.07  33.63
1691.8  176431.43  59024.17  33.45
1695.4  175994.80  58538.71  33.26
1699.0  175639.33  58081.49  33.07
1702.6  175311.00  57613.63  32.86
1706.2  174701.04  57040.99  32.65
1709.8  173762.13  56370.64  32.44
1713.4  173035.71  55758.39  32.22
1717.0  172176.75  55119.11  32.01
1720.6  171390.00  54500.05  31.80
1724.2  170682.30  53902.47  31.58
1727.8  169959.65  53327.17  31.38
1731.4  169505.88  52877.00  31.19
1735.0  169331.07  52554.99  31.04
1738.6  169100.25  52190.10  30.86
1742.2  168513.55  51673.77  30.66
1745.8  167875.48  51088.69  30.43
1749.4  166923.08  50386.42  30.19
1753.0  165430.00  49509.91  29.93
1756.6  163781.04  48594.13  29.67
1760.1  162480.81  47803.57  29.42
1763.7  160785.33  46930.22  29.19
1767.3  159367.85  46189.33  28.98
1770.9  158138.93  45546.59  28.80
1774.5  156706.85  44888.88  28.65
1778.0  155593.05  44356.29  28.51
1781.6  154530.00  43877.77  28.39
1785.2  153390.23  43425.59  28.31
1788.8  152238.20  43014.87  28.25
1792.3  151023.27  42626.25  28.22
1795.9  150532.53  42471.26  28.21
1799.5  150165.00  42376.59  28.22
1803.1  150294.43  42453.60  28.25
1806.6  151580.74  42882.83  28.29
1810.2  153022.57  43354.73  28.33
1813.8  153928.00  43637.02  28.35
1817.3  153698.00  43582.76  28.36
1820.9  152717.35  43279.17  28.34
1824.5  151460.80  42880.19  28.31
1828.0  150474.96  42518.56  28.26
1831.6  149891.68  42234.48  28.18
1835.2  149444.17  41923.89  28.05
1838.7  149155.60  41568.56  27.87
1842.3  148875.00  41103.33  27.61
1845.8  147901.00  40305.43  27.25
1849.4  147322.00  39447.50  26.78
1852.9  146574.87  38351.02  26.16
1856.5  145614.08  36960.89  25.38
1860.0  144717.27  35316.63  24.40
1863.6  144599.44  33575.49  23.22
1867.1  144866.05  31624.60  21.83
1870.7  145309.90  29319.22  20.18
1874.2  144500.40  26399.90  18.27
1877.8  142581.13  23210.55  16.28
1881.3  140376.63  19990.83  14.24
1884.9  138931.19  17093.73  12.30
1888.4  137688.19  14439.21  10.49
1891.9  136373.40  12205.67  8.95
1895.5  135192.67  10439.37  7.72
1899.0  134598.63  9170.58  6.81
1901.3  170074.67  7656.33  4.50
1904.1  169957.50  6815.50  4.01
1906.8  169087.20  6157.00  3.64
1909.6  167165.95  5616.10  3.36
1912.4  165409.18  5244.01  3.17
1915.1  164122.75  4958.62  3.02
1917.9  162720.00  4739.72  2.91
1920.6  161574.23  4590.55  2.84
1923.3  160415.03  4478.52  2.79
1926.1  158951.23  4394.99  2.76
1928.8  157564.00  4346.22  2.76
1931.6  156487.57  4338.43  2.77
1934.3  155514.37  4340.76  2.79
1937.0  154592.63  4379.53  2.83
1939.8  153525.50  4424.83  2.88
1942.5  152152.00  4480.67  2.94
1945.2  150344.15  4535.30  3.02
1947.9  148864.57  4618.68  3.10
1950.7  147701.30  4730.32  3.20
1953.4  145914.45  4825.93  3.31
1956.1  144527.00  4940.61  3.42
1958.8  143281.02  5077.58  3.54
1961.5  141799.60  5213.33  3.68
1964.2  140267.40  5362.93  3.82
1966.9  138673.15  5502.40  3.97
1969.6  137421.00  5676.00  4.13
1972.3  136036.50  5841.37  4.29
1975.0  135006.75  6029.80  4.47
1977.7  133898.72  6227.50  4.65
1980.4  132744.87  6417.20  4.83
1983.1  131656.53  6615.95  5.03
1985.8  130734.90  6832.40  5.23
1988.4  129696.67  7046.00  5.43
1991.1  128774.80  7254.88  5.63
1993.8  127923.03  7479.27  5.85
1996.5  127276.78  7709.05  6.06
1999.1  126596.07  7950.31  6.28
2001.8  125908.53  8175.76  6.49
2004.5  125226.05  8407.80  6.71
2007.1  124490.80  8624.05  6.93
2009.8  123758.83  8837.66  7.14
2012.4  123158.02  9058.99  7.36
2015.1  122601.97  9275.08  7.57
2017.8  121816.33  9456.38  7.76
2020.4  121305.43  9662.16  7.97
2023.1  120935.73  9859.27  8.15
2025.7  120700.67  10059.11  8.33
2028.3  120354.00  10238.22  8.51
2031.0  119951.57  10417.10  8.68
2033.6  119677.20  10587.90  8.85
2036.2  119424.90  10744.50  9.00
2038.9  118815.90  10854.70  9.14
2041.5  118476.93  10988.81  9.28
2044.1  117919.80  11095.40  9.41
2046.8  117545.70  11214.30  9.54
2049.4  116910.60  11301.30  9.67
2052.0  116624.93  11417.38  9.79
2054.6  116226.25  11512.08  9.90
2057.2  115655.53  11600.78  10.03
2059.8  115323.67  11711.40  10.16
2062.4  114441.12  11773.31  10.29
2065.0  113917.60  11859.87  10.41
2067.6  113020.30  11906.97  10.54
2070.2  112418.85  11991.23  10.67
2072.8  111782.53  12069.68  10.80
2075.4  111335.00  12159.58  10.92
2078.0  110713.92  12229.33  11.05
2080.6  110140.80  12296.53  11.16
2083.2  109443.07  12349.31  11.28
2085.8  108957.25  12425.49  11.40
2088.4  108296.67  12487.39  11.53
2090.9  107501.62  12516.73  11.64
2093.5  106611.43  12542.18  11.76
2096.1  105839.17  12577.73  11.88
2098.7  105075.02  12612.87  12.00
2101.2  104110.07  12616.76  12.12
2103.8  103437.60  12660.42  12.24
2106.4  102773.87  12709.91  12.37
2108.9  102127.60  12756.49  12.49
2111.5  101280.47  12759.40  12.60
2114.0  100651.67  12803.07  12.72
2116.6  100126.25  12850.83  12.83
2119.1  99563.03  12889.92  12.95
2121.7  99076.25  12935.42  13.06
2124.2  98677.60  12989.28  13.16
2126.8  97890.25  12987.62  13.27
2129.3  97495.20  13032.80  13.37
2131.9  96914.40  13041.60  13.46
2134.4  96482.70  13074.40  13.55
2136.9  96091.02  13111.80  13.65
2139.4  95564.93  13125.62  13.73
2142.0  95112.73  13155.18  13.83
2144.5  94829.50  13204.63  13.92
2147.0  94586.13  13251.11  14.01
2149.5  94094.80  13268.98  14.10
2152.1  93920.75  13316.29  14.18
2154.6  93849.07  13382.40  14.26
2157.1  93313.08  13376.72  14.34
2159.6  92904.33  13388.83  14.41
2162.1  92738.10  13434.63  14.49
2164.6  92484.13  13459.49  14.55
2167.1  92173.12  13475.01  14.62
2169.6  91844.08  13480.91  14.68
2172.1  91373.07  13480.67  14.75
2174.6  91045.00  13501.53  14.83
2177.1  90605.33  13501.06  14.90
2179.5  90194.65  13499.85  14.97
2182.0  89722.60  13479.58  15.02
2184.5  89188.58  13468.21  15.10
2187.0  88569.57  13445.64  15.18
2189.5  87872.57  13409.44  15.26
2191.9  87105.50  13350.67  15.33
2194.4  86484.80  13319.07  15.40
2196.9  85737.60  13254.40  15.46
2199.3  85076.33  13211.11  15.53
2201.8  84203.07  13127.02  15.59
2204.3  83745.98  13098.71  15.64
2206.7  83104.45  13041.40  15.69
2209.2  82634.55  13009.76  15.74
2211.6  82001.70  12942.60  15.78
2214.1  81709.40  12915.10  15.81
2216.5  81155.33  12840.49  15.82
2219.0  80807.67  12794.13  15.83
2221.4  80414.25  12723.08  15.82
2223.9  79948.17  12637.14  15.81
2226.3  79452.33  12531.36  15.77
2228.7  78908.53  12400.29  15.71
2231.1  78309.00  12239.70  15.63
2233.6  77688.60  12082.25  15.55
2236.0  77141.75  11916.53  15.45
2238.4  76655.83  11741.33  15.32
2240.9  76198.60  11559.09  15.17
2243.3  75662.20  11353.80  15.01
2245.7  75092.65  11150.63  14.85
2248.1  74610.47  10946.72  14.67
2250.5  74106.28  10742.07  14.50
2252.9  73464.30  10511.51  14.31
2255.3  72903.65  10294.93  14.12
2257.7  72440.00  10090.00  13.93
2260.1  71939.00  9892.87  13.75
2262.5  71350.00  9680.00  13.57
2264.9  70821.77  9484.17  13.39
2267.3  70210.00  9283.33  13.22
2269.7  69711.60  9106.92  13.06
2272.1  69155.07  8928.19  12.91
2274.5  68585.50  8752.06  12.76
2276.8  68113.33  8600.98  12.63
2279.2  67536.00  8445.35  12.50
2281.6  67104.40  8308.36  12.38
2284.0  66629.70  8187.73  12.29
2286.3  66160.53  8062.76  12.19
2288.7  65743.60  7936.21  12.07
2291.1  65217.03  7794.39  11.95
2293.4  64772.40  7665.78  11.83
2295.8  64138.10  7512.13  11.71
2298.2  63538.65  7362.30  11.59
2300.5  62876.25  7203.60  11.46
2302.9  62124.00  7037.00  11.33
2305.2  61408.60  6873.53  11.19
2307.6  60723.90  6726.46  11.08
2309.9  59964.33  6572.00  10.96
2312.2  59365.00  6448.00  10.86
2314.6  58788.00  6348.00  10.80
2316.9  58094.55  6237.60  10.74
2319.2  57535.00  6147.43  10.68
2321.6  56911.05  6043.10  10.62
2323.9  56375.00  5940.97  10.54
2326.2  55839.20  5842.67  10.46
2328.6  55322.30  5744.02  10.38
2330.9  54820.50  5638.50  10.29
2333.2  54324.25  5538.61  10.20
2335.5  53885.20  5432.03  10.08
2337.8  53442.20  5334.16  9.98
2340.1  52870.68  5229.92  9.89
2342.4  52422.50  5124.17  9.77
2344.8  51996.08  5032.58  9.68
2347.1  51433.67  4924.03  9.57
2349.4  50897.00  4825.30  9.48
2351.6  50324.13  4737.17  9.41
2353.9  49848.60  4656.07  9.34
2356.2  49335.77  4568.95  9.26
2358.5  48742.40  4472.53  9.18
2360.8  48171.20  4386.67  9.11
2363.1  47738.13  4303.46  9.01
2365.4  47267.90  4222.43  8.93
2367.7  46797.00  4130.60  8.83
2369.9  46258.00  4045.67  8.75
2372.2  45660.27  3944.53  8.64
2374.5  45068.10  3846.15  8.53
2376.7  44445.37  3740.57  8.42
2379.0  43834.40  3652.87  8.33
2381.3  43225.00  3554.44  8.22
2383.5  42709.33  3461.34  8.10
2385.8  42112.90  3369.19  8.00
2388.0  41595.00  3284.33  7.90
2390.3  41070.53  3204.00  7.80
2392.5  40572.00  3116.00  7.68
2394.8  40111.50  3041.13  7.58
2397.0  39627.47  2948.40  7.44
2399.3  39169.42  2883.39  7.36
2401.5  38746.75  2809.33  7.25
2403.8  38218.62  2726.09  7.13
2406.0  37709.42  2632.33  6.98
2408.2  37287.80  2563.98  6.88
2410.4  36863.28  2496.67  6.77
2412.7  36468.47  2425.36  6.65
2414.9  36090.45  2357.12  6.53
2417.1  35712.40  2290.23  6.41
2419.3  35302.40  2222.93  6.30
2421.6  34913.75  2165.70  6.20
2423.8  34517.27  2109.24  6.11
2426.0  34146.17  2047.04  5.99
2428.2  33790.40  1977.42  5.85
2430.4  33480.33  1918.83  5.73
2432.6  33240.00  1875.56  5.64
2434.8  32962.20  1817.87  5.52
2437.0  32575.83  1773.20  5.44
2439.2  32196.70  1716.62  5.33
2441.4  31874.73  1672.35  5.25
2443.6  31640.17  1625.76  5.14
2445.7  31376.33  1578.07  5.03
2447.9  31103.75  1530.83  4.92
2450.1  30811.65  1484.62  4.82
2452.3  30449.65  1435.19  4.71
2454.5  30097.03  1394.70  4.63
2456.6  29703.20  1336.31  4.50
2458.8  29329.30  1301.30  4.44
2461.0  29049.58  1259.05  4.33
2463.1  28750.80  1227.05  4.27
2465.3  28476.47  1195.06  4.20
2467.5  28231.50  1165.25  4.13
2469.6  27983.67  1128.69  4.03
2471.8  27705.75  1106.23  3.99
2473.9  27376.25  1075.94  3.93
2476.1  27011.83  1036.39  3.84
2478.2  26688.80  1010.48  3.79
2480.4  26386.65  987.52  3.74
2482.5  26058.45  959.97  3.68
2484.6  25696.92  935.00  3.64
2486.8  25434.00  921.07  3.62
2488.9  25127.07  910.17  3.62
2491.1  24783.73  867.38  3.50
2493.2  24397.07  835.59  3.42
2495.3  23985.87  801.67  3.34
2497.4  23650.90  788.90  3.34
2499.5  23336.37  787.59  3.37
2501.7  23203.87  766.89  3.31
2503.8  23135.87  763.40  3.30
2505.9  23062.50  757.36  3.28
2508.0  23051.93  759.05  3.29
2510.1  23051.62  751.10  3.26
2512.2  23157.70  746.23  3.22
2514.3  23330.52  746.68  3.20
2516.4  23502.10  755.17  3.21
