/*** Spectra Vista SIG Data ***/
name= 50_20220825_QUPH_20_avg.sig
comm= Averaged Ref/Tar of files: HR.082522.0067_moc.sig,HR.082522.0068_moc.sig
data=
337.3  3225.63  205.59  6.37
338.8  3367.00  206.15  6.12
340.3  3513.75  191.42  5.45
341.8  3703.73  186.82  5.04
343.2  3907.20  183.95  4.71
344.7  4051.75  197.41  4.87
346.2  4207.55  203.09  4.83
347.7  4443.73  195.50  4.40
349.2  4573.80  187.92  4.11
350.6  4847.70  182.58  3.77
352.1  5108.68  194.96  3.82
353.6  5413.20  206.22  3.81
355.1  5691.08  218.41  3.84
356.6  5997.83  212.57  3.54
358.0  6252.40  211.45  3.38
359.5  6550.80  219.83  3.36
361.0  6852.83  229.14  3.34
362.5  7230.93  232.53  3.22
364.0  7570.20  233.50  3.08
365.4  7952.30  246.48  3.10
366.9  8315.13  251.78  3.03
368.4  8673.45  261.84  3.02
369.9  9026.35  277.97  3.08
371.3  9451.80  291.41  3.08
372.8  9903.15  295.09  2.98
374.3  10320.00  302.54  2.93
375.8  10753.05  303.38  2.82
377.2  11190.40  315.89  2.82
378.7  11593.90  330.49  2.85
380.2  12024.30  330.49  2.75
381.7  12539.60  337.43  2.69
383.1  13043.80  338.80  2.60
384.6  13568.43  357.61  2.64
386.1  14053.00  363.68  2.59
387.6  14579.95  379.61  2.60
389.0  15061.60  381.33  2.53
390.5  15531.75  392.18  2.53
392.0  16134.50  407.33  2.52
393.4  16710.90  422.65  2.53
394.9  17304.30  441.47  2.55
396.4  17879.63  446.53  2.50
397.9  18450.00  458.32  2.48
399.3  18993.75  470.32  2.48
400.8  19566.13  483.55  2.47
402.2  20229.20  505.03  2.50
403.7  20848.95  518.65  2.49
405.2  21473.23  531.00  2.47
406.6  22086.40  546.20  2.47
408.1  22667.80  558.55  2.46
409.6  23288.95  568.19  2.44
411.0  23997.40  591.09  2.46
412.5  24677.63  605.12  2.45
414.0  25346.50  622.90  2.46
415.4  26056.13  640.55  2.46
416.9  26753.70  657.00  2.46
418.4  27452.25  672.84  2.45
419.8  28191.80  691.08  2.45
421.3  28929.98  715.04  2.47
422.7  29736.60  739.75  2.49
424.2  30526.88  756.97  2.48
425.7  31312.30  776.35  2.48
427.1  32093.10  793.06  2.47
428.6  32906.50  817.52  2.48
430.0  33658.15  838.10  2.49
431.5  34551.38  864.37  2.50
432.9  35438.35  885.70  2.50
434.4  36356.85  905.75  2.49
435.9  37212.00  924.80  2.49
437.3  38073.75  949.15  2.49
438.8  38933.10  970.81  2.49
440.2  39818.63  994.46  2.50
441.7  40816.40  1019.55  2.50
443.1  41737.50  1046.37  2.51
444.6  42719.10  1076.07  2.52
446.0  43673.85  1099.91  2.52
447.5  44655.88  1125.95  2.52
448.9  45614.40  1148.84  2.52
450.4  46658.85  1179.19  2.53
451.8  47541.00  1205.29  2.54
453.3  48482.10  1235.78  2.55
454.7  49524.83  1265.18  2.55
456.2  50400.48  1290.01  2.56
457.6  51387.53  1310.43  2.55
459.1  52380.58  1337.45  2.55
460.5  53352.88  1361.96  2.55
462.0  54438.13  1395.01  2.56
463.4  55498.70  1421.67  2.56
464.8  56499.00  1447.36  2.56
466.3  57502.50  1472.63  2.56
467.7  58495.70  1498.39  2.56
469.2  59579.48  1526.54  2.56
470.6  60597.65  1553.93  2.56
472.0  61662.58  1582.03  2.57
473.5  62686.75  1611.06  2.57
474.9  63740.25  1635.09  2.57
476.4  64915.20  1664.23  2.56
477.8  65989.50  1692.77  2.57
479.2  67019.00  1720.95  2.57
480.7  68148.30  1753.96  2.57
482.1  69316.65  1783.96  2.57
483.6  70530.45  1820.70  2.58
485.0  71636.78  1850.73  2.58
486.4  72851.85  1889.42  2.59
487.9  73973.25  1925.49  2.60
489.3  75141.68  1955.06  2.60
490.7  76231.33  1993.77  2.62
492.2  77483.70  2033.22  2.62
493.6  78597.25  2074.86  2.64
495.0  79735.50  2114.78  2.65
496.5  80932.63  2163.52  2.67
497.9  82047.93  2212.15  2.70
499.3  83251.28  2270.02  2.73
500.7  84530.50  2323.07  2.75
502.2  85702.00  2382.72  2.78
503.6  86986.80  2454.47  2.82
505.0  88090.45  2531.52  2.87
506.5  89418.30  2624.89  2.94
507.9  90610.40  2721.03  3.00
509.3  91982.00  2836.53  3.08
510.7  93249.00  2955.92  3.17
512.2  94666.50  3096.83  3.27
513.6  96173.70  3260.73  3.39
515.0  97640.40  3446.92  3.53
516.4  99026.55  3652.70  3.69
517.8  100683.00  3896.08  3.87
519.3  102029.68  4146.50  4.06
520.7  103632.80  4430.97  4.28
522.1  104952.25  4723.55  4.50
523.5  106307.20  5028.23  4.73
524.9  107777.70  5341.66  4.96
526.3  109232.20  5651.85  5.17
527.8  110781.00  5964.19  5.38
529.2  111913.90  6256.73  5.59
530.6  113432.50  6546.68  5.77
532.0  115164.00  6836.80  5.94
533.4  116514.23  7078.40  6.08
534.8  117398.33  7273.00  6.20
536.3  119079.90  7489.74  6.29
537.7  121086.00  7719.12  6.37
539.1  122596.78  7893.64  6.44
540.5  123813.75  8042.86  6.50
541.9  125627.48  8229.38  6.55
543.3  126931.45  8377.33  6.60
544.7  128295.60  8537.95  6.65
546.1  130102.23  8726.21  6.71
547.5  131353.60  8874.24  6.76
549.0  133056.00  9047.03  6.80
550.4  134586.88  9190.63  6.83
551.8  136172.45  9324.25  6.85
553.2  137714.83  9430.79  6.85
554.6  139079.20  9494.31  6.83
556.0  140625.45  9531.17  6.78
557.4  142257.85  9540.30  6.71
558.8  143916.75  9523.48  6.62
560.2  145395.25  9467.63  6.51
561.6  147086.33  9405.14  6.39
563.0  148703.10  9319.16  6.27
564.4  150316.40  9217.39  6.13
565.8  151863.13  9082.25  5.98
567.2  153639.00  8946.77  5.82
568.6  155164.50  8775.51  5.66
570.0  156624.23  8593.43  5.49
571.4  158357.55  8428.00  5.32
572.8  160155.50  8270.96  5.16
574.2  161806.40  8114.88  5.02
575.6  163383.75  7968.86  4.88
577.0  164912.20  7834.45  4.75
578.4  166655.13  7728.83  4.64
579.8  168200.55  7636.12  4.54
581.2  169944.15  7567.08  4.45
582.5  171393.30  7500.37  4.38
583.9  172929.00  7439.40  4.30
585.3  174748.95  7403.38  4.24
586.7  176250.43  7363.08  4.18
588.1  177764.63  7331.12  4.12
589.5  179425.75  7321.65  4.08
590.9  181077.20  7317.77  4.04
592.3  182916.25  7335.66  4.01
593.7  184383.23  7350.78  3.99
595.0  186026.63  7372.91  3.96
596.4  187490.10  7391.12  3.94
597.8  188986.05  7408.30  3.92
599.2  190542.00  7429.72  3.90
600.6  192319.73  7455.53  3.88
602.0  193655.63  7457.40  3.85
603.3  195472.30  7464.89  3.82
604.7  197166.15  7451.31  3.78
606.1  198664.80  7420.07  3.73
607.5  200311.13  7383.04  3.69
608.9  202039.00  7344.94  3.64
610.2  203439.60  7291.22  3.58
611.6  205048.05  7243.13  3.53
613.0  206635.00  7198.99  3.48
614.4  208021.35  7142.81  3.43
615.8  209473.88  7095.63  3.39
617.1  211033.20  7056.42  3.34
618.5  212705.60  7040.57  3.31
619.9  214248.38  7023.28  3.28
621.3  215889.08  7024.95  3.25
622.6  217495.50  7034.61  3.23
624.0  218972.85  7043.44  3.22
625.4  220468.88  7063.61  3.20
626.8  222058.20  7092.54  3.19
628.1  223385.80  7119.53  3.19
629.5  225219.23  7170.91  3.18
630.9  226764.45  7209.90  3.18
632.2  228076.10  7237.17  3.17
633.6  229663.38  7261.98  3.16
635.0  231168.00  7267.74  3.14
636.3  232702.30  7268.97  3.12
637.7  234093.38  7249.85  3.10
639.1  235760.00  7234.00  3.07
640.4  237251.53  7194.74  3.03
641.8  238480.68  7151.90  3.00
643.2  240074.98  7114.73  2.96
644.5  241447.50  7066.92  2.93
645.9  243115.65  7039.47  2.90
647.2  244598.73  7016.33  2.87
648.6  246361.50  7012.87  2.85
650.0  247860.00  7010.13  2.83
651.3  248541.43  6990.97  2.81
652.7  250115.55  7005.23  2.80
654.0  252197.70  7028.99  2.79
655.4  253667.95  7039.43  2.78
656.8  253831.40  7020.79  2.77
658.1  255057.20  7012.36  2.75
659.5  257467.88  7029.21  2.73
660.8  259155.00  7019.36  2.71
662.2  260086.40  7000.32  2.69
663.5  261790.85  7012.06  2.68
664.9  262990.00  7015.81  2.67
666.2  263780.40  7025.35  2.66
667.6  265578.20  7081.49  2.67
668.9  266628.43  7119.83  2.67
670.3  268052.50  7166.40  2.67
671.6  269460.38  7235.51  2.69
673.0  270655.13  7317.69  2.70
674.3  271918.40  7409.82  2.73
675.7  273266.43  7520.01  2.75
677.0  274387.45  7621.28  2.78
678.4  275753.00  7750.29  2.81
679.7  276854.25  7874.88  2.84
681.1  278167.08  8028.36  2.89
682.4  279299.80  8192.79  2.93
683.8  280559.50  8372.75  2.98
685.1  281540.63  8561.11  3.04
686.4  282828.00  8774.71  3.10
687.8  284110.25  9030.32  3.18
689.1  285200.50  9334.20  3.27
690.5  286527.00  9733.11  3.40
691.8  287410.30  10263.37  3.57
693.1  288742.20  10989.14  3.81
694.5  289903.25  11932.05  4.12
695.8  291131.75  13143.00  4.51
697.1  292383.00  14659.45  5.01
698.5  293442.90  16507.44  5.63
699.8  294548.25  18671.25  6.34
701.1  295727.35  21149.30  7.15
702.5  296555.05  23883.03  8.05
703.8  297517.50  26846.36  9.02
705.1  298701.00  30023.87  10.05
706.5  299780.25  33348.34  11.12
707.8  300786.30  36818.12  12.24
709.1  301677.73  40381.46  13.39
710.5  302838.63  44085.50  14.56
711.8  303681.40  47829.04  15.75
713.1  304707.20  51687.58  16.96
714.4  305643.80  55593.27  18.19
715.8  306491.20  59549.29  19.43
717.1  307826.55  63650.25  20.68
718.4  308784.00  67713.92  21.93
719.7  309930.25  71805.06  23.17
721.0  310432.50  75766.50  24.41
722.4  311257.65  79742.60  25.62
723.7  312230.25  83711.17  26.81
725.0  313309.58  87643.19  27.97
726.3  314254.60  91455.21  29.10
727.6  314779.58  95040.69  30.19
729.0  315700.18  98611.56  31.24
730.3  316478.63  101991.54  32.23
731.6  317409.65  105265.70  33.16
732.9  318215.80  108355.10  34.05
734.2  319045.38  111307.75  34.89
735.5  320081.15  114174.22  35.67
736.8  320898.00  116790.89  36.40
738.1  321765.70  119273.29  37.07
739.5  322760.43  121647.22  37.69
740.8  323461.60  123767.28  38.26
742.1  324180.88  125755.78  38.79
743.4  324900.00  127601.43  39.27
744.7  325814.85  129403.82  39.72
746.0  326685.45  131055.88  40.12
747.3  327256.03  132471.84  40.48
748.6  328003.50  133837.47  40.80
749.9  328718.00  135079.66  41.09
751.2  329359.25  136179.49  41.35
752.5  330196.05  137278.54  41.57
753.8  330787.45  138201.97  41.78
755.1  331474.00  139080.69  41.96
756.4  332090.38  139866.47  42.12
757.7  333108.13  140755.83  42.26
759.0  334971.93  141940.19  42.37
760.3  336177.60  142810.43  42.48
761.6  337766.80  143796.56  42.57
762.9  338280.50  144302.50  42.66
764.2  338671.00  144690.49  42.72
765.5  338920.53  145012.29  42.79
766.8  339347.20  145373.12  42.84
768.1  339897.00  145753.13  42.88
769.3  340482.10  146143.68  42.92
770.6  341129.75  146538.66  42.96
771.9  341875.45  146955.97  42.99
773.2  342248.40  147210.19  43.01
774.5  342856.80  147553.94  43.04
775.8  343516.95  147911.48  43.06
777.1  344086.60  148226.09  43.08
778.4  344419.63  148423.91  43.09
779.6  345196.43  148808.45  43.11
780.9  345660.00  149058.00  43.12
782.2  346090.25  149312.27  43.14
783.5  346419.00  149490.96  43.15
784.8  346935.38  149752.26  43.16
786.0  347322.50  149958.77  43.18
787.3  347704.33  150160.93  43.19
788.6  348101.85  150380.40  43.20
789.9  348532.80  150604.92  43.21
791.2  349204.00  150923.70  43.22
792.4  349864.75  151242.20  43.23
793.7  350332.60  151480.45  43.24
795.0  350934.38  151770.84  43.25
796.2  351593.43  152067.54  43.25
797.5  352285.13  152402.07  43.26
798.8  352989.73  152720.51  43.26
800.0  353610.60  153026.39  43.28
801.3  354104.90  153261.01  43.28
802.6  354647.25  153544.61  43.30
803.8  355318.65  153833.34  43.29
805.1  355782.00  154048.58  43.30
806.4  356235.00  154273.43  43.31
807.7  356817.15  154532.09  43.31
808.9  357366.25  154807.33  43.32
810.2  357848.40  155069.90  43.33
811.4  358333.60  155285.53  43.34
812.7  358962.50  155574.02  43.34
814.0  359815.60  155950.27  43.34
815.2  360469.50  156258.32  43.35
816.5  360859.40  156457.36  43.36
817.7  361354.05  156695.11  43.36
819.0  361851.60  156938.92  43.37
820.2  362032.00  157038.52  43.38
821.5  362736.60  157382.32  43.39
822.7  363105.50  157575.11  43.40
824.0  363390.30  157728.14  43.40
825.2  363890.48  157977.08  43.41
826.5  364253.88  158144.33  43.42
827.7  364797.90  158391.94  43.42
829.0  365242.60  158617.98  43.43
830.2  365583.85  158775.48  43.43
831.5  366044.85  159011.32  43.44
832.7  366354.45  159182.82  43.45
834.0  366678.53  159344.04  43.46
835.2  367044.70  159545.44  43.47
836.4  367421.45  159729.90  43.47
837.7  367855.40  159936.46  43.48
838.9  368286.53  160164.40  43.49
840.1  368644.50  160346.75  43.50
841.4  369110.30  160568.55  43.50
842.6  369457.60  160784.74  43.52
843.8  369883.20  160970.85  43.52
845.1  370403.35  161240.39  43.53
846.3  370817.00  161464.66  43.54
847.5  371246.40  161687.76  43.55
848.8  371727.00  161908.94  43.56
850.0  372078.35  162080.92  43.56
851.2  372641.85  162363.11  43.57
852.5  373068.60  162554.08  43.57
853.7  373621.50  162815.53  43.58
854.9  374126.00  163042.26  43.58
856.1  374652.20  163298.70  43.59
857.4  374868.78  163396.24  43.59
858.6  375309.55  163681.22  43.61
859.8  375804.38  163881.59  43.61
861.0  376272.00  164099.52  43.61
862.2  376768.58  164319.31  43.61
863.5  377224.90  164516.19  43.61
864.7  377883.00  164762.59  43.60
865.9  378230.20  164986.43  43.62
867.1  378609.90  165161.71  43.62
868.3  379040.40  165386.42  43.63
869.5  379611.70  165608.66  43.63
870.8  380128.50  165862.93  43.63
872.0  380748.30  166098.52  43.62
873.2  381215.70  166332.23  43.63
874.4  381686.18  166556.02  43.64
875.6  382122.25  166777.62  43.65
876.8  382603.60  167003.11  43.65
878.0  383183.45  167235.53  43.64
879.2  383743.95  167446.54  43.63
880.4  384256.88  167706.36  43.64
881.6  384816.25  167941.79  43.64
882.8  385200.00  168133.08  43.65
884.0  385864.78  168423.01  43.65
885.2  386406.20  168624.55  43.64
886.5  387030.60  168914.01  43.64
887.7  387557.63  169102.96  43.63
888.8  388283.85  169435.09  43.64
890.0  388844.70  169688.02  43.64
891.2  389510.90  169963.77  43.64
892.4  390077.63  170241.36  43.64
893.6  390699.25  170506.47  43.64
894.8  391586.50  170883.76  43.64
896.0  392533.75  171285.65  43.64
897.2  393529.50  171654.97  43.62
898.4  394161.90  171977.99  43.63
899.6  394828.88  172230.69  43.62
900.8  395238.33  172375.90  43.61
902.0  395394.15  172455.35  43.62
903.2  395682.15  172626.07  43.63
904.3  396139.80  172797.23  43.62
905.5  396801.25  173072.41  43.62
906.7  397363.50  173314.50  43.62
907.9  397958.40  173550.79  43.61
909.1  398319.53  173684.46  43.60
910.2  398381.70  173719.33  43.61
911.4  398750.63  173833.00  43.59
912.6  399048.65  173906.80  43.58
913.8  399249.00  174021.87  43.59
915.0  399715.05  174187.44  43.58
916.2  399896.25  174263.15  43.58
917.3  399942.68  174230.46  43.56
918.5  400187.60  174322.85  43.56
919.7  400306.65  174431.54  43.57
920.8  400405.25  174403.38  43.56
922.0  400611.75  174424.25  43.54
923.2  400900.50  174521.10  43.53
924.4  401010.75  174652.97  43.55
925.5  401398.30  174717.60  43.53
926.7  401782.25  174901.59  43.53
927.9  402855.60  175209.76  43.49
929.0  404221.05  175840.05  43.50
930.2  406620.90  176804.94  43.48
931.4  409263.98  177841.69  43.45
932.5  411883.05  178945.60  43.45
933.7  413129.73  179509.20  43.45
934.9  413752.50  179732.13  43.44
936.0  413430.88  179430.83  43.40
937.2  411308.70  178468.55  43.39
938.3  409517.50  177613.59  43.37
939.5  408110.40  176905.85  43.35
940.7  408262.50  176939.13  43.34
941.8  409792.80  177525.09  43.32
943.0  411199.50  178031.10  43.30
944.2  412058.40  178329.03  43.28
945.3  411625.50  178041.13  43.25
946.5  410953.50  177559.79  43.21
947.6  411149.20  177536.25  43.18
948.8  411138.98  177388.74  43.15
949.9  410986.80  177299.04  43.14
951.1  410675.20  176977.64  43.09
952.2  410448.00  176733.95  43.06
953.4  410147.75  176357.91  43.00
954.5  410248.80  176181.95  42.95
955.7  410193.00  175937.76  42.89
956.8  409869.90  175758.14  42.88
958.0  409553.50  175465.97  42.84
959.1  409465.15  175194.85  42.79
960.3  408895.55  174872.99  42.77
961.4  408820.65  174672.74  42.73
962.6  409013.50  174640.75  42.70
963.7  408466.13  174482.15  42.72
964.9  408417.68  174376.31  42.70
966.0  408393.90  174349.96  42.69
967.2  408375.90  174263.53  42.67
968.3  408110.40  174067.15  42.65
969.5  407899.93  173895.65  42.63
970.6  407968.43  173944.44  42.64
971.8  408116.28  174042.92  42.65
972.9  408078.08  173980.69  42.63
974.0  408352.70  174105.09  42.64
975.2  408326.63  174090.71  42.64
976.3  408001.45  174028.04  42.65
977.5  408050.83  173852.45  42.61
978.6  407701.90  173872.03  42.65
979.7  407311.28  173930.96  42.70
980.9  407185.28  173760.73  42.67
982.0  406517.65  173906.46  42.78
983.2  406696.30  173597.72  42.68
984.3  406218.60  173347.91  42.67
985.4  406159.65  173208.83  42.65
986.6  405936.63  173288.53  42.69
987.7  406336.18  173771.38  42.77
988.9  406056.60  173630.32  42.76
990.0  406784.30  173774.76  42.72
993.1  376382.24  159367.49  42.34
996.9  376018.80  159769.37  42.49
1000.7  376521.31  160420.41  42.61
1004.5  376825.33  160904.29  42.70
1008.4  376438.13  161119.08  42.80
1012.2  376202.21  161402.40  42.90
1016.0  375935.40  161687.70  43.01
1019.8  375629.10  161954.10  43.12
1023.7  375053.38  162029.89  43.20
1027.5  374119.63  161936.36  43.28
1031.3  373867.90  162023.81  43.34
1035.1  373371.89  161999.97  43.39
1038.9  373158.32  162055.73  43.43
1042.7  372953.75  162094.91  43.46
1046.5  372843.83  162113.11  43.48
1050.3  372806.60  162191.40  43.51
1054.2  372422.17  162133.63  43.53
1058.0  371963.61  161972.39  43.55
1061.8  371866.68  161987.14  43.56
1065.6  371452.27  161826.04  43.57
1069.4  371115.87  161732.97  43.58
1073.2  370313.95  161426.07  43.59
1077.0  369637.78  161157.04  43.60
1080.8  369327.08  160950.00  43.58
1084.6  368673.55  160573.53  43.55
1088.4  368384.90  160370.93  43.53
1092.2  367701.75  159987.06  43.51
1096.0  367126.41  159642.97  43.48
1099.8  366570.75  159285.24  43.45
1103.6  365813.62  158842.50  43.42
1107.4  364827.78  158264.14  43.38
1111.2  364559.70  158020.59  43.35
1114.9  363874.00  157585.13  43.31
1118.7  363426.53  157148.54  43.24
1122.5  362834.33  156600.05  43.16
1126.3  361860.22  155802.73  43.06
1130.1  361407.48  155092.52  42.91
1133.9  359776.90  153679.50  42.72
1137.7  358283.70  152178.88  42.47
1141.4  356387.09  150357.40  42.19
1145.2  355577.75  148878.72  41.87
1149.0  354372.08  147320.94  41.57
1152.8  352660.75  145648.14  41.30
1156.6  350949.32  144183.88  41.08
1160.3  349232.00  142918.36  40.92
1164.1  346875.93  141567.67  40.81
1167.9  345143.75  140623.44  40.74
1171.7  343838.25  139942.69  40.70
1175.4  342501.60  139294.43  40.67
1179.2  341278.83  138692.74  40.64
1183.0  340942.00  138434.79  40.60
1186.7  340609.03  138147.80  40.56
1190.5  339832.93  137710.42  40.52
1194.3  338774.27  137207.92  40.50
1198.0  337444.80  136666.32  40.50
1201.8  335847.75  136047.78  40.51
1205.6  334665.00  135636.72  40.53
1209.3  333882.75  135435.53  40.56
1213.1  333144.75  135242.71  40.60
1216.8  332382.05  135090.37  40.64
1220.6  331305.33  134829.20  40.70
1224.3  330109.75  134503.82  40.75
1228.1  328752.40  134159.32  40.81
1231.9  327401.23  133791.96  40.86
1235.6  325841.93  133309.24  40.91
1239.4  324410.25  132906.67  40.97
1243.1  323104.80  132494.88  41.01
1246.9  321828.78  132063.71  41.04
1250.6  320809.40  131710.09  41.06
1254.3  319688.42  131307.55  41.07
1258.1  318579.80  130890.58  41.09
1261.8  317177.20  130348.75  41.10
1265.6  315795.30  129780.81  41.10
1269.3  314635.75  129236.89  41.08
1273.1  314777.74  129192.67  41.04
1276.8  314830.80  129114.86  41.01
1280.6  314223.63  128806.84  40.99
1284.3  312534.80  128025.43  40.96
1288.0  311076.64  127255.78  40.91
1291.8  310102.14  126577.11  40.82
1295.5  309001.73  125819.26  40.72
1299.2  307842.16  124984.96  40.60
1302.9  306360.37  123969.19  40.47
1306.7  304731.82  122838.80  40.31
1310.4  303158.96  121637.79  40.12
1314.1  301685.63  120427.96  39.92
1317.9  300379.79  119172.50  39.67
1321.6  298911.23  117765.80  39.40
1325.3  297237.68  116187.42  39.09
1329.0  295900.62  114687.23  38.76
1332.8  293909.00  112817.10  38.39
1336.5  292188.73  111042.10  38.00
1340.2  291897.67  109807.75  37.62
1343.9  291619.79  108571.21  37.23
1347.6  291294.30  107336.67  36.85
1351.4  291989.00  106528.18  36.48
1355.1  292944.67  105840.51  36.13
1358.8  293712.00  105027.43  35.76
1362.5  293495.38  103742.98  35.35
1366.2  291749.75  101700.01  34.86
1369.9  289321.88  99199.48  34.29
1373.6  286937.06  96343.89  33.58
1377.3  285182.40  93158.10  32.67
1381.0  284307.00  89517.15  31.49
1384.8  282408.75  84730.98  30.00
1388.4  279692.35  79196.28  28.32
1392.2  277662.67  73453.74  26.45
1395.9  276110.75  67675.87  24.51
1399.6  274451.73  62107.60  22.63
1403.3  273186.47  57111.58  20.91
1407.0  271845.50  52745.28  19.40
1410.7  270440.78  49087.39  18.15
1414.3  268954.76  46136.78  17.15
1418.1  267573.58  43853.23  16.39
1421.7  266469.41  42129.32  15.81
1425.4  265357.30  40843.17  15.39
1429.1  264280.88  39908.01  15.10
1432.8  262696.68  39175.69  14.91
1436.5  261892.23  38764.42  14.80
1440.2  261115.27  38524.17  14.75
1443.9  259888.20  38335.24  14.75
1447.6  258288.80  38187.60  14.78
1451.2  257161.67  38150.36  14.84
1454.9  255838.05  38142.29  14.91
1458.6  254686.97  38270.31  15.03
1462.3  253522.13  38515.40  15.19
1466.0  252174.46  38872.42  15.41
1469.7  250482.81  39347.38  15.71
1473.3  249452.17  40043.65  16.05
1477.0  247504.10  40705.37  16.45
1480.7  245876.26  41479.89  16.87
1484.4  243930.36  42212.76  17.31
1488.0  242381.33  43047.72  17.76
1491.7  240806.28  43862.55  18.21
1495.4  239106.07  44667.05  18.68
1499.0  237539.00  45460.61  19.14
1502.7  236231.50  46296.04  19.60
1506.4  234830.54  47084.05  20.05
1510.0  233415.23  47844.08  20.50
1513.7  231939.46  48559.01  20.94
1517.4  230609.00  49262.65  21.36
1521.0  229379.47  49962.89  21.78
1524.7  228164.08  50600.42  22.18
1528.3  226904.00  51204.14  22.57
1532.0  225697.27  51778.93  22.94
1535.7  224336.61  52268.36  23.30
1539.3  223078.70  52753.95  23.65
1543.0  222102.13  53278.70  23.99
1546.6  221404.08  53832.54  24.31
1550.3  220430.45  54274.15  24.62
1553.9  219355.03  54669.86  24.92
1557.6  218112.40  54984.92  25.21
1561.2  216866.70  55239.01  25.47
1564.9  215552.52  55472.93  25.74
1568.5  214219.83  55662.25  25.98
1572.2  213096.35  55884.88  26.23
1575.8  212016.00  56097.00  26.46
1579.5  210990.90  56315.09  26.69
1583.1  209974.11  56513.53  26.91
1586.8  208712.00  56628.00  27.13
1590.4  207595.10  56753.81  27.34
1594.0  206247.49  56813.30  27.55
1597.7  205252.38  56948.23  27.75
1601.3  204105.83  57022.99  27.94
1604.9  202976.37  57071.26  28.12
1608.6  201695.60  57049.01  28.28
1612.2  200557.50  57044.68  28.44
1615.8  199311.45  56997.04  28.60
1619.5  198173.33  56955.95  28.74
1623.1  196874.13  56843.34  28.87
1626.7  195636.03  56724.53  28.99
1630.3  194443.67  56601.08  29.11
1634.0  193354.00  56490.00  29.22
1637.6  192361.67  56373.17  29.31
1641.2  191346.95  56198.00  29.37
1644.8  190152.12  55926.44  29.41
1648.5  189067.89  55649.00  29.43
1652.1  188108.10  55355.59  29.43
1655.7  187198.60  55027.03  29.39
1659.3  186351.98  54701.73  29.35
1662.9  184931.67  54205.71  29.31
1666.6  183485.60  53717.59  29.28
1670.2  182083.53  53248.95  29.24
1673.8  180660.40  52765.58  29.21
1677.4  179516.85  52365.36  29.17
1681.0  178710.28  52030.25  29.11
1684.6  178323.17  51783.41  29.04
1688.2  177653.25  51394.82  28.93
1691.8  176982.96  51019.10  28.83
1695.4  176548.60  50681.83  28.71
1699.0  176165.97  50346.35  28.58
1702.6  175827.00  50002.86  28.44
1706.2  175234.15  49560.55  28.28
1709.8  174282.03  49031.52  28.13
1713.4  173561.61  48554.97  27.98
1717.0  172693.00  48052.34  27.83
1720.6  171892.35  47567.06  27.67
1724.2  171174.83  47112.90  27.52
1727.8  170456.30  46681.88  27.39
1731.4  169989.88  46321.40  27.25
1735.0  169772.35  46057.59  27.13
1738.6  169548.30  45750.76  26.98
1742.2  168978.80  45328.64  26.83
1745.8  168343.23  44867.25  26.65
1749.4  167393.33  44314.35  26.47
1753.0  165896.00  43610.95  26.29
1756.6  164260.25  42877.00  26.10
1760.1  162930.55  42254.67  25.93
1763.7  161230.00  41551.15  25.77
1767.3  159807.93  40959.50  25.63
1770.9  158592.18  40439.62  25.50
1774.5  157146.44  39881.58  25.38
1778.0  156003.23  39432.14  25.28
1781.6  154923.90  39022.07  25.19
1785.2  153780.88  38619.62  25.11
1788.8  152630.80  38262.32  25.07
1792.3  151419.33  37911.42  25.04
1795.9  150919.82  37767.58  25.02
1799.5  150494.00  37663.79  25.03
1803.1  150527.18  37672.25  25.03
1806.6  151820.61  37955.69  25.00
1810.2  153321.47  38295.80  24.98
1813.8  154226.10  38515.88  24.97
1817.3  154033.00  38462.79  24.97
1820.9  153019.03  38214.47  24.97
1824.5  151709.23  37871.74  24.96
1828.0  150700.92  37582.19  24.94
1831.6  149987.40  37338.61  24.89
1835.2  149415.83  37072.14  24.81
1838.7  149068.40  36779.72  24.67
1842.3  148755.00  36424.29  24.49
1845.8  147839.83  35808.72  24.22
1849.4  147244.63  35147.05  23.87
1852.9  146527.44  34301.83  23.41
1856.5  145597.97  33199.18  22.80
1860.0  144717.27  31901.41  22.04
1863.6  144516.23  30518.44  21.12
1867.1  144591.65  28936.95  20.01
1870.7  144896.48  27016.43  18.65
1874.2  144131.40  24543.77  17.03
1877.8  142378.00  21791.99  15.31
1881.3  140320.75  18957.59  13.51
1884.9  138931.19  16338.19  11.76
1888.4  137627.92  13897.69  10.10
1891.9  136267.73  11810.52  8.67
1895.5  134943.15  10120.01  7.50
1899.0  134126.00  8896.37  6.63
1901.3  173382.50  7805.00  4.50
1904.1  173150.25  7014.38  4.05
1906.8  172132.80  6387.30  3.71
1909.6  169998.85  5889.45  3.46
1912.4  168016.33  5503.98  3.28
1915.1  166524.05  5240.13  3.15
1917.9  164885.83  5056.75  3.07
1920.6  163513.90  4902.07  3.00
1923.3  162137.97  4804.34  2.96
1926.1  160461.20  4724.48  2.94
1928.8  158884.00  4671.34  2.94
1931.6  157592.90  4663.13  2.96
1934.3  156397.23  4674.00  2.99
1937.0  155265.47  4697.60  3.03
1939.8  154012.00  4749.17  3.08
1942.5  152482.00  4807.00  3.15
1945.2  150584.50  4843.58  3.22
1947.9  149035.13  4911.32  3.30
1950.7  147838.03  4995.65  3.38
1953.4  146048.15  5080.60  3.48
1956.1  144649.42  5193.29  3.59
1958.8  143420.77  5310.50  3.70
1961.5  141965.20  5432.60  3.83
1964.2  140467.60  5555.55  3.96
1966.9  138890.35  5683.40  4.09
1969.6  137664.00  5836.50  4.24
1972.3  136285.70  5976.35  4.39
1975.0  135228.00  6155.18  4.55
1977.7  134127.95  6325.96  4.72
1980.4  132990.33  6504.87  4.89
1983.1  131900.60  6685.68  5.07
1985.8  130987.20  6881.70  5.25
1988.4  129965.33  7076.34  5.44
1991.1  129051.07  7282.22  5.64
1993.8  128181.53  7487.88  5.84
1996.5  127552.52  7703.30  6.04
1999.1  126880.42  7918.72  6.24
2001.8  126202.07  8132.60  6.44
2004.5  125528.80  8342.93  6.65
2007.1  124810.85  8541.88  6.84
2009.8  124069.63  8741.25  7.05
2012.4  123485.45  8948.41  7.25
2015.1  122938.67  9142.70  7.44
2017.8  122178.93  9328.32  7.63
2020.4  121684.57  9512.80  7.82
2023.1  121332.87  9699.55  7.99
2025.7  121090.67  9884.33  8.16
2028.3  120770.00  10053.34  8.32
2031.0  120377.05  10215.94  8.49
2033.6  120103.50  10374.75  8.64
2036.2  119868.60  10522.65  8.78
2038.9  119268.30  10631.40  8.91
2041.5  118921.48  10756.37  9.04
2044.1  118372.20  10848.90  9.17
2046.8  117998.10  10957.65  9.29
2049.4  117371.70  11035.95  9.40
2052.0  117096.53  11135.00  9.51
2054.6  116707.50  11221.88  9.62
2057.2  116135.87  11300.93  9.73
2059.8  115804.00  11410.10  9.85
2062.4  114920.53  11462.42  9.97
2065.0  114406.67  11549.83  10.10
2067.6  113517.15  11606.24  10.22
2070.2  112915.70  11675.98  10.34
2072.8  112296.82  11741.35  10.46
2075.4  111860.00  11816.88  10.56
2078.0  111232.13  11883.85  10.68
2080.6  110660.00  11954.80  10.80
2083.2  109977.83  12001.57  10.91
2085.8  109501.82  12068.30  11.02
2088.4  108853.17  12114.92  11.13
2090.9  108083.52  12131.74  11.22
2093.5  107198.80  12146.22  11.33
2096.1  106427.65  12169.31  11.43
2098.7  105663.50  12191.27  11.54
2101.2  104703.93  12178.64  11.63
2103.8  104040.20  12217.94  11.74
2106.4  103367.73  12244.14  11.85
2108.9  102730.20  12261.60  11.94
2111.5  101883.07  12252.87  12.03
2114.0  101263.00  12283.43  12.13
2116.6  100747.50  12306.88  12.22
2119.1  100176.70  12321.55  12.30
2121.7  99688.75  12341.88  12.38
2124.2  99300.03  12374.15  12.46
2126.8  98513.87  12353.76  12.54
2129.3  98111.20  12372.80  12.61
2131.9  97521.60  12364.00  12.68
2134.4  97084.50  12376.73  12.75
2136.9  96695.08  12387.81  12.81
2139.4  96176.73  12382.30  12.87
2142.0  95724.53  12382.30  12.94
2144.5  95461.40  12415.50  13.01
2147.0  95229.33  12448.60  13.07
2149.5  94729.07  12448.60  13.14
2152.1  94567.55  12495.82  13.21
2154.6  94510.93  12552.80  13.28
2157.1  93976.17  12539.54  13.34
2159.6  93576.50  12539.54  13.40
2162.1  93411.50  12567.10  13.45
2164.6  93160.00  12576.60  13.50
2167.1  92843.50  12585.76  13.56
2169.6  92526.12  12603.79  13.62
2172.1  92056.33  12594.27  13.68
2174.6  91749.27  12598.04  13.73
2177.1  91329.43  12602.13  13.80
2179.5  90912.03  12596.14  13.86
2182.0  90423.85  12580.43  13.91
2184.5  89882.95  12573.67  13.99
2187.0  89267.63  12546.34  14.05
2189.5  88602.78  12494.30  14.10
2191.9  87837.00  12449.75  14.17
2194.4  87191.50  12419.78  14.24
2196.9  86438.40  12369.60  14.31
2199.3  85772.33  12325.00  14.37
2201.8  84894.13  12254.27  14.43
2204.3  84442.97  12231.57  14.49
2206.7  83823.50  12179.53  14.53
2209.2  83346.15  12141.68  14.57
2211.6  82724.40  12082.95  14.61
2214.1  82425.80  12064.38  14.64
2216.5  81850.67  11999.47  14.66
2219.0  81532.80  11959.73  14.67
2221.4  81148.08  11900.00  14.66
2223.9  80672.08  11820.67  14.65
2226.3  80156.42  11721.50  14.62
2228.7  79590.48  11612.92  14.59
2231.1  79002.00  11469.15  14.52
2233.6  78403.80  11324.00  14.44
2236.0  77845.83  11171.13  14.35
2238.4  77359.92  11007.50  14.23
2240.9  76913.80  10862.10  14.12
2243.3  76387.33  10688.27  13.99
2245.7  75828.95  10497.25  13.84
2248.1  75318.10  10315.50  13.70
2250.5  74805.12  10123.10  13.53
2252.9  74181.90  9921.82  13.37
2255.3  73620.05  9736.08  13.22
2257.7  73160.00  9555.00  13.06
2260.1  72671.43  9386.19  12.92
2262.5  72070.00  9205.00  12.77
2264.9  71540.57  9034.92  12.63
2267.3  70930.00  8855.00  12.48
2269.7  70413.93  8693.88  12.35
2272.1  69876.27  8549.23  12.23
2274.5  69304.30  8410.96  12.14
2276.8  68844.55  8263.75  12.00
2279.2  68269.65  8120.40  11.89
2281.6  67829.20  8013.07  11.81
2284.0  67346.80  7888.10  11.71
2286.3  66880.00  7772.27  11.62
2288.7  66476.80  7662.96  11.53
2291.1  65943.60  7526.62  11.41
2293.4  65480.80  7402.27  11.30
2295.8  64869.40  7261.50  11.19
2298.2  64263.15  7125.98  11.09
2300.5  63600.75  6975.90  10.97
2302.9  62857.67  6814.84  10.84
2305.2  62139.90  6669.25  10.73
2307.6  61466.70  6535.61  10.63
2309.9  60698.00  6401.50  10.55
2312.2  60098.67  6293.00  10.47
2314.6  59502.15  6210.00  10.44
2316.9  58788.00  6106.50  10.39
2319.2  58208.83  6002.30  10.31
2321.6  57575.58  5887.35  10.23
2323.9  57031.25  5786.46  10.15
2326.2  56486.07  5686.17  10.07
2328.6  55959.75  5595.98  10.00
2330.9  55461.00  5491.50  9.90
2333.2  54991.00  5397.50  9.82
2335.5  54559.30  5291.15  9.70
2337.8  54089.20  5197.57  9.61
2340.1  53528.47  5095.13  9.52
2342.4  53072.50  5005.00  9.43
2344.8  52640.17  4917.96  9.34
2347.1  52069.73  4803.40  9.22
2349.4  51535.97  4709.63  9.14
2351.6  50963.10  4615.98  9.06
2353.9  50466.47  4545.73  9.01
2356.2  49947.18  4468.90  8.95
2358.5  49347.20  4373.60  8.86
2360.8  48776.00  4289.60  8.79
2363.1  48343.83  4211.86  8.71
2365.4  47866.80  4135.80  8.64
2367.7  47389.80  4047.00  8.54
2369.9  46830.50  3967.43  8.47
2372.2  46210.67  3892.94  8.42
2374.5  45645.60  3794.18  8.31
2376.7  45037.82  3699.91  8.22
2379.0  44392.80  3612.15  8.14
2381.3  43761.67  3505.84  8.01
2383.5  43249.07  3414.40  7.89
2385.8  42654.17  3329.97  7.81
2388.0  42137.80  3256.80  7.73
2390.3  41616.40  3192.13  7.67
2392.5  41124.00  3102.00  7.54
2394.8  40668.10  3025.00  7.44
2397.0  40173.47  2954.47  7.35
2399.3  39717.67  2887.45  7.27
2401.5  39261.25  2805.25  7.15
2403.8  38735.92  2721.99  7.03
2406.0  38230.92  2657.17  6.95
2408.2  37823.87  2593.07  6.86
2410.4  37400.07  2515.40  6.73
2412.7  36996.27  2456.78  6.64
2414.9  36609.10  2397.18  6.55
2417.1  36195.00  2330.45  6.44
2419.3  35814.40  2259.20  6.31
2421.6  35430.42  2189.38  6.18
2423.8  35048.90  2139.50  6.10
2426.0  34665.50  2096.81  6.05
2428.2  34300.00  2025.34  5.90
2430.4  33969.97  1965.15  5.78
2432.6  33706.67  1933.34  5.74
2434.8  33416.67  1884.70  5.64
2437.0  33046.00  1813.50  5.49
2439.2  32696.82  1763.93  5.39
2441.4  32365.53  1731.43  5.35
2443.6  32137.57  1685.64  5.25
2445.7  31862.25  1631.30  5.12
2447.9  31590.83  1607.38  5.09
2450.1  31289.35  1566.58  5.01
2452.3  30929.62  1524.60  4.93
2454.5  30565.08  1475.07  4.83
2456.6  30174.00  1419.54  4.70
2458.8  29801.20  1379.95  4.63
2461.0  29496.50  1333.55  4.52
2463.1  29216.40  1309.50  4.48
2465.3  28915.47  1280.42  4.43
2467.5  28674.00  1253.75  4.37
2469.6  28431.17  1215.71  4.28
2471.8  28141.23  1178.81  4.19
2473.9  27813.67  1153.88  4.15
2476.1  27451.67  1107.17  4.03
2478.2  27100.10  1081.57  3.99
2480.4  26801.10  1066.83  3.98
2482.5  26445.53  1045.13  3.95
2484.6  26102.08  1028.50  3.94
2486.8  25842.20  1020.50  3.95
2488.9  25537.43  978.57  3.83
2491.1  25180.40  952.00  3.78
2493.2  24796.23  934.05  3.77
2495.3  24386.70  905.88  3.71
2497.4  24037.30  877.45  3.65
2499.5  23724.77  857.72  3.62
2501.7  23614.70  854.54  3.62
2503.8  23520.35  852.55  3.62
2505.9  23455.42  845.63  3.61
2508.0  23454.82  849.56  3.62
2510.1  23462.93  840.52  3.58
2512.2  23543.05  834.93  3.55
2514.3  23710.18  854.25  3.60
2516.4  23955.20  896.35  3.74
