/*** Spectra Vista SIG Data ***/
name= 46_20220825_QUPH_16_avg.sig
comm= Averaged Ref/Tar of files: HR.082522.0056_moc.sig,HR.082522.0057_moc.sig,HR.082522.0058_moc.sig
data=
337.3  3275.25  309.09  9.44
338.8  3463.20  295.01  8.52
340.3  3560.60  282.88  7.94
341.8  3795.18  284.80  7.50
343.2  3996.00  269.15  6.74
344.7  4137.05  273.77  6.62
346.2  4330.10  267.66  6.18
347.7  4522.38  273.21  6.04
349.2  4725.00  270.36  5.72
350.6  4994.60  256.55  5.14
352.1  5287.30  255.52  4.83
353.6  5552.00  259.42  4.67
355.1  5825.78  265.07  4.55
356.6  6128.93  269.69  4.40
358.0  6380.00  281.18  4.41
359.5  6705.30  283.54  4.23
361.0  7002.45  285.29  4.07
362.5  7406.58  288.99  3.90
364.0  7742.25  290.57  3.75
365.4  8120.90  298.53  3.68
366.9  8508.50  307.03  3.61
368.4  8864.38  321.71  3.63
369.9  9242.55  336.65  3.64
371.3  9665.40  358.80  3.71
372.8  10089.00  372.71  3.69
374.3  10535.00  374.71  3.56
375.8  10968.65  378.33  3.45
377.2  11405.60  388.26  3.40
378.7  11836.00  390.82  3.30
380.2  12266.40  387.87  3.16
381.7  12755.80  400.36  3.14
383.1  13259.40  413.49  3.12
384.6  13784.23  418.37  3.04
386.1  14296.23  430.73  3.01
387.6  14768.60  438.26  2.97
389.0  15276.00  442.84  2.90
390.5  15770.70  453.37  2.87
392.0  16372.55  465.65  2.84
393.4  16947.38  479.83  2.83
394.9  17513.10  497.27  2.84
396.4  18086.63  503.21  2.78
397.9  18655.00  510.91  2.74
399.3  19247.00  526.52  2.74
400.8  19815.38  545.98  2.76
402.2  20474.70  558.57  2.73
403.7  21089.70  578.60  2.74
405.2  21733.65  591.65  2.72
406.6  22341.60  607.84  2.72
408.1  22961.60  617.30  2.69
409.6  23596.25  631.11  2.67
411.0  24274.95  650.16  2.68
412.5  24969.18  666.30  2.67
414.0  25631.75  696.05  2.72
415.4  26374.13  714.93  2.71
416.9  27062.10  731.26  2.70
418.4  27807.08  750.11  2.70
419.8  28537.60  768.04  2.69
421.3  29268.65  794.23  2.71
422.7  30067.20  823.85  2.74
424.2  30864.38  848.73  2.75
425.7  31687.20  873.29  2.76
427.1  32472.90  895.02  2.76
428.6  33294.00  919.89  2.76
430.0  34052.70  940.92  2.76
431.5  34954.35  970.98  2.78
432.9  35848.55  999.62  2.79
434.4  36772.28  1030.10  2.80
435.9  37632.00  1051.67  2.79
437.3  38513.75  1075.71  2.79
438.8  39381.08  1107.01  2.81
440.2  40276.78  1135.49  2.82
441.7  41285.40  1167.84  2.83
443.1  42201.25  1200.83  2.85
444.6  43203.80  1231.46  2.85
446.0  44166.90  1265.74  2.87
447.5  45159.95  1303.27  2.89
448.9  46143.30  1342.64  2.91
450.4  47189.80  1384.05  2.93
451.8  48087.00  1423.50  2.96
453.3  49031.25  1460.85  2.98
454.7  50078.18  1500.63  3.00
456.2  50969.15  1534.54  3.01
457.6  51958.35  1573.47  3.03
459.1  52993.53  1609.09  3.04
460.5  53968.13  1645.89  3.05
462.0  55060.28  1685.28  3.06
463.4  56128.90  1726.46  3.08
464.8  57137.25  1761.33  3.08
466.3  58133.63  1798.74  3.09
467.7  59143.15  1835.71  3.10
469.2  60255.08  1875.33  3.11
470.6  61272.05  1909.40  3.12
472.0  62352.25  1951.60  3.13
473.5  63407.13  1991.56  3.14
474.9  64438.50  2034.49  3.16
476.4  65620.80  2081.42  3.17
477.8  66729.00  2124.39  3.18
479.2  67773.00  2161.88  3.19
480.7  68915.48  2205.71  3.20
482.1  70082.50  2253.17  3.22
483.6  71325.20  2306.70  3.23
485.0  72432.90  2354.94  3.25
486.4  73652.10  2416.55  3.28
487.9  74777.63  2478.45  3.31
489.3  75981.00  2543.29  3.35
490.7  77085.38  2604.22  3.38
492.2  78336.30  2684.78  3.43
493.6  79476.25  2760.41  3.47
495.0  80613.00  2851.88  3.54
496.5  81827.80  2954.85  3.61
497.9  82972.45  3070.22  3.70
499.3  84190.48  3191.95  3.79
500.7  85482.75  3342.15  3.91
502.2  86680.20  3505.18  4.04
503.6  87965.00  3696.44  4.20
505.0  89072.00  3901.99  4.38
506.5  90408.23  4140.66  4.58
507.9  91633.33  4415.38  4.82
509.3  93018.00  4729.45  5.08
510.7  94287.38  5070.56  5.38
512.2  95708.70  5457.21  5.70
513.6  97235.60  5894.02  6.06
515.0  98707.28  6366.84  6.45
516.4  100132.20  6885.47  6.88
517.8  101798.88  7454.17  7.32
519.3  103169.75  8042.59  7.80
520.7  104770.85  8676.55  8.28
522.1  106098.20  9316.87  8.78
523.5  107474.80  9974.31  9.28
524.9  108935.55  10635.42  9.76
526.3  110351.50  11282.79  10.22
527.8  111924.45  11930.14  10.66
529.2  113135.70  12545.16  11.09
530.6  114704.10  13189.82  11.50
532.0  116466.00  13838.40  11.88
533.4  117817.43  14400.81  12.22
534.8  118747.28  14869.75  12.52
536.3  120460.20  15412.00  12.79
537.7  122497.20  15978.66  13.04
539.1  124001.83  16465.15  13.28
540.5  125235.65  16893.70  13.49
541.9  127075.80  17404.74  13.70
543.3  128378.33  17842.53  13.90
544.7  129766.20  18289.78  14.09
546.1  131613.08  18800.90  14.28
547.5  132865.60  19223.41  14.47
549.0  134651.00  19704.72  14.63
550.4  136159.38  20125.57  14.78
551.8  137761.73  20517.94  14.89
553.2  139327.98  20852.43  14.97
554.6  140701.60  21100.61  15.00
556.0  142281.45  21313.07  14.98
557.4  143940.83  21476.44  14.92
558.8  145624.50  21603.31  14.83
560.2  147127.88  21662.16  14.72
561.6  148837.73  21713.04  14.59
563.0  150483.85  21720.91  14.43
564.4  152120.45  21699.14  14.26
565.8  153680.00  21631.69  14.08
567.2  155498.75  21546.07  13.86
568.6  157035.00  21375.95  13.61
570.0  158500.95  21136.75  13.34
571.4  160258.15  20888.81  13.03
572.8  162080.13  20633.01  12.73
574.2  163744.00  20359.09  12.43
575.6  165352.50  20090.57  12.15
577.0  166912.30  19842.53  11.89
578.4  168679.88  19650.48  11.65
579.8  170243.10  19464.77  11.43
581.2  172004.50  19325.29  11.24
582.5  173452.50  19179.53  11.06
583.9  175017.60  19073.74  10.90
585.3  176871.60  19017.99  10.75
586.7  178390.88  18955.12  10.63
588.1  179922.88  18926.38  10.52
589.5  181606.25  18936.93  10.43
590.9  183272.00  18981.92  10.36
592.3  185112.50  19071.04  10.30
593.7  186588.68  19155.73  10.27
595.0  188258.18  19270.11  10.24
596.4  189756.35  19379.00  10.21
597.8  191261.10  19485.55  10.19
599.2  192838.80  19576.54  10.15
600.6  194624.95  19648.60  10.10
602.0  195951.30  19627.54  10.02
603.3  197775.80  19603.04  9.91
604.7  199490.90  19508.10  9.78
606.1  201010.80  19340.44  9.62
607.5  202692.30  19142.76  9.44
608.9  204427.50  18906.28  9.25
610.2  205821.00  18610.83  9.04
611.6  207454.65  18324.61  8.83
613.0  209033.70  18034.56  8.63
614.4  210451.20  17739.36  8.43
615.8  211930.88  17477.92  8.25
617.1  213488.10  17257.31  8.08
618.5  215162.40  17086.46  7.94
619.9  216711.00  16941.01  7.82
621.3  218376.45  16847.39  7.71
622.6  220027.00  16797.08  7.63
624.0  221522.10  16773.77  7.57
625.4  223039.58  16786.95  7.53
626.8  224685.83  16840.99  7.50
628.1  226014.25  16897.33  7.48
629.5  227879.75  17023.43  7.47
630.9  229482.00  17148.20  7.47
632.2  230843.03  17256.95  7.48
633.6  232437.63  17370.87  7.47
635.0  233954.40  17453.09  7.46
636.3  235504.90  17486.92  7.43
637.7  236908.13  17454.26  7.37
639.1  238612.50  17394.75  7.29
640.4  240132.55  17270.16  7.19
641.8  241386.15  17073.47  7.07
643.2  242995.03  16861.53  6.94
644.5  244404.00  16598.29  6.79
645.9  246123.00  16326.58  6.63
647.2  247765.18  16028.00  6.47
648.6  249561.00  15745.34  6.31
650.0  251078.40  15435.87  6.15
651.3  251668.45  15076.67  5.99
652.7  253042.90  14762.43  5.83
654.0  255128.90  14462.77  5.67
655.4  256651.48  14083.19  5.49
656.8  256918.60  13589.08  5.29
658.1  258099.00  13106.87  5.08
659.5  260515.50  12677.48  4.87
660.8  262260.00  12215.04  4.66
662.2  263155.20  11737.39  4.46
663.5  264847.55  11317.70  4.27
664.9  266150.30  10964.13  4.12
666.2  266955.00  10656.74  3.99
667.6  268726.03  10451.93  3.89
668.9  269849.50  10299.40  3.82
670.3  271073.13  10206.94  3.77
671.6  272646.38  10196.78  3.74
673.0  273885.38  10220.17  3.73
674.3  275145.00  10291.02  3.74
675.7  276511.45  10407.52  3.76
677.0  277647.15  10552.28  3.80
678.4  279034.73  10746.84  3.85
679.7  280135.98  10983.55  3.92
681.1  281478.33  11299.14  4.01
682.4  282659.00  11701.63  4.14
683.8  283940.80  12216.77  4.30
685.1  284970.00  12884.34  4.52
686.4  286291.20  13788.21  4.82
687.8  287559.00  14981.88  5.21
689.1  288649.25  16531.96  5.73
690.5  290058.30  18532.52  6.39
691.8  290916.40  21010.91  7.22
693.1  292298.25  24068.86  8.23
694.5  293452.25  27647.21  9.42
695.8  294680.75  31677.43  10.75
697.1  295886.50  36087.03  12.20
698.5  296984.10  40799.90  13.74
699.8  298108.23  45743.90  15.34
701.1  299287.33  50852.03  16.99
702.5  300117.95  55967.81  18.65
703.8  301117.50  61100.46  20.29
705.1  302311.43  66214.83  21.90
706.5  303382.63  71237.84  23.48
707.8  304407.00  76143.90  25.01
709.1  305316.70  80910.05  26.50
710.5  306499.93  85649.33  27.94
711.8  307383.20  90207.32  29.35
713.1  308431.30  94716.06  30.71
714.4  309345.60  99106.08  32.04
715.8  310215.30  103367.93  33.32
717.1  311581.35  107702.73  34.57
718.4  312569.60  111794.88  35.77
719.7  313728.53  115824.06  36.92
721.0  314280.00  119525.68  38.03
722.4  315068.60  123188.93  39.10
723.7  316058.10  126789.31  40.12
725.0  317150.10  130292.16  41.08
726.3  318134.85  133605.92  42.00
727.6  318705.48  136598.39  42.86
729.0  319666.20  139594.26  43.67
730.3  320461.95  142377.39  44.43
731.6  321414.60  145063.96  45.13
732.9  322242.38  147573.81  45.80
734.2  323089.25  149949.07  46.41
735.5  324150.98  152290.54  46.98
736.8  324998.10  154381.80  47.50
738.1  325900.40  156373.38  47.98
739.5  326894.35  158302.74  48.43
740.8  327622.35  159973.84  48.83
742.1  328343.08  161553.41  49.20
743.4  329050.00  163033.69  49.55
744.7  330019.08  164543.68  49.86
746.0  330944.25  165941.22  50.14
747.3  331569.75  167083.86  50.39
748.6  332381.00  168241.55  50.62
749.9  333112.00  169295.41  50.82
751.2  333778.60  170235.88  51.00
752.5  334641.55  171221.11  51.17
753.8  335220.20  172023.48  51.32
755.1  335920.00  172830.67  51.45
756.4  336558.08  173540.46  51.56
757.7  337619.10  174434.80  51.67
759.0  339482.63  175709.00  51.76
760.3  340718.40  176625.18  51.84
761.6  342368.60  177711.43  51.91
762.9  342908.25  178222.64  51.97
764.2  343297.80  178629.58  52.03
765.5  343622.88  178956.72  52.08
766.8  344080.00  179348.90  52.12
768.1  344637.20  179772.70  52.16
769.3  345293.20  180224.15  52.19
770.6  345937.15  180705.14  52.24
771.9  346693.38  181195.04  52.26
773.2  347104.80  181496.56  52.29
774.5  347747.40  181922.15  52.31
775.8  348479.15  182371.57  52.33
777.1  349071.25  182773.28  52.36
778.4  349421.88  183042.00  52.38
779.6  350190.23  183522.43  52.41
780.9  350700.00  183851.14  52.42
782.2  351202.50  184176.26  52.44
783.5  351512.50  184412.44  52.46
784.8  352113.98  184767.84  52.47
786.0  352493.40  185057.55  52.50
787.3  352929.18  185335.29  52.51
788.6  353352.98  185635.23  52.54
789.9  353845.80  185944.88  52.55
791.2  354513.73  186347.31  52.56
792.4  355239.68  186771.97  52.58
793.7  355743.40  187099.17  52.59
795.0  356414.03  187507.44  52.61
796.2  357069.43  187917.58  52.63
797.5  357841.13  188343.27  52.63
798.8  358520.05  188765.74  52.65
800.0  359211.58  189170.43  52.66
801.3  359700.40  189470.33  52.67
802.6  360368.55  189839.75  52.68
803.8  361006.43  190238.28  52.70
805.1  361501.00  190558.08  52.71
806.4  362026.20  190855.60  52.72
807.7  362549.93  191194.55  52.74
808.9  363169.80  191531.43  52.74
810.2  363741.35  191865.90  52.75
811.4  364268.40  192177.53  52.76
812.7  364934.38  192564.05  52.77
814.0  365782.35  193057.97  52.78
815.2  366439.75  193438.49  52.79
816.5  366862.45  193699.42  52.80
817.7  367353.05  193987.26  52.81
819.0  367978.05  194312.54  52.81
820.2  368104.00  194435.79  52.82
821.5  368809.00  194845.16  52.83
822.7  369172.35  195079.41  52.84
824.0  369540.90  195279.36  52.84
825.2  370084.95  195583.73  52.85
826.5  370446.90  195777.26  52.85
827.7  370993.13  196100.25  52.86
829.0  371430.68  196336.23  52.86
830.2  371814.55  196539.26  52.86
831.5  372263.45  196809.62  52.87
832.7  372618.23  197012.09  52.87
834.0  372988.98  197210.92  52.87
835.2  373400.23  197429.22  52.87
836.4  373716.75  197634.06  52.88
837.7  374196.80  197880.07  52.88
838.9  374675.23  198161.16  52.89
840.1  375031.35  198394.93  52.90
841.4  375483.10  198675.56  52.91
842.6  375873.40  198918.98  52.92
843.8  376270.60  199136.47  52.92
845.1  376813.15  199448.22  52.93
846.3  377247.70  199711.16  52.94
847.5  377701.80  199952.39  52.94
848.8  378154.20  200213.17  52.94
850.0  378531.30  200428.39  52.95
851.2  379050.30  200774.84  52.97
852.5  379498.60  201029.97  52.97
853.7  379950.75  201348.45  52.99
854.9  380471.60  201622.31  52.99
856.1  381012.45  201896.02  52.99
857.4  381312.15  202033.56  52.98
858.6  381762.65  202319.40  53.00
859.8  382186.88  202568.72  53.00
861.0  382660.20  202860.28  53.01
862.2  383236.40  203120.17  53.00
863.5  383689.15  203339.65  53.00
864.7  384271.80  203656.14  53.00
865.9  384616.00  203908.00  53.02
867.1  384986.80  204089.05  53.01
868.3  385402.65  204342.28  53.02
869.5  386041.95  204629.65  53.01
870.8  386631.00  204957.71  53.01
872.0  387166.28  205280.20  53.02
873.2  387624.00  205525.94  53.02
874.4  388083.15  205797.94  53.03
875.6  388504.25  206039.07  53.03
876.8  389055.60  206313.45  53.03
878.0  389633.80  206610.27  53.03
879.2  390190.65  206914.28  53.03
880.4  390779.63  207214.39  53.03
881.6  391328.53  207486.64  53.02
882.8  391791.20  207734.08  53.02
884.0  392444.48  208050.86  53.01
885.2  392983.70  208348.47  53.02
886.5  393694.35  208683.69  53.01
887.7  394219.48  208967.74  53.01
888.8  394946.93  209341.39  53.00
890.0  395501.10  209636.54  53.01
891.2  396257.30  209968.31  52.99
892.4  396824.40  210283.09  52.99
893.6  397443.75  210616.05  52.99
894.8  398429.00  211119.99  52.99
896.0  399382.00  211607.62  52.98
897.2  400279.75  212064.84  52.98
898.4  401118.30  212457.61  52.97
899.6  401684.63  212779.53  52.97
900.8  402090.95  212947.96  52.96
902.0  402345.90  213122.83  52.97
903.2  402736.28  213301.24  52.96
904.3  403186.20  213484.95  52.95
905.5  403843.08  213842.07  52.95
906.7  404514.00  214106.40  52.93
907.9  405097.70  214403.27  52.93
909.1  405442.80  214554.60  52.92
910.2  405724.05  214639.67  52.90
911.4  405826.20  214795.38  52.93
912.6  406220.10  214894.03  52.90
913.8  406519.28  215056.38  52.90
915.0  406962.15  215245.42  52.89
916.2  407247.75  215333.76  52.88
917.3  407265.75  215291.07  52.86
918.5  407473.20  215412.77  52.87
919.7  407805.00  215542.17  52.85
920.8  407854.65  215587.28  52.86
922.0  408023.00  215591.66  52.84
923.2  408408.00  215680.40  52.81
924.4  408759.75  215735.19  52.78
925.5  408974.50  215838.86  52.78
926.7  409755.25  216138.13  52.75
927.9  410374.80  216534.37  52.77
929.0  412020.00  217218.63  52.72
930.2  414426.10  218331.17  52.68
931.4  416925.23  219561.94  52.66
932.5  419867.10  220939.02  52.62
933.7  421255.30  221654.46  52.62
934.9  421846.25  221906.73  52.60
936.0  421473.00  221570.31  52.57
937.2  419415.75  220333.70  52.53
938.3  417707.85  219227.57  52.48
939.5  416232.00  218284.11  52.44
940.7  416513.70  218317.91  52.42
941.8  418037.78  219028.14  52.39
943.0  419624.25  219698.19  52.36
944.2  420460.30  219950.61  52.31
945.3  420147.00  219548.60  52.26
946.5  419210.10  218924.11  52.22
947.6  419540.00  218762.87  52.14
948.8  419676.08  218493.40  52.06
949.9  419672.40  218379.86  52.04
951.1  419498.30  217906.70  51.94
952.2  419424.00  217457.20  51.85
953.4  419059.50  216968.05  51.77
954.5  418883.40  216665.28  51.72
955.7  418975.20  216312.42  51.63
956.8  418803.80  215884.94  51.55
958.0  418413.50  215436.17  51.49
959.1  418268.43  215069.70  51.42
960.3  418094.55  214633.48  51.34
961.4  417733.55  214421.14  51.33
962.6  418124.00  214407.28  51.28
963.7  417788.48  214109.15  51.25
964.9  417956.63  213941.44  51.19
966.0  417909.38  213831.22  51.17
967.2  418149.45  213716.22  51.11
968.3  417879.00  213527.90  51.10
969.5  417685.05  213375.63  51.09
970.6  417496.35  213517.64  51.14
971.8  417997.30  213539.93  51.09
972.9  418069.28  213509.86  51.07
974.0  418455.60  213664.70  51.06
975.2  418560.38  213640.09  51.04
976.3  418398.68  213581.88  51.05
977.5  418639.73  213722.90  51.05
978.6  418504.60  213786.77  51.08
979.7  418778.85  213988.59  51.10
980.9  418909.33  214004.71  51.09
982.0  418996.35  214000.56  51.07
983.2  418447.58  213858.61  51.11
984.3  418182.20  213736.71  51.11
985.4  418309.73  213750.40  51.10
986.6  418219.13  213943.61  51.16
987.7  419380.68  214603.77  51.17
988.9  419155.20  214544.56  51.18
990.0  419882.90  214893.28  51.18
993.1  371739.43  186990.14  50.30
996.9  372483.23  188054.52  50.49
1000.7  373620.63  189236.06  50.65
1004.5  374291.67  190111.83  50.79
1008.4  374203.92  190621.93  50.94
1012.2  374351.33  191242.02  51.09
1016.0  374533.80  191885.71  51.23
1019.8  374861.03  192564.17  51.37
1023.7  374977.49  193085.14  51.49
1027.5  374837.30  193381.55  51.59
1031.3  375172.25  193872.50  51.68
1035.1  375088.47  194096.92  51.75
1038.9  375127.32  194334.57  51.80
1042.7  374963.58  194478.90  51.87
1046.5  374806.00  194597.10  51.92
1050.3  374886.15  194801.52  51.96
1054.2  374617.25  194817.20  52.00
1058.0  374121.42  194662.00  52.03
1061.8  373996.08  194693.05  52.06
1065.6  373734.80  194603.13  52.07
1069.4  373773.87  194673.89  52.08
1073.2  373487.39  194522.89  52.08
1077.0  373060.63  194263.66  52.07
1080.8  372559.38  193932.70  52.05
1084.6  371393.05  193249.49  52.03
1088.4  370686.56  192809.79  52.01
1092.2  369837.00  192217.07  51.97
1096.0  369264.39  191751.24  51.93
1099.8  368813.03  191303.21  51.87
1103.6  368139.00  190731.24  51.81
1107.4  367214.99  190019.45  51.75
1111.2  367025.00  189642.55  51.67
1114.9  366396.33  188985.26  51.58
1118.7  365822.33  188279.89  51.47
1122.5  365118.00  187392.87  51.32
1126.3  364046.20  186134.41  51.13
1130.1  363492.43  184921.38  50.87
1133.9  361874.80  182811.25  50.52
1137.7  360416.80  180488.65  50.08
1141.4  358658.84  177711.35  49.55
1145.2  357933.23  175292.59  48.97
1149.0  356826.46  172726.30  48.41
1152.8  355164.85  170140.07  47.90
1156.6  353485.18  167926.08  47.51
1160.3  351689.67  166093.92  47.23
1164.1  349202.33  164253.92  47.04
1167.9  347395.83  162973.71  46.91
1171.7  346106.25  162118.88  46.84
1175.4  344938.67  161372.72  46.78
1179.2  343925.85  160683.97  46.72
1183.0  343640.00  160316.12  46.65
1186.7  343083.53  159852.32  46.59
1190.5  341996.73  159159.14  46.54
1194.3  340755.13  158479.94  46.51
1198.0  339521.88  157873.28  46.50
1201.8  338055.20  157216.28  46.51
1205.6  336831.33  156731.79  46.53
1209.3  335864.25  156480.49  46.59
1213.1  334878.75  156267.46  46.66
1216.8  333851.47  156142.01  46.77
1220.6  332722.13  156001.19  46.89
1224.3  331435.25  155786.42  47.00
1228.1  330149.20  155609.25  47.13
1231.9  328904.20  155370.53  47.24
1235.6  327404.40  154983.54  47.34
1239.4  326030.63  154629.77  47.43
1243.1  324778.44  154274.85  47.50
1246.9  323556.98  153890.53  47.56
1250.6  322566.87  153582.78  47.61
1254.3  321492.97  153192.99  47.65
1258.1  320464.78  152806.69  47.68
1261.8  319150.93  152239.47  47.70
1265.6  317702.65  151550.18  47.70
1269.3  316243.63  150799.60  47.68
1273.1  316189.45  150656.83  47.65
1276.8  316470.80  150648.32  47.60
1280.6  316384.03  150424.99  47.55
1284.3  315060.40  149556.02  47.47
1288.0  313610.34  148562.78  47.37
1291.8  312294.77  147503.47  47.23
1295.5  310857.07  146327.03  47.07
1299.2  309560.26  145145.87  46.89
1302.9  308108.50  143780.00  46.67
1306.7  306562.78  142251.88  46.40
1310.4  305069.59  140595.66  46.09
1314.1  303679.02  138871.41  45.73
1317.9  302448.13  137059.67  45.32
1321.6  301053.26  135031.01  44.85
1325.3  299399.63  132740.49  44.34
1329.0  298025.00  130468.48  43.78
1332.8  295941.80  127758.65  43.17
1336.5  294112.33  125126.81  42.54
1340.2  293763.17  123126.85  41.91
1343.9  293414.38  121131.24  41.28
1347.6  292993.80  119150.40  40.67
1351.4  293508.00  117620.40  40.07
1355.1  294237.53  116237.62  39.50
1358.8  294624.00  114659.05  38.92
1362.5  294207.08  112646.04  38.29
1366.2  292315.00  109805.90  37.56
1369.9  290195.00  106578.20  36.73
1373.6  288106.88  102860.81  35.70
1377.3  286343.10  98576.47  34.43
1381.0  285228.50  93603.46  32.82
1384.8  283123.75  87322.34  30.84
1388.4  280555.45  80392.11  28.65
1392.2  278627.67  73313.19  26.31
1395.9  277008.15  66312.98  23.94
1399.6  275296.64  59729.12  21.70
1403.3  274021.66  53969.54  19.70
1407.0  272787.50  49071.47  17.99
1410.7  271491.00  45072.09  16.60
1414.3  270151.41  41920.25  15.52
1418.1  268888.67  39536.48  14.70
1421.7  267880.84  37769.48  14.10
1425.4  266900.08  36488.10  13.67
1429.1  265972.13  35586.54  13.38
1432.8  264453.23  34896.45  13.20
1436.5  263609.14  34517.21  13.09
1440.2  262734.20  34294.11  13.05
1443.9  261390.89  34130.11  13.06
1447.6  259736.40  34019.58  13.10
1451.2  258622.47  34022.53  13.16
1454.9  257322.75  34054.31  13.23
1458.6  256211.23  34202.75  13.35
1462.3  255055.53  34467.86  13.51
1466.0  253710.02  34850.24  13.74
1469.7  252041.18  35357.09  14.03
1473.3  250994.83  36092.79  14.38
1477.0  249084.13  36822.21  14.78
1480.7  247512.58  37668.24  15.22
1484.4  245596.17  38491.43  15.67
1488.0  244024.00  39403.28  16.15
1491.7  242396.77  40310.29  16.63
1495.4  240649.25  41210.02  17.12
1499.0  239061.50  42112.37  17.62
1502.7  237730.83  43054.12  18.11
1506.4  236309.45  43963.17  18.60
1510.0  234880.63  44846.35  19.09
1513.7  233397.21  45684.11  19.57
1517.4  232071.00  46529.18  20.05
1521.0  230848.93  47363.98  20.52
1524.7  229628.75  48142.64  20.97
1528.3  228330.63  48876.99  21.41
1532.0  227123.05  49580.20  21.83
1535.7  225747.44  50209.32  22.24
1539.3  224480.38  50825.04  22.64
1543.0  223502.96  51480.85  23.03
1546.6  222840.58  52167.13  23.41
1550.3  221849.50  52750.84  23.78
1553.9  220786.43  53272.32  24.13
1557.6  219519.67  53712.34  24.47
1561.2  218261.70  54102.97  24.79
1564.9  216952.21  54469.41  25.11
1568.5  215622.05  54783.63  25.41
1572.2  214473.25  55112.80  25.70
1575.8  213388.00  55456.45  25.99
1579.5  212403.60  55786.70  26.26
1583.1  211420.58  56113.95  26.54
1586.8  210210.00  56356.45  26.81
1590.4  209152.80  56622.94  27.07
1594.0  207851.15  56811.72  27.33
1597.7  206702.57  57025.60  27.59
1601.3  205395.75  57173.18  27.84
1604.9  204075.52  57300.07  28.08
1608.6  202758.33  57382.50  28.30
1612.2  201707.55  57520.53  28.52
1615.8  200555.23  57594.74  28.72
1619.5  199439.75  57653.88  28.91
1623.1  198159.07  57630.90  29.08
1626.7  196907.75  57590.53  29.25
1630.3  195710.08  57534.37  29.40
1634.0  194600.00  57467.78  29.53
1637.6  193599.53  57388.21  29.64
1641.2  192569.30  57241.04  29.72
1644.8  191337.22  56969.45  29.77
1648.5  190251.59  56681.15  29.79
1652.1  189292.50  56354.12  29.77
1655.7  188348.80  55983.16  29.72
1659.3  187470.49  55614.16  29.67
1662.9  186036.67  55086.29  29.61
1666.6  184568.73  54584.70  29.57
1670.2  183166.03  54102.27  29.54
1673.8  181709.78  53604.74  29.50
1677.4  180542.50  53181.26  29.46
1681.0  179737.75  52821.46  29.39
1684.6  179351.25  52527.93  29.29
1688.2  178672.05  52085.70  29.15
1691.8  178029.44  51647.84  29.01
1695.4  177599.40  51245.32  28.85
1699.0  177247.70  50841.24  28.68
1702.6  176902.00  50421.71  28.50
1706.2  176300.37  49894.23  28.30
1709.8  175379.60  49260.98  28.09
1713.4  174657.23  48671.25  27.87
1717.0  173799.25  48061.35  27.65
1720.6  173000.48  47474.42  27.44
1724.2  172309.13  46921.83  27.23
1727.8  171600.10  46403.93  27.04
1731.4  171124.25  45988.88  26.87
1735.0  170898.38  45698.79  26.74
1738.6  170629.80  45375.18  26.59
1742.2  170002.35  44912.13  26.42
1745.8  169309.91  44391.21  26.22
1749.4  168302.48  43764.60  26.00
1753.0  166796.93  42991.83  25.77
1756.6  165141.38  42183.58  25.54
1760.1  163799.02  41485.78  25.33
1763.7  162073.33  40717.06  25.12
1767.3  160657.73  40078.14  24.95
1770.9  159438.24  39515.25  24.78
1774.5  157995.31  38940.55  24.65
1778.0  156853.96  38455.89  24.52
1781.6  155772.30  38020.01  24.41
1785.2  154622.28  37606.38  24.32
1788.8  153461.30  37238.28  24.27
1792.3  152257.17  36884.74  24.23
1795.9  151802.84  36745.99  24.21
1799.5  151340.00  36626.68  24.20
1803.1  150759.93  36495.20  24.21
1806.6  151280.91  36622.50  24.21
1810.2  152439.00  36892.57  24.20
1813.8  153440.20  37125.28  24.20
1817.3  153510.40  37130.34  24.19
1820.9  152796.05  36943.61  24.18
1824.5  151643.85  36635.94  24.16
1828.0  150820.54  36386.89  24.13
1831.6  150165.18  36135.86  24.06
1835.2  149557.50  35844.37  23.97
1838.7  149199.20  35524.31  23.81
1842.3  148815.00  35113.57  23.60
1845.8  147946.88  34459.89  23.29
1849.4  147414.85  33747.29  22.89
1852.9  146748.76  32816.34  22.36
1856.5  145823.60  31615.02  21.68
1860.0  145055.54  30212.59  20.83
1863.6  144898.99  28711.10  19.81
1867.1  144951.80  26975.86  18.61
1870.7  145022.30  24905.36  17.17
1874.2  144168.30  22354.66  15.51
1877.8  142691.93  19647.07  13.77
1881.3  141009.88  16937.22  12.01
1884.9  139956.30  14502.87  10.36
1888.4  138913.78  12281.43  8.84
1891.9  137895.00  10436.85  7.57
1895.5  136825.87  9002.04  6.58
1899.0  136389.63  7996.32  5.86
1901.3  167993.33  6392.67  3.81
1904.1  167958.00  5805.00  3.46
1906.8  167141.40  5358.00  3.21
1909.6  165426.45  4986.57  3.01
1912.4  163782.50  4716.64  2.88
1915.1  162596.50  4531.27  2.79
1917.9  161288.67  4400.72  2.73
1920.6  160198.83  4302.53  2.69
1923.3  159122.83  4224.50  2.65
1926.1  157752.60  4161.49  2.64
1928.8  156464.00  4121.33  2.63
1931.6  155492.77  4103.55  2.64
1934.3  154579.57  4115.72  2.66
1937.0  153687.37  4138.94  2.69
1939.8  152679.92  4170.00  2.73
1942.5  151404.00  4205.67  2.78
1945.2  149738.05  4232.25  2.83
1947.9  148372.93  4284.23  2.89
1950.7  147300.87  4342.91  2.95
1953.4  145580.20  4402.55  3.02
1956.1  144253.92  4482.33  3.11
1958.8  143066.73  4558.96  3.19
1961.5  141606.40  4646.00  3.28
1964.2  140121.80  4741.10  3.38
1966.9  138555.50  4838.73  3.49
1969.6  137340.00  4953.00  3.61
1972.3  135956.40  5064.10  3.72
1975.0  134918.25  5192.00  3.85
1977.7  133819.37  5322.33  3.98
1980.4  132692.27  5461.63  4.12
1983.1  131612.95  5613.53  4.27
1985.8  130700.10  5771.00  4.42
1988.4  129679.33  5922.22  4.57
1991.1  128766.17  6080.74  4.72
1993.8  127897.18  6244.21  4.88
1996.5  127268.17  6419.42  5.04
1999.1  126587.45  6600.36  5.21
2001.8  125925.80  6771.41  5.38
2004.5  125234.70  6945.95  5.55
2007.1  124499.45  7116.07  5.72
2009.8  123741.57  7277.90  5.88
2012.4  123175.25  7450.54  6.05
2015.1  122610.60  7605.97  6.20
2017.8  121824.97  7749.85  6.36
2020.4  121322.67  7915.85  6.52
2023.1  120961.63  8077.92  6.68
2025.7  120726.67  8239.11  6.82
2028.3  120397.33  8386.44  6.97
2031.0  120003.67  8521.24  7.10
2033.6  119729.40  8644.90  7.22
2036.2  119459.70  8766.70  7.34
2038.9  118859.40  8862.40  7.46
2041.5  118520.52  8963.64  7.56
2044.1  117980.70  9039.30  7.66
2046.8  117606.60  9126.30  7.76
2049.4  116971.50  9181.40  7.85
2052.0  116694.80  9268.98  7.94
2054.6  116305.00  9342.08  8.03
2057.2  115734.13  9402.89  8.12
2059.8  115411.00  9487.31  8.22
2062.4  114537.00  9527.32  8.32
2065.0  114013.67  9597.93  8.42
2067.6  113116.18  9631.91  8.52
2070.2  112523.45  9687.12  8.61
2072.8  111887.13  9739.42  8.70
2075.4  111457.50  9808.75  8.80
2078.0  110819.32  9851.97  8.89
2080.6  110264.00  9905.87  8.98
2083.2  109574.57  9944.32  9.08
2085.8  109080.22  9998.36  9.17
2088.4  108420.33  10034.67  9.26
2090.9  107633.87  10059.82  9.35
2093.5  106734.17  10069.98  9.43
2096.1  105970.92  10083.27  9.52
2098.7  105206.77  10094.98  9.60
2101.2  104249.80  10092.82  9.68
2103.8  103568.60  10116.11  9.77
2106.4  102913.60  10133.58  9.85
2108.9  102267.33  10156.87  9.93
2111.5  101402.73  10151.04  10.01
2114.0  100782.67  10168.51  10.09
2116.6  100266.25  10193.75  10.17
2119.1  99720.83  10207.32  10.24
2121.7  99216.25  10231.67  10.31
2124.2  98826.63  10257.00  10.38
2126.8  98039.57  10235.51  10.44
2129.3  97653.60  10254.93  10.50
2131.9  97064.00  10252.00  10.56
2134.4  96615.45  10260.10  10.62
2136.9  96233.15  10280.98  10.68
2139.4  95715.67  10285.34  10.75
2142.0  95263.47  10303.07  10.82
2144.5  94998.60  10329.93  10.87
2147.0  94755.87  10374.58  10.95
2149.5  94264.53  10386.49  11.02
2152.1  94100.42  10429.65  11.08
2154.6  94030.40  10487.11  11.15
2157.1  93512.92  10488.22  11.22
2159.6  93086.00  10494.28  11.27
2162.1  92929.20  10531.73  11.33
2164.6  92685.07  10558.13  11.39
2167.1  92375.15  10582.26  11.46
2169.6  92056.07  10596.09  11.51
2172.1  91594.67  10590.63  11.56
2174.6  91276.67  10607.24  11.62
2177.1  90846.70  10610.85  11.68
2179.5  90427.57  10624.10  11.75
2182.0  89937.65  10624.72  11.81
2184.5  89404.40  10618.81  11.88
2187.0  88795.97  10603.07  11.94
2189.5  88119.13  10580.24  12.01
2191.9  87333.50  10545.00  12.07
2194.4  86714.00  10524.10  12.14
2196.9  85968.00  10486.40  12.20
2199.3  85308.33  10459.33  12.26
2201.8  84426.93  10398.44  12.32
2204.3  83971.77  10386.03  12.37
2206.7  83350.70  10349.07  12.42
2209.2  82871.75  10331.38  12.47
2211.6  82239.30  10282.80  12.50
2214.1  81948.20  10268.40  12.53
2216.5  81373.87  10224.71  12.57
2219.0  81016.27  10191.60  12.58
2221.4  80642.33  10141.44  12.58
2223.9  80176.25  10075.33  12.57
2226.3  79670.50  9976.17  12.52
2228.7  79116.08  9870.16  12.48
2231.1  78526.80  9741.60  12.41
2233.6  77946.87  9608.85  12.33
2236.0  77399.58  9460.50  12.22
2238.4  76903.75  9308.44  12.10
2240.9  76456.87  9161.84  11.98
2243.3  75920.47  8999.60  11.85
2245.7  75361.30  8822.33  11.71
2248.1  74879.57  8651.07  11.55
2250.5  74375.83  8482.51  11.40
2252.9  73753.33  8288.94  11.24
2255.3  73182.25  8102.62  11.07
2257.7  72730.00  7943.33  10.92
2260.1  72240.00  7782.52  10.77
2262.5  71640.00  7610.00  10.62
2264.9  71121.27  7464.21  10.50
2267.3  70500.00  7310.00  10.37
2269.7  70002.57  7173.83  10.25
2272.1  69455.57  7041.72  10.14
2274.5  68894.98  6918.45  10.04
2276.8  68413.83  6814.67  9.96
2279.2  67837.50  6689.95  9.86
2281.6  67416.47  6583.60  9.77
2284.0  66963.00  6477.47  9.67
2286.3  66494.93  6380.62  9.60
2288.7  66089.83  6286.51  9.51
2291.1  65544.50  6170.70  9.41
2293.4  65100.93  6071.02  9.33
2295.8  64498.60  5939.67  9.21
2298.2  63900.90  5809.80  9.09
2300.5  63248.85  5682.15  8.98
2302.9  62496.00  5549.00  8.88
2305.2  61779.40  5417.80  8.77
2307.6  61105.62  5299.33  8.67
2309.9  60336.33  5183.89  8.59
2312.2  59757.67  5104.67  8.54
2314.6  59150.25  5026.65  8.50
2316.9  58446.45  4943.85  8.46
2319.2  57877.10  4868.88  8.41
2321.6  57253.70  4779.80  8.35
2323.9  56697.92  4687.50  8.27
2326.2  56162.63  4601.10  8.19
2328.6  55646.25  4514.40  8.11
2330.9  55135.50  4438.00  8.05
2333.2  54662.92  4363.86  7.98
2335.5  54206.20  4280.00  7.90
2337.8  53765.70  4198.31  7.81
2340.1  53194.18  4104.86  7.72
2342.4  52758.33  4026.39  7.63
2344.8  52312.67  3948.19  7.55
2347.1  51762.67  3867.58  7.47
2349.4  51216.48  3789.73  7.40
2351.6  50632.60  3719.96  7.35
2353.9  50135.47  3652.03  7.28
2356.2  49635.92  3594.39  7.24
2358.5  49044.80  3516.80  7.17
2360.8  48473.60  3442.13  7.10
2363.1  48029.77  3376.22  7.03
2365.4  47550.40  3322.20  6.99
2367.7  47082.00  3252.80  6.91
2369.9  46544.25  3175.47  6.82
2372.2  45935.47  3107.47  6.76
2374.5  45345.30  3037.65  6.70
2376.7  44712.55  2962.25  6.63
2379.0  44078.70  2888.94  6.55
2381.3  43481.67  2800.00  6.44
2383.5  42979.20  2733.87  6.36
2385.8  42371.77  2671.03  6.30
2388.0  41842.80  2607.80  6.23
2390.3  41319.73  2543.42  6.16
2392.5  40824.00  2476.00  6.07
2394.8  40365.60  2420.00  6.00
2397.0  39906.53  2361.96  5.92
2399.3  39437.45  2310.77  5.86
2401.5  39004.00  2241.75  5.75
2403.8  38464.95  2175.94  5.66
2406.0  37970.17  2114.97  5.57
2408.2  37549.60  2057.00  5.48
2410.4  37112.95  2009.82  5.42
2412.7  36707.23  1960.40  5.34
2414.9  36343.45  1897.50  5.22
2417.1  35941.00  1849.97  5.15
2419.3  35520.00  1800.53  5.07
2421.6  35146.25  1756.67  5.00
2423.8  34789.57  1707.28  4.91
2426.0  34392.85  1661.87  4.83
2428.2  34025.60  1611.56  4.74
2430.4  33718.53  1570.35  4.66
2432.6  33453.33  1528.89  4.57
2434.8  33149.33  1497.07  4.52
2437.0  32777.33  1455.28  4.44
2439.2  32440.00  1423.75  4.39
2441.4  32106.50  1381.51  4.30
2443.6  31861.23  1344.82  4.22
2445.7  31598.47  1309.66  4.14
2447.9  31312.50  1275.69  4.07
2450.1  31008.35  1241.08  4.00
2452.3  30647.28  1218.74  3.98
2454.5  30295.60  1177.22  3.89
2456.6  29917.20  1146.09  3.83
2458.8  29558.10  1110.63  3.76
2461.0  29251.42  1090.86  3.73
2463.1  28954.50  1067.00  3.69
2465.3  28666.70  1024.33  3.57
2467.5  28408.50  1007.92  3.55
2469.6  28177.58  984.50  3.49
2471.8  27870.93  961.07  3.45
2473.9  27542.17  935.17  3.40
2476.1  27193.83  915.06  3.36
2478.2  26825.90  888.61  3.31
2480.4  26524.80  864.72  3.26
2482.5  26213.28  856.74  3.27
2484.6  25852.75  831.11  3.21
2486.8  25591.00  816.40  3.19
2488.9  25284.90  804.95  3.18
2491.1  24926.53  788.05  3.16
2493.2  24524.80  766.40  3.13
2495.3  24114.13  748.22  3.10
2497.4  23779.70  735.23  3.09
2499.5  23465.83  717.46  3.06
2501.7  23318.90  717.59  3.08
2503.8  23219.45  702.10  3.02
2505.9  23147.92  694.72  3.00
2508.0  23157.03  688.99  2.98
2510.1  23158.92  697.45  3.01
2512.2  23267.80  703.42  3.02
2514.3  23406.45  696.06  2.97
2516.4  23580.90  709.20  3.01
