/*** Spectra Vista SIG Data ***/
name= 29_20220825_QUPH_5_avg.sig
comm= Averaged Ref/Tar of files: HR.082522.0008_moc.sig,HR.082522.0009_moc.sig
data=
337.3  3440.67  317.60  9.23
338.8  3559.40  307.84  8.65
340.3  3748.00  309.21  8.25
341.8  3962.83  301.79  7.62
343.2  4144.00  293.04  7.07
344.7  4350.30  298.55  6.86
346.2  4493.50  285.95  6.36
347.7  4692.78  291.01  6.20
349.2  4888.80  287.28  5.88
350.6  5165.98  279.11  5.40
352.1  5477.83  264.37  4.83
353.6  5760.20  277.60  4.82
355.1  6039.05  282.87  4.68
356.6  6358.35  288.42  4.54
358.0  6635.20  287.10  4.33
359.5  6942.20  296.64  4.27
361.0  7301.70  299.25  4.10
362.5  7670.05  298.61  3.89
364.0  8048.12  309.69  3.85
365.4  8411.27  314.72  3.74
366.9  8784.75  331.50  3.77
368.4  9146.22  349.12  3.82
369.9  9548.83  356.73  3.74
371.3  10003.60  363.12  3.63
372.8  10407.60  371.70  3.57
374.3  10839.58  381.63  3.52
375.8  11283.07  393.47  3.49
377.2  11728.40  408.88  3.49
378.7  12158.80  408.88  3.36
380.2  12589.20  414.26  3.29
381.7  13134.15  416.19  3.17
383.1  13618.73  436.59  3.21
384.6  14152.88  442.39  3.13
386.1  14647.55  459.43  3.14
387.6  15163.87  468.93  3.09
389.0  15669.07  482.40  3.08
390.5  16177.80  488.52  3.02
392.0  16769.30  507.84  3.03
393.4  17359.02  520.25  3.00
394.9  17922.00  548.10  3.06
396.4  18509.25  564.08  3.05
397.9  19065.00  574.00  3.01
399.3  19669.08  597.67  3.04
400.8  20255.72  608.17  3.00
402.2  20932.97  633.39  3.03
403.7  21555.15  650.03  3.02
405.2  22175.58  677.11  3.05
406.6  22797.87  700.64  3.07
408.1  23413.60  727.72  3.11
409.6  24057.20  746.30  3.10
411.0  24751.77  768.60  3.11
412.5  25448.15  791.35  3.11
414.0  26120.75  823.15  3.15
415.4  26871.00  850.65  3.17
416.9  27563.25  878.94  3.19
418.4  28286.40  900.14  3.18
419.8  29035.07  928.20  3.20
421.3  29803.40  958.99  3.22
422.7  30624.00  991.80  3.24
424.2  31443.75  1019.25  3.24
425.7  32230.53  1049.72  3.26
427.1  33021.50  1076.10  3.26
428.6  33862.33  1106.70  3.27
430.0  34639.47  1132.06  3.27
431.5  35541.40  1167.14  3.28
432.9  36458.97  1192.51  3.27
434.4  37388.25  1229.09  3.29
435.9  38266.67  1262.80  3.30
437.3  39141.67  1295.25  3.31
438.8  40010.05  1333.07  3.33
440.2  40910.10  1369.06  3.35
441.7  41924.13  1409.68  3.36
443.1  42877.00  1454.85  3.39
444.6  43885.00  1501.26  3.42
446.0  44876.20  1549.22  3.45
447.5  45875.13  1600.12  3.49
448.9  46844.20  1656.36  3.54
450.4  47880.47  1714.58  3.58
451.8  48793.33  1770.60  3.63
453.3  49763.45  1825.27  3.67
454.7  50820.37  1878.76  3.70
456.2  51727.38  1928.21  3.73
457.6  52746.00  1972.67  3.74
459.1  53770.82  2017.41  3.75
460.5  54748.33  2065.10  3.77
462.0  55858.25  2112.61  3.78
463.4  56937.20  2159.12  3.79
464.8  57969.75  2200.58  3.80
466.3  59007.85  2244.00  3.80
467.7  60053.33  2288.60  3.81
469.2  61169.95  2339.27  3.82
470.6  62194.67  2385.69  3.84
472.0  63271.82  2432.16  3.84
473.5  64315.83  2483.18  3.86
474.9  65398.00  2536.50  3.88
476.4  66604.80  2594.88  3.90
477.8  67744.00  2656.40  3.92
479.2  68817.00  2714.40  3.94
480.7  69972.15  2779.20  3.97
482.1  71161.43  2846.65  4.00
483.6  72404.13  2918.90  4.03
485.0  73533.00  2987.64  4.06
486.4  74787.00  3064.23  4.10
487.9  75923.25  3144.38  4.14
489.3  77159.00  3230.67  4.19
490.7  78287.92  3333.74  4.26
492.2  79585.80  3448.62  4.33
493.6  80741.03  3562.88  4.41
495.0  81900.00  3688.43  4.50
496.5  83138.77  3830.18  4.61
497.9  84302.98  3976.93  4.72
499.3  85525.90  4150.09  4.85
500.7  86835.43  4351.05  5.01
502.2  88028.27  4569.80  5.19
503.6  89322.80  4815.08  5.39
505.0  90449.10  5077.69  5.61
506.5  91821.70  5381.06  5.86
507.9  93091.12  5716.52  6.14
509.3  94542.40  6094.64  6.45
510.7  95852.25  6502.28  6.78
512.2  97310.60  6956.69  7.15
513.6  98842.80  7456.26  7.54
515.0  100333.67  7997.30  7.97
516.4  101757.60  8561.70  8.41
517.8  103442.08  9192.55  8.89
519.3  104802.45  9821.54  9.37
520.7  106424.07  10495.35  9.86
522.1  107775.20  11157.64  10.35
523.5  109207.67  11834.46  10.84
524.9  110660.70  12501.99  11.30
526.3  112092.63  13138.86  11.72
527.8  113691.60  13774.86  12.12
529.2  114988.27  14366.58  12.49
530.6  116601.87  14973.09  12.84
532.0  118384.00  15559.60  13.14
533.4  119767.70  16045.65  13.40
534.8  120717.80  16428.10  13.61
536.3  122481.20  16909.32  13.81
537.7  124563.60  17410.68  13.98
539.1  126109.40  17814.56  14.13
540.5  127400.63  18159.35  14.25
541.9  129265.95  18588.02  14.38
543.3  130589.15  18934.39  14.50
544.7  132004.40  19300.20  14.62
546.1  133849.28  19724.49  14.74
547.5  135146.67  20054.72  14.84
549.0  137023.33  20449.00  14.92
550.4  138535.83  20784.63  15.00
551.8  140129.85  21092.10  15.05
553.2  141726.75  21364.81  15.07
554.6  143124.80  21561.28  15.06
556.0  144706.80  21732.93  15.02
557.4  146353.43  21866.29  14.94
558.8  148039.50  21958.56  14.83
560.2  149531.42  21976.33  14.70
561.6  151252.85  21975.90  14.53
563.0  152893.10  21922.08  14.34
564.4  154536.40  21834.28  14.13
565.8  156109.58  21698.38  13.90
567.2  157917.50  21555.90  13.65
568.6  159478.25  21341.10  13.38
570.0  160959.35  21082.98  13.10
571.4  162744.40  20842.51  12.81
572.8  164561.00  20601.28  12.52
574.2  166245.33  20357.12  12.25
575.6  167835.00  20121.75  11.99
577.0  169402.07  19903.82  11.75
578.4  171186.17  19740.18  11.53
579.8  172752.30  19567.17  11.33
581.2  174527.85  19448.32  11.14
582.5  175983.60  19314.36  10.98
583.9  177558.53  19212.76  10.82
585.3  179415.60  19158.71  10.68
586.7  180936.17  19088.49  10.55
588.1  182489.33  19036.25  10.43
589.5  184191.00  19019.35  10.33
590.9  185876.00  19031.52  10.24
592.3  187739.63  19076.00  10.16
593.7  189237.75  19108.83  10.10
595.0  190921.50  19168.25  10.04
596.4  192411.10  19212.62  9.99
597.8  193954.55  19262.09  9.93
599.2  195544.80  19316.88  9.88
600.6  197352.13  19371.89  9.82
602.0  198698.95  19358.85  9.74
603.3  200549.03  19357.53  9.65
604.7  202280.60  19306.37  9.54
606.1  203816.80  19212.36  9.43
607.5  205505.15  19105.10  9.30
608.9  207256.23  18978.74  9.16
610.2  208684.35  18804.56  9.01
611.6  210329.20  18642.56  8.86
613.0  211933.33  18467.10  8.71
614.4  213361.20  18274.80  8.57
615.8  214860.75  18102.83  8.43
617.1  216442.80  17960.46  8.30
618.5  218122.40  17848.80  8.18
619.9  219676.10  17757.77  8.08
621.3  221351.25  17710.11  8.00
622.6  222985.50  17690.00  7.93
624.0  224488.50  17690.25  7.88
625.4  226002.15  17709.62  7.84
626.8  227631.95  17769.12  7.81
628.1  229021.28  17831.28  7.79
629.5  230942.38  17939.54  7.77
630.9  232613.33  18023.06  7.75
632.2  234039.98  18064.80  7.72
633.6  235719.92  18097.70  7.68
635.0  237314.13  18063.44  7.61
636.3  238889.93  17971.24  7.52
637.7  240319.42  17805.90  7.41
639.1  242013.33  17591.00  7.27
640.4  243537.93  17307.36  7.11
641.8  244772.90  16965.84  6.93
643.2  246413.77  16626.26  6.75
644.5  247847.17  16264.40  6.56
645.9  249579.30  15937.11  6.39
647.2  251319.48  15645.32  6.23
648.6  253206.00  15418.35  6.09
650.0  254736.00  15206.40  5.97
651.3  255335.67  14973.20  5.86
652.7  256654.07  14784.27  5.76
654.0  258831.07  14656.00  5.66
655.4  260394.17  14480.35  5.56
656.8  260671.67  14210.20  5.45
658.1  261852.07  13965.04  5.33
659.5  264293.05  13752.69  5.20
660.8  266115.00  13468.50  5.06
662.2  267082.67  13126.40  4.91
663.5  268797.63  12833.71  4.77
664.9  270135.67  12566.06  4.65
666.2  270943.60  12321.00  4.55
667.6  272796.62  12162.66  4.46
668.9  274024.13  12037.36  4.39
670.3  275242.33  11948.25  4.34
671.6  276842.75  11920.95  4.31
673.0  278067.00  11938.65  4.29
674.3  279344.00  12004.72  4.30
675.7  280735.13  12114.76  4.32
677.0  281890.63  12254.71  4.35
678.4  283329.60  12457.34  4.40
679.7  284474.90  12699.62  4.46
681.1  285841.82  13028.67  4.56
682.4  287049.53  13445.64  4.68
683.8  288331.33  13984.88  4.85
685.1  289350.75  14677.73  5.07
686.4  290716.40  15593.28  5.36
687.8  292068.33  16763.15  5.74
689.1  293180.83  18236.10  6.22
690.5  294602.80  20083.71  6.82
691.8  295456.35  22313.18  7.55
693.1  296866.00  25028.25  8.43
694.5  298100.83  28164.50  9.45
695.8  299390.00  31686.20  10.58
697.1  300648.83  35549.15  11.82
698.5  301758.67  39715.92  13.16
699.8  302907.77  44134.62  14.57
701.1  304117.10  48764.86  16.03
702.5  304921.10  53434.48  17.52
703.8  305940.00  58185.00  19.02
705.1  307162.70  62955.95  20.50
706.5  308267.83  67675.43  21.95
707.8  309324.00  72324.60  23.38
709.1  310228.20  76856.05  24.77
710.5  311433.75  81388.02  26.13
711.8  312348.67  85761.34  27.46
713.1  313419.07  90096.46  28.75
714.4  314355.67  94320.08  30.00
715.8  315232.80  98436.66  31.23
717.1  316610.10  102613.32  32.41
718.4  317617.07  106570.24  33.55
719.7  318800.38  110478.11  34.65
721.0  319365.00  114066.00  35.72
722.4  320179.93  117629.82  36.74
723.7  321207.20  121141.26  37.71
725.0  322301.10  124546.64  38.64
726.3  323323.73  127778.92  39.52
727.6  323917.18  130691.39  40.35
729.0  324877.82  133606.90  41.13
730.3  325696.30  136317.21  41.85
731.6  326661.93  138941.67  42.53
732.9  327510.28  141400.28  43.17
734.2  328387.58  143709.50  43.76
735.5  329475.47  145986.74  44.31
736.8  330314.80  148025.46  44.81
738.1  331206.20  149958.16  45.28
739.5  332212.85  151843.18  45.71
740.8  332957.90  153482.73  46.10
742.1  333768.80  155056.82  46.46
743.4  334583.33  156540.00  46.79
744.7  335649.88  158058.72  47.09
746.0  336580.40  159421.08  47.36
747.3  337168.23  160526.73  47.61
748.6  337977.33  161643.05  47.83
749.9  338797.33  162702.80  48.02
751.2  339583.90  163704.23  48.21
752.5  340560.17  164734.54  48.37
753.8  341217.45  165571.04  48.52
755.1  341986.67  166400.00  48.66
756.4  342610.25  167112.76  48.78
757.7  343651.12  167980.37  48.88
759.0  345540.60  169224.68  48.97
760.3  346790.40  170137.44  49.06
761.6  348442.27  171202.92  49.13
762.9  349051.83  171729.65  49.20
764.2  349484.80  172127.72  49.25
765.5  349793.58  172462.74  49.30
766.8  350281.60  172850.56  49.35
768.1  350847.87  173277.60  49.39
769.3  351505.23  173724.95  49.42
770.6  352225.90  174201.17  49.46
771.9  353013.97  174690.64  49.49
773.2  353466.40  175006.48  49.51
774.5  354144.27  175426.68  49.54
775.8  354874.23  175875.37  49.56
777.1  355493.97  176264.22  49.58
778.4  355885.57  176520.58  49.60
779.6  356700.00  177006.43  49.62
780.9  357260.00  177330.00  49.64
782.2  357756.67  177652.20  49.66
783.5  358110.67  177882.10  49.67
784.8  358700.25  178230.15  49.69
786.0  359138.73  178508.19  49.70
787.3  359570.40  178790.59  49.72
788.6  360025.62  179098.37  49.75
789.9  360554.13  179392.64  49.75
791.2  361278.47  179794.46  49.77
792.4  361999.55  180201.78  49.78
793.7  362523.60  180506.96  49.79
795.0  363190.30  180909.63  49.81
796.2  363880.20  181324.05  49.83
797.5  364658.80  181764.54  49.85
798.8  365424.15  182162.57  49.85
800.0  366144.42  182570.38  49.86
801.3  366631.60  182882.60  49.88
802.6  367287.90  183250.31  49.89
803.8  367958.15  183629.63  49.91
805.1  368499.25  183956.15  49.92
806.4  369036.60  184251.60  49.93
807.7  369642.15  184595.36  49.94
808.9  370232.73  184926.81  49.95
810.2  370794.43  185260.11  49.96
811.4  371326.00  185566.76  49.97
812.7  372016.67  185981.25  49.99
814.0  372901.30  186458.88  50.00
815.2  373634.67  186839.60  50.01
816.5  374077.38  187109.15  50.02
817.7  374623.27  187408.76  50.03
819.0  375147.30  187721.38  50.04
820.2  375290.67  187880.00  50.06
821.5  376072.07  188306.91  50.07
822.7  376476.72  188543.21  50.08
824.0  376869.60  188759.16  50.09
825.2  377443.80  189047.93  50.09
826.5  377821.80  189260.74  50.09
827.7  378372.97  189612.31  50.11
829.0  378820.63  189852.09  50.12
830.2  379116.67  190056.13  50.13
831.5  379668.93  190339.31  50.13
832.7  380070.25  190540.98  50.13
834.0  380454.62  190761.80  50.14
835.2  380876.28  190991.41  50.15
836.4  381203.53  191195.73  50.16
837.7  381604.13  191445.24  50.17
838.9  382110.35  191738.11  50.18
840.1  382501.35  191975.27  50.19
841.4  383050.80  192253.72  50.19
842.6  383445.20  192497.12  50.20
843.8  383869.07  192735.40  50.21
845.1  384429.73  193053.68  50.22
846.3  384840.33  193317.66  50.23
847.5  385294.00  193576.74  50.24
848.8  385755.60  193817.16  50.24
850.0  386132.83  194077.17  50.26
851.2  386748.90  194398.11  50.26
852.5  387171.73  194661.82  50.28
853.7  387715.50  194967.00  50.29
854.9  388227.33  195232.96  50.29
856.1  388711.70  195534.17  50.30
857.4  388908.55  195702.26  50.32
858.6  389474.33  195954.56  50.31
859.8  389980.00  196206.38  50.31
861.0  390452.40  196475.76  50.32
862.2  391007.27  196749.82  50.32
863.5  391398.37  196987.25  50.33
864.7  391991.60  197297.76  50.33
865.9  392445.33  197563.44  50.34
867.1  392797.27  197787.71  50.35
868.3  393311.80  198038.13  50.35
869.5  393833.90  198308.91  50.35
870.8  394434.00  198624.60  50.36
872.0  395027.65  198926.30  50.36
873.2  395491.10  199188.72  50.36
874.4  395980.65  199475.06  50.37
875.6  396375.38  199692.78  50.38
876.8  397013.07  199963.61  50.37
878.0  397581.07  200271.12  50.37
879.2  398152.60  200558.49  50.37
880.4  398668.25  200833.80  50.38
881.6  399250.38  201102.44  50.37
882.8  399694.93  201331.20  50.37
884.0  400380.52  201685.12  50.37
885.2  400964.40  201990.64  50.38
886.5  401602.00  202364.76  50.39
887.7  402231.70  202646.28  50.38
888.8  402948.70  203013.86  50.38
890.0  403575.07  203316.04  50.38
891.2  404284.27  203628.84  50.37
892.4  404933.20  203961.66  50.37
893.6  405633.50  204300.54  50.37
894.8  406574.83  204786.25  50.37
896.0  407586.67  205249.00  50.36
897.2  408507.67  205711.35  50.36
898.4  409336.40  206134.50  50.36
899.6  410029.25  206420.40  50.34
900.8  410454.67  206675.17  50.35
902.0  410759.30  206819.91  50.35
903.2  411165.05  207000.59  50.34
904.3  411627.20  207186.18  50.33
905.5  412375.23  207543.82  50.33
906.7  413064.33  207886.60  50.33
907.9  413618.80  208191.20  50.33
909.1  414006.30  208349.96  50.33
910.2  414329.60  208499.06  50.32
911.4  414620.70  208669.50  50.33
912.6  414971.70  208774.28  50.31
913.8  415268.25  208915.67  50.31
915.0  415750.30  209166.30  50.31
916.2  416078.00  209340.30  50.31
917.3  416087.70  209362.86  50.32
918.5  416406.73  209487.02  50.31
919.7  416750.40  209611.77  50.30
920.8  416900.35  209620.80  50.28
922.0  417186.00  209697.95  50.26
923.2  417508.00  209827.80  50.26
924.4  417708.00  209997.90  50.27
925.5  418187.53  210085.22  50.24
926.7  418867.25  210401.78  50.23
927.9  419822.00  210826.80  50.22
929.0  421339.50  211572.27  50.21
930.2  423782.33  212631.66  50.17
931.4  426476.25  213902.10  50.16
932.5  429364.47  215287.56  50.14
933.7  430921.02  216044.70  50.14
934.9  431666.67  216329.75  50.11
936.0  431320.50  216086.98  50.10
937.2  429177.30  214886.46  50.07
938.3  427569.70  213952.00  50.04
939.5  426045.60  213090.48  50.02
940.7  426312.00  213156.00  50.00
941.8  428037.00  213878.16  49.97
943.0  429602.50  214598.10  49.95
944.2  430566.93  214942.52  49.92
945.3  430397.50  214630.65  49.87
946.5  429468.30  214108.65  49.85
947.6  429710.67  214117.96  49.83
948.8  429700.70  213893.16  49.78
949.9  430068.80  213744.72  49.70
951.1  429791.92  213398.71  49.65
952.2  429760.00  213057.60  49.58
953.4  429422.00  212721.40  49.54
954.5  429483.60  212537.52  49.49
955.7  429399.60  212315.04  49.44
956.8  429263.00  211973.12  49.38
958.0  428971.67  211576.80  49.32
959.1  428877.50  211233.46  49.25
960.3  428673.40  210887.08  49.20
961.4  428757.40  210719.72  49.15
962.6  428992.67  210836.15  49.15
963.7  428664.55  210636.05  49.14
964.9  428583.35  210559.77  49.13
966.0  428453.55  210266.28  49.08
967.2  428627.40  210263.40  49.06
968.3  428552.10  210133.44  49.03
969.5  428681.67  209960.83  48.98
970.6  428660.38  210134.06  49.02
971.8  428776.60  210196.35  49.02
972.9  428789.00  210064.98  48.99
974.0  429101.67  210075.14  48.96
975.2  428907.83  209928.33  48.94
976.3  429034.92  209737.13  48.89
977.5  428850.45  209660.22  48.89
978.6  428907.20  209892.46  48.94
979.7  428972.25  209984.04  48.95
980.9  428979.98  209950.68  48.94
982.0  429075.30  209834.14  48.90
983.2  428836.38  209683.62  48.90
984.3  428876.93  209471.76  48.84
985.4  429302.65  209559.87  48.81
986.6  429068.67  209539.45  48.84
987.7  430468.50  210016.45  48.79
988.9  430645.20  209991.24  48.76
990.0  431283.53  210596.38  48.83
993.1  375595.33  180247.01  47.99
996.9  376157.45  180905.24  48.09
1000.7  377214.95  181779.16  48.19
1004.5  377804.25  182477.47  48.30
1008.4  377581.21  182804.27  48.41
1012.2  377625.96  183209.51  48.52
1016.0  377731.20  183598.13  48.61
1019.8  377892.90  183988.62  48.69
1023.7  377899.00  184245.64  48.76
1027.5  377564.43  184324.14  48.82
1031.3  377780.95  184651.34  48.88
1035.1  377612.84  184751.40  48.93
1038.9  377621.38  184941.45  48.98
1042.7  377492.08  185072.16  49.03
1046.5  377347.17  185157.46  49.07
1050.3  377438.33  185317.76  49.10
1054.2  377152.42  185318.18  49.14
1058.0  376674.32  185174.26  49.16
1061.8  376575.37  185218.54  49.18
1065.6  376287.63  185125.47  49.20
1069.4  376284.20  185161.35  49.21
1073.2  375860.06  184953.61  49.21
1077.0  375372.55  184680.92  49.20
1080.8  374945.83  184398.86  49.18
1084.6  373931.25  183855.47  49.17
1088.4  373287.13  183524.16  49.16
1092.2  372469.50  183049.98  49.14
1096.0  371864.64  182673.76  49.12
1099.8  371395.92  182298.04  49.08
1103.6  370716.53  181826.17  49.05
1107.4  369768.76  181184.59  49.00
1111.2  369490.30  180870.45  48.95
1114.9  368836.42  180320.72  48.89
1118.7  368218.13  179705.75  48.80
1122.5  367536.00  178999.17  48.70
1126.3  366445.45  177989.45  48.57
1130.1  365946.85  177035.93  48.38
1133.9  364335.30  175296.75  48.11
1137.7  362909.70  173419.32  47.79
1141.4  361082.04  171146.92  47.40
1145.2  360363.89  169206.40  46.95
1149.0  359256.04  167143.65  46.52
1152.8  357595.30  165026.86  46.15
1156.6  355947.90  163215.07  45.85
1160.3  354196.00  161709.49  45.66
1164.1  351771.07  160159.83  45.53
1167.9  349959.38  159103.30  45.46
1171.7  348657.75  158352.75  45.42
1175.4  347446.03  157710.24  45.39
1179.2  346385.48  157090.84  45.35
1183.0  346077.67  156795.05  45.31
1186.7  345581.60  156431.05  45.27
1190.5  344579.33  155883.35  45.24
1194.3  343380.93  155311.58  45.23
1198.0  342123.93  154742.09  45.23
1201.8  340623.05  154081.73  45.24
1205.6  339377.33  153620.37  45.27
1209.3  338462.22  153398.51  45.32
1213.1  337523.10  153219.03  45.40
1216.8  336538.40  153100.72  45.49
1220.6  335412.00  152924.94  45.59
1224.3  334166.58  152675.41  45.69
1228.1  332884.60  152444.28  45.79
1231.9  331605.75  152138.40  45.88
1235.6  330115.20  151702.16  45.95
1239.4  328749.88  151316.15  46.03
1243.1  327500.41  150930.34  46.09
1246.9  326285.73  150516.12  46.13
1250.6  325274.80  150172.03  46.17
1254.3  324217.48  149759.12  46.19
1258.1  323230.60  149367.11  46.21
1261.8  321910.67  148807.27  46.23
1265.6  320486.35  148139.57  46.22
1269.3  319053.18  147445.77  46.21
1273.1  319029.48  147382.35  46.20
1276.8  319275.20  147402.81  46.17
1280.6  319068.17  147153.09  46.12
1284.3  317618.80  146271.21  46.05
1288.0  316160.28  145337.78  45.97
1291.8  314893.43  144437.53  45.87
1295.5  313535.20  143443.77  45.75
1299.2  312232.86  142439.05  45.62
1302.9  310746.31  141245.01  45.45
1306.7  309169.58  139902.70  45.25
1310.4  307642.78  138462.22  45.01
1314.1  306250.63  136988.04  44.73
1317.9  304987.92  135444.33  44.41
1321.6  303559.88  133704.03  44.05
1325.3  301881.30  131728.15  43.64
1329.0  300516.18  129797.71  43.19
1332.8  298390.40  127432.80  42.71
1336.5  296570.27  125169.58  42.21
1340.2  296189.83  123507.59  41.70
1343.9  295726.04  121811.15  41.19
1347.6  295033.20  120039.88  40.69
1351.4  295197.50  118667.27  40.20
1355.1  295498.87  117382.46  39.72
1358.8  295664.00  116004.57  39.24
1362.5  295177.58  114277.92  38.71
1366.2  293477.80  111877.59  38.12
1369.9  291560.25  109113.03  37.42
1373.6  289482.20  105853.73  36.57
1377.3  287583.30  102060.21  35.49
1381.0  286408.67  97737.51  34.13
1384.8  284391.25  92277.56  32.45
1388.4  281961.98  86212.96  30.58
1392.2  280107.33  79926.51  28.53
1395.9  278498.48  73642.51  26.44
1399.6  276842.98  67660.61  24.44
1403.3  275644.77  62372.61  22.63
1407.0  274514.50  57807.40  21.06
1410.7  273309.30  54036.21  19.77
1414.3  272099.80  51022.00  18.75
1418.1  270922.46  48737.82  17.99
1421.7  270013.33  47043.03  17.42
1425.4  269053.85  45813.37  17.03
1429.1  268140.00  44953.21  16.76
1432.8  266610.39  44293.82  16.61
1436.5  265825.53  43959.76  16.54
1440.2  264991.37  43785.33  16.52
1443.9  263699.15  43656.63  16.56
1447.6  262061.80  43554.14  16.62
1451.2  260981.05  43581.62  16.70
1454.9  259701.30  43617.21  16.80
1458.6  258580.62  43777.34  16.93
1462.3  257415.77  44030.13  17.10
1466.0  256020.81  44395.24  17.34
1469.7  254326.80  44860.36  17.64
1473.3  253294.00  45571.54  17.99
1477.0  251387.73  46231.97  18.39
1480.7  249797.54  47022.76  18.82
1484.4  247851.64  47774.58  19.28
1488.0  246312.00  48631.52  19.74
1491.7  244687.66  49456.72  20.21
1495.4  242978.58  50259.53  20.68
1499.0  241367.00  51054.16  21.15
1502.7  240066.33  51900.34  21.62
1506.4  238635.50  52700.21  22.08
1510.0  237208.03  53457.34  22.54
1513.7  235712.46  54161.68  22.98
1517.4  234378.67  54862.88  23.41
1521.0  233145.87  55559.50  23.83
1524.7  231924.33  56187.81  24.23
1528.3  230633.00  56764.34  24.61
1532.0  229424.07  57324.42  24.99
1535.7  228004.78  57779.00  25.34
1539.3  226717.39  58241.99  25.69
1543.0  225730.28  58745.62  26.02
1546.6  225051.67  59296.87  26.35
1550.3  224055.35  59723.87  26.66
1553.9  222975.63  60101.76  26.95
1557.6  221721.13  60398.68  27.24
1561.2  220437.90  60647.30  27.51
1564.9  219127.97  60864.15  27.78
1568.5  217773.97  61056.92  28.04
1572.2  216622.90  61277.07  28.29
1575.8  215530.00  61509.34  28.54
1579.5  214508.80  61723.85  28.77
1583.1  213506.83  61936.13  29.01
1586.8  212268.00  62050.34  29.23
1590.4  211187.63  62212.77  29.46
1594.0  209852.18  62286.55  29.68
1597.7  208712.73  62412.26  29.90
1601.3  207422.78  62478.34  30.12
1604.9  206132.90  62522.72  30.33
1608.6  204785.92  62531.47  30.54
1612.2  203699.10  62591.57  30.73
1615.8  202525.70  62598.02  30.91
1619.5  201402.00  62592.86  31.08
1623.1  200114.40  62499.51  31.23
1626.7  198878.23  62400.04  31.38
1630.3  197658.42  62275.43  31.51
1634.0  196532.00  62156.67  31.63
1637.6  195498.53  62027.64  31.73
1641.2  194466.05  61834.72  31.80
1644.8  193227.73  61517.04  31.84
1648.5  192153.97  61179.64  31.84
1652.1  191167.80  60813.97  31.81
1655.7  190223.20  60432.84  31.77
1659.3  189367.71  60060.66  31.72
1662.9  187920.83  59520.58  31.67
1666.6  186453.67  59005.31  31.65
1670.2  185021.73  58526.85  31.63
1673.8  183528.69  58047.76  31.63
1677.4  182354.95  57653.17  31.62
1681.0  181553.43  57339.21  31.58
1684.6  181153.92  57091.49  31.52
1688.2  180483.25  56674.12  31.40
1691.8  179825.43  56272.72  31.29
1695.4  179388.60  55904.39  31.16
1699.0  179026.87  55536.44  31.02
1702.6  178693.67  55146.82  30.86
1706.2  178087.00  54654.59  30.69
1709.8  177155.93  54058.26  30.51
1713.4  176424.84  53512.42  30.33
1717.0  175554.50  52932.48  30.15
1720.6  174743.93  52374.92  29.97
1724.2  174025.50  51845.19  29.79
1727.8  173330.85  51338.78  29.62
1731.4  172848.50  50921.92  29.46
1735.0  172633.08  50620.06  29.32
1738.6  172344.75  50284.23  29.18
1742.2  171708.27  49809.81  29.01
1745.8  171024.99  49281.92  28.82
1749.4  170026.73  48646.25  28.61
1753.0  168490.07  47853.40  28.40
1756.6  166779.96  47027.57  28.20
1760.1  165458.41  46320.81  28.00
1763.7  163714.00  45524.67  27.81
1767.3  162281.45  44850.44  27.64
1770.9  161039.73  44253.75  27.48
1774.5  159586.93  43635.43  27.34
1778.0  158433.89  43115.76  27.21
1781.6  157317.60  42648.33  27.11
1785.2  156154.83  42199.51  27.02
1788.8  154971.30  41791.77  26.97
1792.3  153734.80  41395.86  26.93
1795.9  153243.57  41225.17  26.90
1799.5  152718.67  41070.17  26.89
1803.1  152109.88  40921.15  26.90
1806.6  152615.17  41082.17  26.92
1810.2  153734.23  41410.19  26.94
1813.8  154646.15  41657.87  26.94
1817.3  154622.60  41641.78  26.93
1820.9  153792.92  41393.08  26.91
1824.5  152572.18  41020.64  26.89
1828.0  151671.21  40709.21  26.84
1831.6  150889.95  40393.02  26.77
1835.2  150195.00  40055.58  26.67
1838.7  149809.60  39732.06  26.52
1842.3  149445.00  39358.22  26.34
1845.8  148665.58  38765.47  26.08
1849.4  148157.65  38092.08  25.71
1852.9  147539.18  37221.85  25.23
1856.5  146645.55  36095.19  24.61
1860.0  145877.07  34761.02  23.83
1863.6  145597.94  33331.68  22.89
1867.1  145414.85  31673.60  21.78
1870.7  145381.80  29679.73  20.42
1874.2  144684.90  27225.61  18.82
1877.8  143430.60  24561.11  17.12
1881.3  141941.13  21821.85  15.37
1884.9  140904.04  19259.24  13.67
1888.4  139838.00  16827.73  12.03
1891.9  138761.47  14706.79  10.60
1895.5  137597.10  12962.99  9.42
1899.0  136961.75  11656.90  8.51
1901.3  169628.67  10815.50  6.38
1904.1  169506.00  9997.50  5.90
1906.8  168720.60  9263.70  5.49
1909.6  166992.00  8685.08  5.20
1912.4  165364.62  8255.98  4.99
1915.1  164143.10  7967.03  4.85
1917.9  162757.67  7749.92  4.76
1920.6  161627.13  7582.34  4.69
1923.3  160547.57  7471.57  4.65
1926.1  159184.73  7394.17  4.65
1928.8  157901.33  7370.00  4.67
1931.6  156874.43  7371.19  4.70
1934.3  155877.90  7407.00  4.75
1937.0  154959.63  7468.45  4.82
1939.8  153954.08  7552.34  4.91
1942.5  152669.00  7634.00  5.00
1945.2  151002.50  7696.43  5.10
1947.9  149647.17  7785.87  5.20
1950.7  148590.07  7920.77  5.33
1953.4  146869.45  8017.23  5.46
1956.1  145544.00  8140.71  5.59
1958.8  144352.43  8291.84  5.74
1961.5  142922.00  8427.20  5.90
1964.2  141432.20  8563.10  6.05
1966.9  139876.80  8706.10  6.22
1969.6  138636.00  8878.50  6.40
1972.3  137255.80  9037.95  6.58
1975.0  136210.35  9226.13  6.77
1977.7  135097.78  9407.39  6.96
1980.4  133963.43  9595.12  7.16
1983.1  132876.87  9780.10  7.36
1985.8  131952.90  9991.95  7.57
1988.4  130918.67  10192.00  7.78
1991.1  129983.47  10394.54  8.00
1993.8  129112.13  10602.81  8.21
1996.5  128474.50  10826.84  8.43
1999.1  127793.78  11046.57  8.64
2001.8  127108.57  11249.23  8.85
2004.5  126419.75  11461.25  9.07
2007.1  125684.50  11660.20  9.28
2009.8  124941.60  11840.62  9.48
2012.4  124355.73  12028.87  9.67
2015.1  123802.00  12220.49  9.87
2017.8  123007.73  12380.20  10.06
2020.4  122494.53  12545.87  10.24
2023.1  122144.40  12721.22  10.41
2025.7  121905.33  12904.67  10.59
2028.3  121567.33  13060.67  10.74
2031.0  121158.55  13194.33  10.89
2033.6  120895.20  13337.10  11.03
2036.2  120660.30  13463.25  11.16
2038.9  120060.00  13537.20  11.28
2041.5  119705.98  13624.15  11.38
2044.1  119137.80  13685.10  11.49
2046.8  118763.70  13763.40  11.59
2049.4  118137.30  13798.20  11.68
2052.0  117856.33  13872.90  11.77
2054.6  117460.00  13921.25  11.85
2057.2  116886.93  13960.24  11.94
2059.8  116555.07  14021.37  12.03
2062.4  115678.88  14025.12  12.12
2065.0  115166.47  14060.67  12.21
2067.6  114266.78  14046.91  12.29
2070.2  113656.62  14073.06  12.38
2072.8  113011.58  14073.06  12.45
2075.4  112560.00  14105.00  12.53
2078.0  111934.80  14119.21  12.61
2080.6  111364.00  14141.60  12.70
2083.2  110670.40  14149.40  12.79
2085.8  110186.92  14163.13  12.85
2088.4  109515.67  14159.84  12.93
2090.9  108709.50  14133.12  13.00
2093.5  107812.47  14105.57  13.08
2096.1  107033.70  14088.47  13.16
2098.7  106260.77  14066.51  13.24
2101.2  105297.80  14021.37  13.32
2103.8  104634.07  14008.27  13.39
2106.4  103952.87  14008.27  13.48
2108.9  103297.87  13995.17  13.55
2111.5  102450.73  13964.60  13.63
2114.0  101813.20  13951.50  13.70
2116.6  101290.00  13956.25  13.78
2119.1  100729.00  13956.54  13.86
2121.7  100240.00  13965.00  13.93
2124.2  99826.03  13974.07  14.00
2126.8  99040.87  13930.37  14.07
2129.3  98639.20  13934.80  14.13
2131.9  98058.40  13912.80  14.19
2134.4  97624.35  13925.48  14.26
2136.9  97228.08  13933.51  14.33
2139.4  96691.00  13920.67  14.40
2142.0  96247.67  13933.97  14.48
2144.5  95977.60  13968.55  14.55
2147.0  95738.53  14011.94  14.64
2149.5  95238.27  14011.94  14.71
2152.1  95070.62  14058.92  14.79
2154.6  95009.60  14112.27  14.85
2157.1  94475.75  14115.50  14.94
2159.6  94048.83  14124.58  15.02
2162.1  93884.70  14164.15  15.09
2164.6  93644.07  14188.64  15.15
2167.1  93330.22  14202.03  15.22
2169.6  93005.38  14207.49  15.28
2172.1  92527.23  14191.63  15.34
2174.6  92203.33  14205.80  15.41
2177.1  91765.75  14194.22  15.47
2179.5  91340.60  14193.95  15.54
2182.0  90844.60  14169.93  15.60
2184.5  90314.58  14140.68  15.66
2187.0  89711.00  14098.12  15.72
2189.5  89039.02  14054.30  15.78
2191.9  88264.50  13988.75  15.85
2194.4  87621.25  13938.23  15.91
2196.9  86880.00  13872.00  15.97
2199.3  86226.67  13823.34  16.03
2201.8  85332.13  13733.74  16.09
2204.3  84865.08  13699.16  16.14
2206.7  84237.20  13637.33  16.19
2209.2  83751.37  13594.53  16.23
2211.6  83130.30  13523.40  16.27
2214.1  82843.70  13497.18  16.29
2216.5  82267.87  13424.90  16.32
2219.0  81920.20  13370.27  16.32
2221.4  81554.67  13298.25  16.31
2223.9  81068.75  13213.96  16.30
2226.3  80553.08  13099.92  16.26
2228.7  79985.82  12976.82  16.22
2231.1  79398.00  12820.50  16.15
2233.6  78791.20  12655.07  16.06
2236.0  78252.42  12485.09  15.95
2238.4  77756.58  12321.46  15.85
2240.9  77311.13  12158.40  15.73
2243.3  76774.73  11964.70  15.58
2245.7  76217.00  11765.88  15.44
2248.1  75726.73  11566.32  15.27
2250.5  75204.45  11371.02  15.12
2252.9  74580.57  11167.65  14.97
2255.3  74018.05  10964.90  14.81
2257.7  73560.00  10770.00  14.64
2260.1  73062.73  10595.20  14.50
2262.5  72450.00  10410.00  14.37
2264.9  71929.92  10227.93  14.22
2267.3  71310.00  10030.00  14.07
2269.7  70825.30  9882.83  13.95
2272.1  70256.90  9716.17  13.83
2274.5  69693.65  9559.04  13.72
2276.8  69215.17  9425.69  13.62
2279.2  68651.55  9281.18  13.52
2281.6  68211.73  9155.64  13.42
2284.0  67750.80  9039.50  13.34
2286.3  67285.33  8927.47  13.27
2288.7  66863.77  8808.58  13.17
2291.1  66322.23  8672.75  13.08
2293.4  65870.93  8562.40  13.00
2295.8  65260.80  8404.80  12.88
2298.2  64656.45  8254.13  12.77
2300.5  63994.05  8098.88  12.66
2302.9  63240.00  7936.00  12.55
2305.2  62521.00  7771.35  12.43
2307.6  61838.10  7624.02  12.33
2309.9  61070.00  7471.00  12.23
2312.2  60481.00  7362.50  12.17
2314.6  59864.40  7250.18  12.11
2316.9  59139.90  7120.80  12.04
2319.2  58561.30  7023.42  11.99
2321.6  57918.23  6915.30  11.94
2323.9  57364.58  6791.67  11.84
2326.2  56830.37  6677.33  11.75
2328.6  56304.60  6583.50  11.69
2330.9  55786.50  6483.75  11.62
2333.2  55319.08  6387.04  11.55
2335.5  54869.60  6291.60  11.47
2337.8  54412.70  6184.24  11.37
2340.1  53830.40  6087.19  11.31
2342.4  53386.67  5990.84  11.22
2344.8  52967.67  5889.55  11.12
2347.1  52398.73  5773.95  11.02
2349.4  51844.43  5679.09  10.95
2351.6  51249.53  5590.96  10.91
2353.9  50764.37  5505.64  10.85
2356.2  50247.33  5419.38  10.79
2358.5  49660.80  5325.60  10.72
2360.8  49067.20  5224.80  10.65
2363.1  48601.82  5142.84  10.58
2365.4  48126.70  5045.45  10.48
2367.7  47652.00  4947.60  10.38
2369.9  47128.20  4854.80  10.30
2372.2  46497.33  4758.67  10.23
2374.5  45899.70  4666.20  10.17
2376.7  45270.15  4553.73  10.06
2379.0  44660.37  4443.93  9.95
2381.3  44041.67  4351.67  9.88
2383.5  43507.20  4270.93  9.82
2385.8  42901.27  4171.29  9.72
2388.0  42373.80  4071.00  9.61
2390.3  41841.87  3981.27  9.52
2392.5  41352.00  3900.00  9.43
2394.8  40885.90  3811.50  9.32
2397.0  40404.00  3731.00  9.23
2399.3  39924.78  3642.82  9.12
2401.5  39481.75  3577.00  9.06
2403.8  38957.62  3485.62  8.95
2406.0  38429.58  3395.96  8.84
2408.2  38010.87  3322.37  8.74
2410.4  37587.32  3251.91  8.65
2412.7  37184.77  3173.08  8.53
2414.9  36811.50  3092.93  8.40
2417.1  36385.50  3016.25  8.29
2419.3  35968.00  2937.60  8.17
2421.6  35611.25  2867.50  8.05
2423.8  35230.43  2807.29  7.97
2426.0  34847.27  2739.48  7.86
2428.2  34469.87  2678.67  7.77
2430.4  34142.00  2620.20  7.67
2432.6  33866.67  2573.34  7.60
2434.8  33577.07  2486.20  7.40
2437.0  33207.20  2431.44  7.32
2439.2  32845.50  2365.42  7.20
2441.4  32501.87  2317.67  7.13
2443.6  32248.10  2265.93  7.03
2445.7  31987.20  2214.39  6.92
2447.9  31702.17  2177.96  6.87
2450.1  31415.80  2128.58  6.78
2452.3  31028.43  2061.04  6.64
2454.5  30678.55  2006.94  6.54
2456.6  30302.40  1954.54  6.45
2458.8  29929.90  1909.05  6.38
2461.0  29626.25  1859.75  6.28
2463.1  29318.25  1804.20  6.15
2465.3  29017.90  1763.32  6.08
2467.5  28777.25  1733.13  6.02
2469.6  28520.67  1693.04  5.94
2471.8  28216.32  1666.85  5.91
2473.9  27874.00  1636.55  5.87
2476.1  27512.33  1600.08  5.82
2478.2  27176.27  1561.42  5.75
2480.4  26877.85  1527.33  5.68
2482.5  26538.43  1494.14  5.63
2484.6  26195.58  1457.04  5.56
2486.8  25920.70  1420.85  5.48
2488.9  25600.57  1388.93  5.43
2491.1  25228.00  1380.40  5.47
2493.2  24828.17  1333.22  5.37
2495.3  24418.77  1306.72  5.35
2497.4  24085.60  1263.85  5.25
2499.5  23773.32  1246.12  5.24
2501.7  23598.27  1232.50  5.22
2503.8  23486.92  1211.96  5.16
2505.9  23421.25  1212.92  5.18
2508.0  23419.78  1199.90  5.12
2510.1  23427.17  1207.13  5.15
2512.2  23506.35  1211.10  5.15
2514.3  23634.25  1214.93  5.14
2516.4  23817.30  1241.10  5.21
