/*** Spectra Vista SIG Data ***/
name= 6_20220824_ACSA_2_avg.sig
comm= Averaged Ref/Tar of files: HR.082422.0016_moc.sig,HR.082422.0017_moc.sig,HR.082422.0018_moc.sig
data=
337.3  3424.13  272.23  7.95
338.8  3559.40  248.29  6.98
340.3  3701.15  250.76  6.78
341.8  3886.63  253.45  6.52
343.2  4084.80  248.64  6.09
344.7  4265.00  252.65  5.92
346.2  4452.65  243.54  5.47
347.7  4679.68  247.19  5.28
349.2  4838.40  221.76  4.58
350.6  5104.78  239.24  4.69
352.1  5358.75  231.36  4.32
353.6  5690.80  245.88  4.32
355.1  5960.48  254.01  4.26
356.6  6260.03  260.95  4.17
358.0  6539.50  253.99  3.88
359.5  6828.90  254.85  3.73
361.0  7152.08  265.05  3.71
362.5  7523.68  278.25  3.70
364.0  7885.63  284.57  3.61
365.4  8261.40  290.63  3.52
366.9  8646.63  293.62  3.40
368.4  9028.03  307.56  3.41
369.9  9431.73  322.24  3.42
371.3  9852.30  329.55  3.34
372.8  10248.30  341.36  3.33
374.3  10696.25  341.95  3.20
375.8  11157.30  351.63  3.15
377.2  11593.90  353.54  3.05
378.7  12024.30  364.81  3.03
380.2  12454.70  369.94  2.97
381.7  12999.03  384.01  2.95
383.1  13501.95  388.08  2.87
384.6  14027.00  403.34  2.88
386.1  14539.45  404.09  2.78
387.6  15038.10  416.83  2.77
389.0  15570.80  422.16  2.71
390.5  16089.30  435.42  2.71
392.0  16689.95  438.82  2.63
393.4  17288.95  455.43  2.63
394.9  17852.40  465.82  2.61
396.4  18423.00  480.04  2.61
397.9  18988.13  494.44  2.60
399.3  19576.23  507.46  2.59
400.8  20164.33  515.59  2.56
402.2  20867.50  528.41  2.53
403.7  21498.98  537.45  2.50
405.2  22088.78  550.61  2.49
406.6  22712.80  559.01  2.46
408.1  23323.20  575.12  2.47
409.6  23947.45  589.10  2.46
411.0  24659.25  606.75  2.46
412.5  25344.03  617.21  2.44
414.0  25998.50  628.72  2.42
415.4  26731.88  653.04  2.44
416.9  27428.33  671.14  2.45
418.4  28143.23  691.87  2.46
419.8  28901.60  714.13  2.47
421.3  29642.98  733.37  2.47
422.7  30467.40  754.00  2.47
424.2  31269.38  774.64  2.48
425.7  32045.80  800.41  2.50
427.1  32836.88  823.50  2.51
428.6  33666.00  851.47  2.53
430.0  34447.25  876.68  2.54
431.5  35357.33  906.02  2.56
432.9  36258.75  934.25  2.58
434.4  37187.70  957.73  2.58
435.9  38038.00  986.13  2.59
437.3  38926.25  1013.31  2.60
438.8  39788.33  1042.82  2.62
440.2  40694.50  1069.02  2.63
441.7  41700.80  1096.76  2.63
443.1  42638.50  1123.35  2.63
444.6  43636.10  1155.79  2.65
446.0  44621.03  1189.50  2.67
447.5  45612.33  1220.37  2.68
448.9  46581.90  1249.21  2.68
450.4  47617.15  1281.93  2.69
451.8  48516.00  1311.14  2.70
453.3  49475.80  1343.61  2.72
454.7  50526.13  1375.22  2.72
456.2  51445.25  1402.61  2.73
457.6  52449.53  1433.45  2.73
459.1  53446.58  1462.45  2.74
460.5  54422.88  1491.12  2.74
462.0  55520.13  1519.18  2.74
463.4  56594.70  1551.36  2.74
464.8  57622.88  1578.31  2.74
466.3  58652.55  1608.47  2.74
467.7  59678.00  1638.33  2.75
469.2  60761.78  1669.96  2.75
470.6  61777.85  1696.44  2.75
472.0  62844.88  1730.82  2.75
473.5  63901.50  1758.23  2.75
474.9  64965.75  1788.99  2.75
476.4  66153.60  1824.00  2.76
477.8  67251.00  1859.59  2.77
479.2  68295.00  1892.73  2.77
480.7  69436.58  1929.17  2.78
482.1  70617.15  1964.92  2.78
483.6  71859.85  2001.26  2.78
485.0  72997.43  2037.81  2.79
486.4  74219.55  2082.17  2.81
487.9  75348.00  2122.99  2.82
489.3  76555.28  2166.96  2.83
490.7  77659.65  2208.19  2.84
492.2  78924.30  2259.88  2.86
493.6  80062.25  2309.40  2.88
495.0  81212.63  2364.79  2.91
496.5  82429.48  2425.43  2.94
497.9  83574.13  2484.41  2.97
499.3  84792.15  2555.41  3.01
500.7  86068.75  2630.30  3.06
502.2  87249.60  2711.71  3.11
503.6  88549.00  2799.58  3.16
505.0  89643.35  2899.86  3.23
506.5  90999.23  3015.51  3.31
507.9  92226.33  3143.75  3.41
509.3  93639.60  3285.32  3.51
510.7  94930.88  3444.82  3.63
512.2  96374.55  3628.13  3.76
513.6  97895.70  3841.43  3.92
515.0  99347.40  4075.67  4.10
516.4  100770.08  4339.44  4.31
517.8  102434.50  4639.99  4.53
519.3  103789.05  4950.11  4.77
520.7  105403.10  5296.72  5.03
522.1  106727.08  5655.75  5.30
523.5  108128.10  6029.42  5.58
524.9  109619.10  6415.67  5.85
526.3  111069.00  6795.34  6.12
527.8  112592.70  7176.37  6.37
529.2  113746.60  7529.47  6.62
530.6  115311.00  7899.61  6.85
532.0  117068.00  8254.13  7.05
533.4  118428.30  8553.03  7.22
534.8  119368.85  8793.74  7.37
536.3  121105.20  9074.96  7.49
537.7  123190.20  9360.48  7.60
539.1  124692.03  9583.69  7.69
540.5  125910.45  9779.09  7.77
541.9  127699.88  10014.81  7.84
543.3  128991.80  10209.15  7.91
544.7  130324.80  10406.79  7.99
546.1  132154.28  10640.38  8.05
547.5  133436.80  10827.31  8.11
549.0  135245.00  11043.79  8.17
550.4  136786.25  11231.53  8.21
551.8  138351.13  11398.88  8.24
553.2  139914.58  11538.46  8.25
554.6  141284.00  11628.39  8.23
556.0  142861.05  11698.26  8.19
557.4  144519.03  11735.89  8.12
558.8  146214.45  11744.59  8.03
560.2  147698.50  11700.03  7.92
561.6  149421.53  11646.21  7.79
563.0  151039.03  11551.83  7.65
564.4  152658.50  11430.17  7.49
565.8  154200.63  11277.48  7.31
567.2  155993.25  11119.80  7.13
568.6  157535.25  10929.06  6.94
570.0  159005.80  10716.20  6.74
571.4  160777.50  10522.97  6.55
572.8  162580.75  10335.87  6.36
574.2  164236.80  10154.24  6.18
575.6  165825.00  9983.14  6.02
577.0  167386.90  9832.72  5.87
578.4  169157.63  9716.85  5.74
579.8  170702.10  9605.56  5.63
581.2  172479.08  9524.35  5.52
582.5  173932.20  9432.20  5.42
583.9  175477.80  9360.66  5.33
585.3  177324.75  9312.63  5.25
586.7  178811.75  9262.46  5.18
588.1  180335.13  9224.70  5.12
589.5  182035.00  9205.70  5.06
590.9  183706.00  9200.09  5.01
592.3  185564.30  9215.52  4.97
593.7  187032.30  9222.33  4.93
595.0  188681.40  9247.92  4.90
596.4  190157.80  9263.32  4.87
597.8  191666.43  9286.24  4.85
599.2  193261.20  9304.36  4.81
600.6  195051.35  9329.79  4.78
602.0  196367.48  9321.04  4.75
603.3  198195.85  9324.46  4.70
604.7  199901.15  9308.64  4.66
606.1  201411.00  9270.97  4.60
607.5  203082.20  9230.55  4.55
608.9  204820.90  9178.53  4.48
610.2  206232.08  9108.99  4.42
611.6  207870.08  9049.85  4.35
613.0  209452.75  8984.87  4.29
614.4  210844.05  8913.47  4.23
615.8  212340.38  8851.05  4.17
617.1  213899.70  8804.04  4.12
618.5  215547.20  8769.49  4.07
619.9  217099.05  8744.91  4.03
621.3  218768.40  8740.05  4.00
622.6  220377.75  8744.79  3.97
624.0  221862.00  8755.88  3.95
625.4  223353.08  8776.81  3.93
626.8  224988.40  8816.08  3.92
628.1  226306.30  8848.96  3.91
629.5  228177.20  8903.99  3.90
630.9  229767.18  8948.90  3.89
632.2  231148.58  8974.12  3.88
633.6  232763.00  8998.29  3.87
635.0  234298.40  8994.45  3.84
636.3  235850.90  8969.31  3.80
637.7  237255.63  8906.92  3.75
639.1  238945.00  8842.33  3.70
640.4  240450.70  8758.72  3.64
641.8  241671.35  8657.18  3.58
643.2  243283.43  8566.85  3.52
644.5  244659.50  8477.39  3.46
645.9  246399.75  8405.12  3.41
647.2  248165.75  8355.58  3.37
648.6  250047.00  8327.96  3.33
650.0  251510.40  8297.69  3.30
651.3  251942.35  8251.35  3.28
652.7  253204.25  8242.24  3.26
654.0  255266.30  8256.65  3.23
655.4  256810.90  8249.75  3.21
656.8  257009.40  8203.56  3.19
658.1  258348.70  8179.35  3.17
659.5  260854.13  8181.61  3.14
660.8  262665.00  8169.00  3.11
662.2  263580.80  8126.29  3.08
663.5  265224.10  8108.59  3.06
664.9  266503.90  8091.13  3.04
666.2  267265.80  8074.88  3.02
667.6  269016.25  8109.72  3.01
668.9  270142.33  8142.47  3.01
670.3  271453.50  8189.25  3.02
671.6  272934.00  8263.37  3.03
673.0  274150.88  8359.88  3.05
674.3  275454.40  8473.77  3.08
675.7  276776.35  8608.83  3.11
677.0  277933.48  8742.04  3.15
678.4  279299.03  8904.81  3.19
679.7  280422.30  9078.08  3.24
681.1  281765.30  9291.68  3.30
682.4  282946.30  9518.15  3.36
683.8  284228.10  9776.20  3.44
685.1  285257.63  10053.18  3.52
686.4  286579.80  10386.22  3.62
687.8  287870.50  10785.95  3.75
689.1  288960.75  11274.18  3.90
690.5  290326.50  11927.66  4.11
691.8  291118.68  12759.38  4.38
693.1  292502.10  13895.02  4.75
694.5  293702.50  15340.87  5.22
695.8  294953.75  17170.40  5.82
697.1  296159.50  19408.57  6.55
698.5  297256.50  22080.83  7.43
699.8  298380.33  25177.46  8.44
701.1  299559.43  28668.54  9.57
702.5  300366.00  32442.79  10.80
703.8  301342.50  36475.29  12.10
705.1  302558.10  40716.11  13.46
706.5  303628.75  45063.68  14.84
707.8  304630.50  49488.01  16.25
709.1  305562.28  53943.15  17.65
710.5  306723.18  58476.62  19.06
711.8  307606.20  62976.48  20.47
713.1  308632.00  67512.51  21.87
714.4  309568.60  72021.35  23.27
715.8  310416.00  76505.14  24.65
717.1  311782.50  81090.06  26.01
718.4  312748.80  85541.55  27.35
719.7  313908.33  89996.32  28.67
721.0  314460.00  94229.57  29.97
722.4  315249.00  98438.70  31.23
723.7  316239.30  102610.11  32.45
725.0  317309.18  106709.67  33.63
726.3  318294.63  110641.25  34.76
727.6  318865.25  114299.77  35.85
729.0  319803.75  117949.78  36.88
730.3  320600.10  121397.01  37.87
731.6  321507.20  124721.62  38.79
732.9  322335.48  127857.33  39.67
734.2  323159.38  130841.67  40.49
735.5  324221.55  133745.67  41.25
736.8  325045.50  136397.79  41.96
738.1  325924.30  138920.00  42.62
739.5  326918.53  141338.56  43.23
740.8  327646.83  143488.30  43.79
742.1  328392.63  145522.22  44.31
743.4  329100.00  147419.52  44.79
744.7  330094.60  149308.37  45.23
746.0  330994.95  151015.02  45.62
747.3  331569.75  152457.66  45.98
748.6  332303.75  153862.87  46.30
749.9  333034.00  155152.65  46.59
751.2  333726.30  156347.61  46.85
752.5  334615.40  157524.61  47.08
753.8  335246.28  158491.30  47.28
755.1  335998.00  159433.98  47.45
756.4  336610.03  160249.42  47.61
757.7  337645.18  161196.64  47.74
759.0  339508.85  162482.11  47.86
760.3  340718.40  163411.48  47.96
761.6  342342.00  164494.40  48.05
762.9  342881.50  165040.87  48.13
764.2  343270.90  165466.77  48.20
765.5  343568.83  165818.19  48.26
766.8  344025.60  166212.20  48.31
768.1  344582.40  166614.96  48.35
769.3  345210.25  167036.55  48.39
770.6  345853.30  167469.48  48.42
771.9  346608.85  167933.73  48.45
773.2  347019.60  168216.72  48.47
774.5  347633.00  168605.44  48.50
775.8  348334.90  169019.24  48.52
777.1  348925.50  169370.38  48.54
778.4  349274.75  169587.21  48.55
779.6  350071.33  170017.37  48.57
780.9  350550.00  170301.14  48.58
782.2  351021.00  170587.53  48.60
783.5  351360.00  170802.32  48.61
784.8  351929.03  171101.06  48.62
786.0  352306.50  171341.02  48.63
787.3  352708.85  171565.13  48.64
788.6  353162.03  171816.20  48.65
789.9  353620.40  172083.55  48.66
791.2  354318.28  172437.16  48.67
792.4  355008.85  172816.63  48.68
793.7  355509.60  173074.98  48.68
795.0  356143.43  173417.23  48.69
796.2  356829.85  173765.87  48.70
797.5  357598.05  174149.51  48.70
798.8  358273.48  174515.39  48.71
800.0  358961.85  174877.49  48.72
801.3  359447.70  175131.76  48.72
802.6  360075.15  175444.12  48.72
803.8  360746.20  175788.18  48.73
805.1  361275.25  176057.05  48.73
806.4  361683.30  176312.28  48.75
807.7  362319.08  176599.52  48.74
808.9  362897.15  176893.10  48.74
810.2  363424.95  177171.19  48.75
811.4  363987.70  177442.88  48.75
812.7  364609.38  177771.91  48.76
814.0  365494.30  178212.42  48.76
815.2  366105.75  178544.47  48.77
816.5  366524.25  178766.08  48.77
817.7  367053.10  179024.03  48.77
819.0  367587.00  179292.91  48.78
820.2  367796.00  179409.37  48.78
821.5  368496.45  179781.31  48.79
822.7  368855.43  179987.53  48.80
824.0  369265.50  180178.92  48.79
825.2  369712.35  180459.94  48.81
826.5  370021.43  180621.12  48.81
827.7  370656.95  180915.21  48.81
829.0  371040.88  181149.34  48.82
830.2  371418.95  181337.39  48.82
831.5  371912.40  181610.82  48.83
832.7  372261.75  181802.25  48.84
834.0  372626.90  181985.30  48.84
835.2  372980.03  182190.72  48.85
836.4  373289.95  182371.64  48.86
837.7  373709.00  182619.93  48.87
838.9  374179.55  182893.06  48.88
840.1  374583.15  183127.05  48.89
841.4  375027.90  183390.33  48.90
842.6  375411.00  183602.53  48.91
843.8  375801.80  183813.13  48.91
845.1  376397.70  184100.31  48.91
846.3  376766.90  184327.27  48.92
847.5  377214.60  184590.80  48.94
848.8  377659.80  184829.09  48.94
850.0  378030.10  185043.04  48.95
851.2  378606.15  185357.39  48.96
852.5  379048.50  185594.30  48.96
853.7  379559.25  185863.07  48.97
854.9  380075.00  186101.09  48.96
856.1  380543.80  186373.50  48.98
857.4  380769.55  186490.33  48.98
858.6  381282.10  186765.92  48.98
859.8  381701.25  187001.97  48.99
861.0  382239.00  187253.49  48.99
862.2  382809.95  187498.56  48.98
863.5  383186.38  187699.93  48.98
864.7  383763.60  187971.77  48.98
865.9  384175.60  188203.19  48.99
867.1  384541.90  188380.55  48.99
868.3  385028.40  188616.30  48.99
869.5  385588.05  188872.83  48.98
870.8  386248.50  189148.80  48.97
872.0  386779.65  189440.36  48.98
873.2  387233.25  189661.86  48.98
874.4  387767.25  189911.56  48.98
875.6  388105.38  190098.51  48.98
876.8  388652.35  190360.12  48.98
878.0  389225.55  190605.31  48.97
879.2  389777.40  190860.10  48.97
880.4  390277.88  191147.64  48.98
881.6  390905.65  191379.53  48.96
882.8  391363.20  191592.37  48.96
884.0  392011.60  191901.32  48.95
885.2  392545.20  192143.18  48.95
886.5  393161.25  192440.64  48.95
887.7  393769.35  192694.65  48.94
888.8  394490.55  193014.46  48.93
890.0  395131.30  193343.77  48.93
891.2  395695.10  193621.68  48.93
892.4  396349.28  193892.63  48.92
893.6  396962.00  194162.69  48.91
894.8  397940.25  194628.63  48.91
896.0  398885.75  195040.43  48.90
897.2  399776.00  195466.51  48.89
898.4  400606.80  195827.53  48.88
899.6  401165.25  196094.23  48.88
900.8  401563.83  196269.22  48.88
902.0  401918.10  196396.87  48.86
903.2  402302.18  196552.21  48.86
904.3  402635.70  196730.88  48.86
905.5  403395.98  197030.58  48.84
906.7  404060.00  197332.18  48.84
907.9  404637.10  197593.01  48.83
909.1  404858.93  197703.41  48.83
910.2  405013.50  197792.31  48.84
911.4  405346.50  197903.66  48.82
912.6  405612.35  198013.05  48.82
913.8  406026.38  198150.49  48.80
915.0  406462.35  198332.54  48.79
916.2  406740.75  198413.24  48.78
917.3  406751.85  198399.66  48.78
918.5  407082.90  198453.30  48.75
919.7  407278.80  198582.87  48.76
920.8  407455.58  198594.92  48.74
922.0  407753.50  198644.60  48.72
923.2  407998.50  198736.20  48.71
924.4  408206.25  198801.39  48.70
925.5  408553.60  198897.30  48.68
926.7  409043.38  199129.74  48.68
927.9  410085.60  199503.93  48.65
929.0  411578.55  200149.22  48.63
930.2  413975.80  201194.04  48.60
931.4  416465.55  202388.34  48.60
932.5  419240.90  203664.09  48.58
933.7  420777.33  204278.93  48.55
934.9  421360.63  204536.00  48.54
936.0  421144.75  204234.02  48.49
937.2  419084.85  203128.48  48.47
938.3  417373.55  202206.93  48.45
939.5  415893.60  201428.57  48.43
940.7  415998.00  201443.88  48.42
941.8  417686.93  202139.72  48.40
943.0  419086.50  202702.73  48.37
944.2  420095.00  202953.72  48.31
945.3  419776.50  202663.50  48.28
946.5  418834.80  202190.20  48.27
947.6  419158.60  202167.43  48.23
948.8  419094.00  202004.05  48.20
949.9  419475.00  201908.24  48.13
951.1  419097.25  201540.99  48.09
952.2  418812.00  201217.83  48.04
953.4  418645.00  200866.70  47.98
954.5  418672.80  200655.67  47.93
955.7  418761.00  200438.16  47.86
956.8  418368.00  200181.62  47.85
958.0  418192.00  199780.34  47.77
959.1  418042.70  199515.10  47.73
960.3  417634.60  199175.87  47.69
961.4  417499.00  198992.22  47.66
962.6  417644.50  198933.13  47.63
963.7  417543.15  198811.38  47.61
964.9  417454.58  198701.83  47.60
966.0  417652.20  198568.49  47.54
967.2  417621.15  198595.52  47.55
968.3  417064.95  198380.11  47.57
969.5  416846.33  198269.26  47.56
970.6  416918.90  198219.34  47.54
971.8  417099.03  198350.53  47.55
972.9  417132.60  198259.90  47.53
974.0  417477.90  198426.54  47.53
975.2  417195.88  198378.81  47.55
976.3  417323.10  198342.86  47.53
977.5  417127.03  198358.19  47.55
978.6  416904.20  198281.94  47.56
979.7  417079.95  198471.97  47.59
980.9  417105.63  198424.18  47.57
982.0  416116.65  198425.04  47.68
983.2  415892.95  198326.49  47.69
984.3  416007.00  198140.00  47.63
985.4  415995.43  198137.14  47.63
986.6  415762.63  198169.37  47.66
987.7  416771.78  198785.76  47.70
988.9  416397.60  198442.15  47.66
990.0  416972.10  198766.06  47.67
993.1  368985.23  174380.74  47.26
996.9  369432.93  175075.33  47.39
1000.7  370278.53  175923.74  47.51
1004.5  370721.50  176484.69  47.61
1008.4  370359.00  176725.14  47.72
1012.2  370222.46  177060.26  47.83
1016.0  370110.00  177421.28  47.94
1019.8  370090.88  177771.83  48.03
1023.7  369931.25  177978.94  48.11
1027.5  369526.57  178058.22  48.19
1031.3  369748.90  178288.96  48.22
1035.1  369568.50  178321.85  48.25
1038.9  369515.67  178382.02  48.27
1042.7  369355.50  178375.02  48.29
1046.5  369176.83  178332.00  48.31
1050.3  369214.65  178382.18  48.31
1054.2  368897.67  178292.00  48.33
1058.0  368377.39  178043.07  48.33
1061.8  368207.69  177987.69  48.34
1065.6  367938.37  177801.62  48.32
1069.4  367985.33  177786.45  48.31
1073.2  367526.07  177530.55  48.30
1077.0  366965.55  177229.00  48.30
1080.8  366396.88  176869.79  48.27
1084.6  365289.28  176253.82  48.25
1088.4  364618.55  175848.40  48.23
1092.2  363811.50  175307.79  48.19
1096.0  363254.93  174877.13  48.14
1099.8  362739.00  174439.91  48.09
1103.6  362087.40  173947.48  48.04
1107.4  361163.68  173303.21  47.98
1111.2  360931.00  172978.59  47.93
1114.9  360255.00  172411.67  47.86
1118.7  359642.25  171805.31  47.77
1122.5  358911.80  171106.13  47.67
1126.3  357808.15  170144.91  47.55
1130.1  357290.38  169313.85  47.39
1133.9  355710.60  167750.60  47.16
1137.7  354300.20  166106.44  46.88
1141.4  352550.36  164124.92  46.55
1145.2  351819.00  162474.65  46.18
1149.0  350702.92  160717.29  45.83
1152.8  349027.35  158870.07  45.52
1156.6  347389.35  157272.50  45.27
1160.3  345679.33  155900.19  45.10
1164.1  343337.87  154432.11  44.98
1167.9  341550.00  153401.79  44.91
1171.7  340247.25  152691.75  44.88
1175.4  339033.47  152095.72  44.86
1179.2  337975.90  151543.02  44.84
1183.0  337652.33  151294.24  44.81
1186.7  337097.60  150927.67  44.77
1190.5  336087.00  150349.20  44.74
1194.3  334904.67  149729.83  44.71
1198.0  333701.50  149154.85  44.70
1201.8  332176.18  148504.11  44.71
1205.6  330935.33  148034.91  44.73
1209.3  330007.82  147763.29  44.78
1213.1  329113.20  147479.80  44.81
1216.8  328246.69  147244.55  44.86
1220.6  327219.20  146936.53  44.90
1224.3  326052.92  146559.56  44.95
1228.1  324814.20  146206.72  45.01
1231.9  323577.20  145804.88  45.06
1235.6  322114.58  145275.22  45.10
1239.4  320741.13  144812.04  45.15
1243.1  319481.64  144343.06  45.18
1246.9  318281.40  143870.10  45.20
1250.6  317294.47  143464.10  45.21
1254.3  316185.47  143006.80  45.23
1258.1  315179.78  142559.10  45.23
1261.8  313841.07  141974.06  45.24
1265.6  312393.00  141288.73  45.23
1269.3  310929.18  140559.71  45.21
1273.1  310908.00  140421.09  45.16
1276.8  311206.40  140386.34  45.11
1280.6  311032.13  140161.79  45.06
1284.3  309615.60  139362.51  45.01
1288.0  308088.18  138481.09  44.95
1291.8  306788.84  137601.72  44.85
1295.5  305436.27  136665.47  44.74
1299.2  304230.97  135718.54  44.61
1302.9  302817.28  134617.42  44.45
1306.7  301302.63  133401.22  44.27
1310.4  299815.35  132113.25  44.06
1314.1  298474.92  130815.51  43.83
1317.9  297216.46  129475.06  43.56
1321.6  295812.13  127965.92  43.26
1325.3  294177.45  126250.05  42.92
1329.0  292843.95  124611.57  42.55
1332.8  290782.80  122555.40  42.15
1336.5  288982.73  120591.40  41.73
1340.2  288621.67  119220.83  41.31
1343.9  288197.92  117801.58  40.88
1347.6  287586.30  116314.22  40.44
1351.4  287788.50  115198.22  40.03
1355.1  288088.53  114157.42  39.63
1358.8  288192.00  112971.43  39.20
1362.5  287656.20  111429.58  38.74
1366.2  285935.75  109222.45  38.20
1369.9  284099.00  106698.14  37.56
1373.6  282115.52  103729.77  36.77
1377.3  280285.20  100240.42  35.76
1381.0  279101.33  96210.14  34.47
1384.8  277111.25  91053.39  32.86
1388.4  274769.48  85236.83  31.02
1392.2  272918.08  79136.89  29.00
1395.9  271351.33  72929.78  26.88
1399.6  269733.00  66934.50  24.82
1403.3  268569.28  61565.56  22.92
1407.0  267465.20  56914.74  21.28
1410.7  266286.90  53064.35  19.93
1414.3  265119.34  50035.75  18.87
1418.1  264010.63  47771.17  18.09
1421.7  263094.24  46138.97  17.54
1425.4  262149.55  44984.88  17.16
1429.1  261236.63  44214.11  16.92
1432.8  259769.09  43643.00  16.80
1436.5  258942.25  43391.16  16.76
1440.2  258157.60  43295.35  16.77
1443.9  256898.31  43228.39  16.83
1447.6  255332.00  43186.00  16.91
1451.2  254270.50  43263.16  17.01
1454.9  253005.00  43352.81  17.14
1458.6  251955.38  43573.95  17.29
1462.3  250816.13  43901.63  17.50
1466.0  249490.96  44358.68  17.78
1469.7  247826.15  44946.93  18.14
1473.3  246811.83  45790.50  18.55
1477.0  244919.93  46586.73  19.02
1480.7  243370.18  47514.50  19.52
1484.4  241483.24  48377.94  20.03
1488.0  239976.00  49347.05  20.56
1491.7  238384.06  50272.46  21.09
1495.4  236689.38  51170.46  21.62
1499.0  235117.50  52040.50  22.13
1502.7  233852.75  52970.95  22.65
1506.4  232461.42  53829.39  23.16
1510.0  231087.83  54648.74  23.65
1513.7  229638.50  55414.92  24.13
1517.4  228330.00  56164.14  24.60
1521.0  227139.60  56903.62  25.05
1524.7  225938.92  57578.70  25.48
1528.3  224658.13  58207.11  25.91
1532.0  223466.83  58799.95  26.31
1535.7  222065.17  59291.28  26.70
1539.3  220827.53  59778.51  27.07
1543.0  219874.80  60309.88  27.43
1546.6  219193.00  60874.20  27.77
1550.3  218224.60  61320.22  28.10
1553.9  217193.90  61700.56  28.41
1557.6  215938.80  61995.37  28.71
1561.2  214690.50  62234.94  28.99
1564.9  213404.48  62443.67  29.26
1568.5  212109.57  62605.90  29.52
1572.2  210974.80  62791.46  29.76
1575.8  209916.00  62976.00  30.00
1579.5  208927.25  63148.09  30.22
1583.1  207929.58  63306.76  30.45
1586.8  206724.00  63372.00  30.66
1590.4  205672.53  63468.75  30.86
1594.0  204345.81  63463.11  31.06
1597.7  203213.49  63498.70  31.25
1601.3  201951.23  63473.63  31.43
1604.9  200721.70  63424.58  31.60
1608.6  199472.25  63324.52  31.75
1612.2  198453.75  63284.81  31.89
1615.8  197340.98  63188.96  32.02
1619.5  196225.00  63074.31  32.14
1623.1  194932.77  62879.93  32.26
1626.7  193721.45  62677.87  32.35
1630.3  192523.17  62469.93  32.45
1634.0  191324.00  62228.00  32.52
1637.6  190167.27  61977.73  32.59
1641.2  189028.70  61661.44  32.62
1644.8  187711.38  61230.17  32.62
1648.5  186615.94  60835.74  32.60
1652.1  185612.40  60422.53  32.55
1655.7  184699.40  60013.26  32.49
1659.3  183860.12  59653.10  32.44
1662.9  182480.83  59149.88  32.41
1666.6  181108.33  58674.07  32.40
1670.2  179777.97  58207.53  32.38
1673.8  178407.74  57711.63  32.35
1677.4  177339.10  57279.84  32.30
1681.0  176556.80  56893.16  32.22
1684.6  176154.33  56556.65  32.11
1688.2  175460.00  56036.02  31.94
1691.8  174819.28  55554.53  31.78
1695.4  174404.40  55126.43  31.61
1699.0  174073.67  54735.30  31.44
1702.6  173791.67  54335.62  31.26
1706.2  173216.98  53800.72  31.06
1709.8  172361.29  53180.40  30.85
1713.4  171677.13  52640.08  30.66
1717.0  170834.50  52124.39  30.51
1720.6  170045.48  51666.07  30.38
1724.2  169339.05  51250.32  30.26
1727.8  168605.15  50845.35  30.16
1731.4  168114.38  50508.86  30.04
1735.0  167885.48  50254.13  29.93
1738.6  167647.95  49938.82  29.79
1742.2  167102.29  49493.74  29.62
1745.8  166472.23  48993.47  29.43
1749.4  165543.68  48379.77  29.22
1753.0  164078.60  47600.79  29.01
1756.6  162451.63  46803.42  28.81
1760.1  161131.58  46119.57  28.62
1763.7  159436.00  45347.24  28.44
1767.3  158047.63  44681.71  28.27
1770.9  156839.61  44081.80  28.11
1774.5  155418.39  43443.78  27.95
1778.0  154301.76  42925.14  27.82
1781.6  153227.10  42476.27  27.72
1785.2  152083.05  42048.54  27.65
1788.8  150924.50  41673.84  27.61
1792.3  149713.20  41295.39  27.58
1795.9  149231.23  41134.80  27.56
1799.5  148723.67  40979.52  27.55
1803.1  148137.62  40804.40  27.54
1806.6  148747.32  40907.98  27.50
1810.2  149990.87  41179.07  27.45
1813.8  151014.75  41399.12  27.41
1817.3  151018.00  41363.88  27.39
1820.9  150212.07  41107.63  27.37
1824.5  148937.33  40721.15  27.34
1828.0  148016.00  40400.97  27.30
1831.6  147184.03  40081.42  27.23
1835.2  146455.00  39723.33  27.12
1838.7  146045.47  39370.80  26.96
1842.3  145635.00  38952.86  26.75
1845.8  144842.67  38316.55  26.45
1849.4  144335.33  37621.94  26.07
1852.9  143681.94  36729.54  25.56
1856.5  142825.90  35583.29  24.91
1860.0  142075.50  34234.81  24.10
1863.6  141820.28  32762.69  23.10
1867.1  141659.00  31039.05  21.91
1870.7  141571.10  28944.88  20.45
1874.2  140810.40  26343.96  18.71
1877.8  139571.07  23508.07  16.84
1881.3  138123.00  20569.98  14.89
1884.9  137093.73  17805.39  12.99
1888.4  136020.58  15186.43  11.16
1891.9  134915.20  12915.48  9.57
1895.5  133718.25  11075.95  8.28
1899.0  133006.63  9729.68  7.32
1901.3  167027.00  8077.56  4.84
1904.1  166893.75  7234.75  4.33
1906.8  166069.80  6580.00  3.96
1909.6  164308.20  6088.25  3.71
1912.4  162601.48  5734.24  3.53
1915.1  161334.80  5487.72  3.40
1917.9  159895.00  5311.00  3.32
1920.6  158647.10  5195.96  3.28
1923.3  157433.03  5113.58  3.25
1926.1  155931.30  5079.92  3.26
1928.8  154528.00  5055.11  3.27
1931.6  153365.00  5070.72  3.31
1934.3  152229.58  5111.10  3.36
1937.0  151155.07  5182.86  3.43
1939.8  150027.33  5266.55  3.51
1942.5  148687.00  5360.67  3.61
1945.2  146979.25  5444.45  3.70
1947.9  145583.67  5548.43  3.81
1950.7  144507.60  5680.94  3.93
1953.4  142829.80  5790.48  4.05
1956.1  141523.08  5929.36  4.19
1958.8  140364.90  6093.10  4.34
1961.5  138975.20  6246.80  4.49
1964.2  137528.30  6409.43  4.66
1966.9  136012.45  6579.35  4.84
1969.6  134829.00  6777.00  5.03
1972.3  133482.20  6968.70  5.22
1975.0  132466.80  7171.45  5.41
1977.7  131377.15  7379.55  5.62
1980.4  130272.67  7591.94  5.83
1983.1  129189.72  7815.94  6.05
1985.8  128290.20  8047.50  6.27
1988.4  127296.00  8279.56  6.50
1991.1  126409.27  8512.47  6.73
1993.8  125553.45  8754.53  6.97
1996.5  124941.67  9015.91  7.22
1999.1  124278.18  9265.79  7.46
2001.8  123612.07  9516.81  7.70
2004.5  122951.10  9757.20  7.94
2007.1  122259.10  9990.75  8.17
2009.8  121531.43  10218.99  8.41
2012.4  120960.77  10449.15  8.64
2015.1  120417.73  10679.43  8.87
2017.8  119666.63  10880.88  9.09
2020.4  119185.73  11095.39  9.31
2023.1  118855.10  11315.42  9.52
2025.7  118638.00  11535.33  9.72
2028.3  118317.33  11734.67  9.92
2031.0  117919.67  11922.22  10.11
2033.6  117650.10  12098.80  10.28
2036.2  117397.80  12264.10  10.45
2038.9  116823.60  12394.60  10.61
2041.5  116480.82  12540.38  10.77
2044.1  115953.60  12655.60  10.91
2046.8  115605.60  12771.60  11.05
2049.4  114987.90  12864.40  11.19
2052.0  114721.07  12980.65  11.31
2054.6  114362.50  13081.25  11.44
2057.2  113795.33  13166.96  11.57
2059.8  113463.47  13292.13  11.71
2062.4  112601.90  13345.22  11.85
2065.0  112101.07  13434.78  11.98
2067.6  111233.38  13478.87  12.12
2070.2  110649.37  13539.89  12.24
2072.8  110021.77  13606.72  12.37
2075.4  109593.75  13687.92  12.49
2078.0  108983.60  13748.84  12.62
2080.6  108451.20  13810.13  12.73
2083.2  107786.17  13851.33  12.85
2085.8  107305.98  13906.95  12.96
2088.4  106653.67  13941.94  13.07
2090.9  105870.53  13947.97  13.17
2093.5  105007.13  13939.00  13.27
2096.1  104258.17  13945.00  13.38
2098.7  103511.58  13947.93  13.47
2101.2  102573.00  13923.84  13.57
2103.8  101918.00  13929.67  13.67
2106.4  101280.47  13938.40  13.76
2108.9  100642.93  13938.40  13.85
2111.5  99813.27  13912.20  13.94
2114.0  99201.93  13909.29  14.02
2116.6  98700.00  13915.42  14.10
2119.1  98142.83  13915.62  14.18
2121.7  97667.50  13918.33  14.25
2124.2  97283.70  13924.39  14.31
2126.8  96511.27  13874.74  14.38
2129.3  96113.60  13871.73  14.43
2131.9  95550.40  13845.33  14.49
2134.4  95128.65  13838.45  14.55
2136.9  94749.63  13831.35  14.60
2139.4  94252.67  13811.31  14.65
2142.0  93827.07  13805.40  14.71
2144.5  93556.80  13821.70  14.77
2147.0  93335.47  13846.67  14.84
2149.5  92853.07  13831.78  14.90
2152.1  92690.03  13858.29  14.95
2154.6  92625.07  13893.15  15.00
2157.1  92114.08  13867.22  15.05
2159.6  91705.33  13855.11  15.11
2162.1  91555.10  13880.53  15.16
2164.6  91315.07  13891.80  15.21
2167.1  91016.02  13891.32  15.26
2169.6  90692.00  13883.37  15.31
2172.1  90246.60  13850.00  15.35
2174.6  89942.27  13853.67  15.40
2177.1  89519.18  13838.36  15.46
2179.5  89123.23  13819.72  15.51
2182.0  88647.35  13800.60  15.57
2184.5  88137.65  13771.61  15.63
2187.0  87550.77  13731.79  15.68
2189.5  86886.30  13678.13  15.74
2191.9  86127.00  13607.17  15.80
2194.4  85520.25  13561.00  15.86
2196.9  84787.20  13488.00  15.91
2199.3  84148.33  13420.55  15.95
2201.8  83268.67  13321.69  16.00
2204.3  82813.40  13285.22  16.04
2206.7  82188.40  13218.70  16.08
2209.2  81735.17  13174.48  16.12
2211.6  81140.40  13101.00  16.15
2214.1  80853.70  13070.98  16.17
2216.5  80281.20  12996.11  16.19
2219.0  79943.47  12953.07  16.20
2221.4  79581.25  12894.97  16.20
2223.9  79125.08  12809.03  16.19
2226.3  78629.25  12716.47  16.17
2228.7  78078.33  12594.66  16.13
2231.1  77497.20  12464.10  16.08
2233.6  76923.73  12317.33  16.01
2236.0  76378.17  12164.44  15.93
2238.4  75892.25  12009.08  15.82
2240.9  75463.53  11860.40  15.72
2243.3  74937.07  11681.60  15.59
2245.7  74376.25  11495.57  15.46
2248.1  73912.80  11312.17  15.30
2250.5  73407.45  11121.44  15.15
2252.9  72796.53  10906.86  14.98
2255.3  72246.95  10712.83  14.83
2257.7  71800.00  10526.67  14.66
2260.1  71326.97  10334.33  14.49
2262.5  70730.00  10130.00  14.32
2264.9  70202.80  9950.06  14.17
2267.3  69610.00  9760.00  14.02
2269.7  69139.70  9598.55  13.88
2272.1  68594.13  9429.02  13.75
2274.5  68036.42  9264.53  13.62
2276.8  67572.43  9121.85  13.50
2279.2  67013.40  8974.65  13.39
2281.6  66601.07  8831.82  13.26
2284.0  66144.90  8692.73  13.14
2286.3  65694.40  8555.91  13.02
2288.7  65275.17  8425.01  12.91
2291.1  64756.53  8282.18  12.79
2293.4  64320.67  8134.62  12.65
2295.8  63726.10  7975.63  12.52
2298.2  63155.70  7821.15  12.38
2300.5  62514.00  7665.90  12.26
2302.9  61772.67  7502.00  12.14
2305.2  61058.40  7340.47  12.02
2307.6  60404.08  7207.91  11.93
2309.9  59633.67  7074.89  11.86
2312.2  59055.00  6964.67  11.79
2314.6  58456.80  6848.25  11.72
2316.9  57763.35  6727.50  11.65
2319.2  57203.27  6624.30  11.58
2321.6  56589.17  6499.97  11.49
2323.9  56031.25  6388.89  11.40
2326.2  55494.90  6273.91  11.31
2328.6  54977.45  6168.98  11.22
2330.9  54484.50  6069.00  11.14
2333.2  54027.92  5972.53  11.05
2335.5  53585.60  5885.00  10.98
2337.8  53151.05  5779.87  10.87
2340.1  52601.10  5675.63  10.79
2342.4  52184.17  5582.78  10.70
2344.8  51745.00  5487.44  10.60
2347.1  51181.43  5380.98  10.51
2349.4  50654.63  5295.34  10.45
2351.6  50081.77  5181.51  10.35
2353.9  49594.83  5097.40  10.28
2356.2  49080.08  5006.21  10.20
2358.5  48507.20  4909.33  10.12
2360.8  47947.20  4819.73  10.05
2363.1  47502.58  4737.17  9.97
2365.4  47019.30  4655.60  9.90
2367.7  46569.00  4579.00  9.83
2369.9  46040.45  4488.40  9.75
2372.2  45419.47  4391.73  9.67
2374.5  44860.20  4292.75  9.57
2376.7  44247.88  4189.74  9.47
2379.0  43648.27  4087.18  9.36
2381.3  43038.33  3993.89  9.28
2383.5  42533.33  3891.55  9.15
2385.8  41924.63  3788.87  9.04
2388.0  41406.20  3701.27  8.94
2390.3  40892.53  3611.42  8.83
2392.5  40416.00  3528.00  8.73
2394.8  39966.30  3440.43  8.61
2397.0  39506.13  3360.93  8.51
2399.3  39047.58  3273.26  8.38
2401.5  38612.00  3193.17  8.27
2403.8  38070.82  3112.01  8.17
2406.0  37572.83  3025.53  8.05
2408.2  37175.60  2946.29  7.93
2410.4  36763.42  2875.33  7.82
2412.7  36355.37  2802.37  7.71
2414.9  36001.90  2740.83  7.61
2417.1  35598.10  2671.23  7.50
2419.3  35200.00  2602.67  7.39
2421.6  34810.42  2535.97  7.29
2423.8  34439.47  2463.67  7.15
2426.0  34081.25  2401.92  7.05
2428.2  33725.07  2334.58  6.92
2430.4  33414.17  2267.31  6.79
2432.6  33146.67  2204.44  6.65
2434.8  32841.90  2160.94  6.58
2437.0  32481.80  2095.60  6.45
2439.2  32142.63  2036.51  6.34
2441.4  31833.83  1972.29  6.20
2443.6  31584.90  1929.73  6.11
2445.7  31320.80  1883.51  6.01
2447.9  31034.17  1832.36  5.90
2450.1  30741.40  1784.35  5.80
2452.3  30364.95  1736.35  5.72
2454.5  30011.93  1683.09  5.61
2456.6  29646.13  1631.16  5.50
2458.8  29286.40  1577.77  5.39
2461.0  28991.92  1528.16  5.27
2463.1  28692.60  1488.95  5.19
2465.3  28417.93  1453.58  5.11
2467.5  28157.75  1420.92  5.05
2469.6  27924.00  1387.25  4.97
2471.8  27630.67  1356.50  4.91
2473.9  27300.83  1332.36  4.88
2476.1  26936.00  1284.11  4.77
2478.2  26597.40  1238.98  4.66
2480.4  26309.90  1207.53  4.59
2482.5  25965.55  1176.73  4.53
2484.6  25665.75  1147.97  4.47
2486.8  25371.20  1125.17  4.43
2488.9  25048.15  1115.36  4.45
2491.1  24720.27  1073.65  4.34
2493.2  24317.23  1043.16  4.29
2495.3  23921.73  1031.48  4.31
2497.4  23618.70  1019.67  4.32
2499.5  23287.82  992.58  4.26
2501.7  23138.13  958.61  4.14
2503.8  23035.57  947.28  4.11
2505.9  22960.00  956.67  4.17
2508.0  22946.83  963.42  4.20
2510.1  22944.32  947.82  4.13
2512.2  23047.60  929.73  4.03
2514.3  23197.63  936.51  4.04
2516.4  23403.60  998.13  4.26
