/*** Spectra Vista SIG Data ***/
name= 42_20220926_ACSA_24_avg.sig
comm= Averaged Ref/Tar of files: HR.092722.0041_moc.sig,HR.092722.0042_moc.sig,HR.092722.0043_moc.sig
data=
337.3  3225.63  187.16  5.80
338.8  3318.90  168.58  5.08
340.3  3466.90  181.15  5.23
341.8  3612.28  181.16  5.02
343.2  3818.40  183.52  4.81
344.7  4009.10  170.60  4.26
346.2  4207.55  178.18  4.23
347.7  4365.08  180.52  4.14
349.2  4573.80  185.76  4.06
350.6  4847.70  176.98  3.65
352.1  5108.68  181.69  3.56
353.6  5378.50  193.66  3.60
355.1  5657.40  192.43  3.40
356.6  5997.83  202.27  3.37
358.0  6252.40  199.91  3.20
359.5  6550.80  204.82  3.13
361.0  6852.83  202.35  2.95
362.5  7230.93  219.14  3.03
364.0  7598.88  225.03  2.96
365.4  7952.30  243.53  3.06
366.9  8342.75  245.73  2.95
368.4  8700.73  252.49  2.90
369.9  9080.40  272.31  3.00
371.3  9505.20  283.27  2.98
372.8  9929.70  297.36  2.99
374.3  10373.75  301.00  2.90
375.8  10780.00  309.03  2.87
377.2  11190.40  307.43  2.75
378.7  11674.60  313.58  2.69
380.2  12078.10  323.31  2.68
381.7  12593.65  334.60  2.66
383.1  13043.80  343.42  2.63
384.6  13568.43  350.93  2.59
386.1  14053.00  355.19  2.53
387.6  14526.05  366.52  2.52
389.0  15008.00  374.18  2.49
390.5  15478.65  382.83  2.47
392.0  16055.15  397.00  2.47
393.4  16632.08  401.38  2.41
394.9  17199.90  417.60  2.43
396.4  17724.38  436.18  2.46
397.9  18296.25  441.24  2.41
399.3  18841.80  454.40  2.41
400.8  19416.58  466.69  2.40
402.2  20081.90  483.05  2.41
403.7  20680.43  501.68  2.43
405.2  21307.50  512.73  2.41
406.6  21877.60  525.42  2.40
408.1  22464.40  535.51  2.38
409.6  23069.45  550.21  2.39
411.0  23762.55  569.74  2.40
412.5  24448.55  592.62  2.42
414.0  25102.00  607.37  2.42
415.4  25797.75  632.21  2.45
416.9  26483.85  652.41  2.46
418.4  27190.80  676.21  2.49
419.8  27918.80  697.84  2.50
421.3  28644.78  722.17  2.52
422.7  29440.80  745.05  2.53
424.2  30223.13  766.93  2.54
425.7  30986.30  788.30  2.54
427.1  31760.78  814.76  2.57
428.6  32565.50  840.84  2.58
430.0  33339.48  862.52  2.59
431.5  34223.03  887.54  2.59
432.9  35116.05  911.09  2.59
434.4  36013.05  936.99  2.60
435.9  36876.00  962.67  2.61
437.3  37730.00  993.40  2.63
438.8  38607.30  1016.44  2.63
440.2  39495.23  1042.07  2.64
441.7  40481.40  1066.13  2.63
443.1  41406.25  1095.08  2.64
444.6  42391.60  1125.35  2.65
446.0  43349.48  1159.35  2.67
447.5  44332.75  1193.53  2.69
448.9  45291.90  1223.41  2.70
450.4  46322.15  1257.51  2.71
451.8  47216.00  1285.39  2.72
453.3  48168.30  1311.73  2.72
454.7  49195.45  1343.85  2.73
456.2  50069.85  1371.12  2.74
457.6  51068.93  1403.86  2.75
459.1  52074.10  1434.02  2.75
460.5  53031.88  1463.61  2.76
462.0  54140.58  1489.81  2.75
463.4  55197.30  1517.18  2.75
464.8  56207.63  1551.62  2.76
466.3  57179.93  1579.35  2.76
467.7  58171.98  1615.54  2.78
469.2  59269.83  1648.79  2.78
470.6  60288.55  1674.49  2.78
472.0  61367.00  1704.28  2.78
473.5  62404.25  1734.01  2.78
474.9  63483.75  1769.44  2.79
476.4  64656.00  1805.62  2.79
477.8  65728.50  1841.91  2.80
479.2  66743.50  1872.85  2.81
480.7  67873.28  1907.67  2.81
482.1  69027.65  1945.66  2.82
483.6  70255.90  1985.57  2.83
485.0  71376.23  2027.05  2.84
486.4  72589.95  2073.03  2.86
487.9  73695.38  2115.75  2.87
489.3  74861.90  2162.19  2.89
490.7  75936.83  2209.03  2.91
492.2  77175.00  2266.60  2.94
493.6  78304.25  2325.30  2.97
495.0  79443.00  2387.64  3.01
496.5  80639.13  2449.75  3.04
497.9  81783.78  2519.63  3.08
499.3  82972.45  2598.17  3.13
500.7  84266.80  2692.81  3.20
502.2  85453.80  2793.47  3.27
503.6  86753.20  2908.60  3.35
505.0  87856.05  3025.43  3.44
506.5  89181.90  3174.51  3.56
507.9  90373.20  3331.81  3.69
509.3  91715.60  3524.09  3.84
510.7  92971.13  3731.19  4.01
512.2  94391.48  3973.87  4.21
513.6  95915.40  4250.61  4.43
515.0  97384.35  4561.75  4.68
516.4  98813.93  4897.80  4.96
517.8  100485.25  5286.52  5.26
519.3  101832.63  5682.28  5.58
520.7  103422.05  6118.57  5.92
522.1  104742.63  6554.94  6.26
523.5  106112.60  7005.07  6.60
524.9  107624.25  7458.87  6.93
526.3  109117.40  7904.80  7.24
527.8  110632.50  8343.72  7.54
529.2  111660.60  8728.85  7.82
530.6  113201.30  9134.05  8.07
532.0  114884.00  9524.80  8.29
533.4  116256.30  9852.86  8.48
534.8  117199.95  10117.00  8.63
536.3  118796.10  10415.83  8.77
537.7  120758.40  10723.92  8.88
539.1  122214.70  10969.48  8.98
540.5  123428.15  11186.76  9.06
541.9  125203.58  11442.16  9.14
543.3  126526.33  11660.77  9.22
544.7  127873.80  11877.71  9.29
546.1  129707.60  12139.42  9.36
547.5  130950.40  12337.49  9.42
549.0  132605.00  12566.61  9.48
550.4  134119.38  12766.39  9.52
551.8  135719.88  12949.56  9.54
553.2  137232.98  13095.94  9.54
554.6  138569.60  13187.20  9.52
556.0  140107.95  13258.25  9.46
557.4  141731.28  13297.22  9.38
558.8  143409.60  13300.64  9.27
560.2  144886.88  13250.75  9.15
561.6  146585.93  13175.41  8.99
563.0  148189.83  13055.44  8.81
564.4  149810.00  12904.76  8.61
565.8  151331.88  12718.83  8.40
567.2  153101.50  12526.92  8.18
568.6  154599.00  12296.21  7.95
570.0  156042.55  12047.62  7.72
571.4  157771.90  11819.08  7.49
572.8  159565.88  11597.97  7.27
574.2  161201.60  11383.68  7.06
575.6  162765.00  11187.00  6.87
577.0  164313.30  11008.35  6.70
578.4  166029.50  10862.80  6.54
579.8  167592.38  10727.49  6.40
581.2  169319.10  10622.76  6.27
582.5  170761.50  10518.19  6.16
583.9  172291.80  10430.75  6.05
585.3  174093.08  10372.71  5.96
586.7  175601.08  10310.35  5.87
588.1  177097.75  10259.37  5.79
589.5  178764.25  10231.90  5.72
590.9  180420.00  10217.84  5.66
592.3  182238.55  10226.94  5.61
593.7  183711.45  10224.02  5.57
595.0  185334.08  10235.82  5.52
596.4  186803.75  10239.38  5.48
597.8  188306.15  10244.32  5.44
599.2  189855.60  10244.96  5.40
600.6  191626.83  10245.53  5.35
602.0  192944.10  10209.39  5.29
603.3  194754.15  10183.15  5.23
604.7  196455.05  10140.34  5.16
606.1  197961.00  10072.69  5.09
607.5  199614.88  9999.74  5.01
608.9  201322.45  9917.69  4.93
610.2  202716.68  9816.66  4.84
611.6  204346.13  9722.72  4.76
613.0  205926.95  9635.81  4.68
614.4  207322.95  9544.80  4.60
615.8  208801.13  9461.96  4.53
617.1  210357.00  9395.12  4.47
618.5  211995.20  9344.86  4.41
619.9  213531.98  9306.09  4.36
621.3  215180.55  9284.76  4.31
622.6  216778.75  9284.49  4.28
624.0  218262.15  9288.54  4.26
625.4  219747.83  9314.83  4.24
626.8  221357.50  9354.19  4.23
628.1  222623.23  9386.70  4.22
629.5  224442.55  9444.75  4.21
630.9  225925.70  9487.62  4.20
632.2  227176.43  9506.65  4.18
633.6  228687.25  9522.80  4.16
635.0  230153.20  9507.18  4.13
636.3  231681.60  9463.26  4.08
637.7  233068.25  9381.84  4.03
639.1  234710.00  9283.33  3.96
640.4  236208.70  9148.58  3.87
641.8  237446.83  8995.00  3.79
643.2  239047.55  8853.19  3.70
644.5  240407.25  8714.46  3.62
645.9  241990.20  8595.59  3.55
647.2  243034.58  8478.75  3.49
648.6  244599.75  8410.89  3.44
650.0  246024.00  8352.82  3.40
651.3  247034.98  8302.65  3.36
652.7  249193.55  8293.61  3.33
654.0  251258.80  8293.73  3.30
655.4  252665.85  8284.03  3.28
656.8  252923.40  8243.78  3.26
658.1  254376.20  8226.05  3.23
659.5  256655.18  8226.33  3.21
660.8  258052.50  8199.86  3.18
662.2  259078.40  8169.81  3.15
663.5  260616.90  8170.61  3.14
664.9  261664.00  8173.63  3.12
666.2  262537.20  8187.78  3.12
667.6  264261.03  8250.47  3.12
668.9  265231.88  8319.66  3.14
670.3  267090.38  8427.06  3.16
671.6  268155.00  8541.94  3.19
673.0  269371.88  8673.42  3.22
674.3  270636.60  8821.90  3.26
675.7  271986.08  8993.99  3.31
677.0  273065.95  9182.12  3.36
678.4  274387.45  9396.49  3.42
679.7  275444.65  9618.84  3.49
681.1  276710.13  9868.58  3.57
682.4  277797.00  10139.90  3.65
683.8  278968.30  10449.30  3.75
685.1  279991.88  10804.16  3.86
686.4  281296.20  11235.74  3.99
687.8  282508.25  11763.26  4.16
689.1  283598.50  12427.37  4.38
690.5  284940.15  13335.50  4.68
691.8  285769.63  14540.25  5.09
693.1  287088.75  16165.20  5.63
694.5  288265.25  18227.73  6.32
695.8  289493.75  20778.33  7.18
697.1  290654.00  23806.90  8.19
698.5  291740.40  27322.58  9.37
699.8  292824.95  31273.36  10.68
701.1  294004.05  35604.93  12.11
702.5  294796.15  40153.17  13.62
703.8  295717.50  44899.71  15.18
705.1  296884.58  49757.44  16.76
706.5  297900.75  54617.16  18.33
707.8  298886.55  59440.78  19.89
709.1  299757.78  64151.42  21.40
710.5  300874.03  68836.69  22.88
711.8  301719.00  73333.44  24.31
713.1  302677.90  77764.14  25.69
714.4  303592.20  82039.79  27.02
715.8  304439.60  86170.60  28.30
717.1  305748.00  90303.37  29.54
718.4  306723.20  94195.63  30.71
719.7  307817.60  97991.00  31.83
721.0  308340.00  101463.43  32.91
722.4  309115.40  104867.81  33.93
723.7  310078.50  108187.62  34.89
725.0  311105.25  111387.13  35.80
726.3  312063.40  114407.16  36.66
727.6  312588.38  117127.90  37.47
729.0  313499.38  119850.59  38.23
730.3  314314.28  122377.22  38.93
731.6  315210.40  124801.87  39.59
732.9  316004.68  127042.93  40.20
734.2  316801.38  129171.14  40.77
735.5  317799.23  131259.64  41.30
736.8  318599.10  133130.35  41.79
738.1  319495.20  134904.80  42.22
739.5  320463.80  136623.29  42.63
740.8  321185.43  138107.06  43.00
742.1  321876.80  139489.38  43.34
743.4  322500.00  140770.00  43.65
744.7  323372.88  142067.08  43.93
746.0  324226.50  143274.34  44.19
747.3  324831.15  144269.24  44.41
748.6  325557.25  145246.68  44.61
749.9  326222.00  146104.65  44.79
751.2  326822.70  146870.35  44.94
752.5  327554.90  147660.83  45.08
753.8  328075.65  148292.25  45.20
755.1  328770.00  148949.30  45.31
756.4  329337.03  149520.02  45.40
757.7  330344.18  150240.18  45.48
759.0  332165.85  151287.28  45.55
760.3  333326.40  152011.70  45.60
761.6  334867.40  152882.11  45.65
762.9  335418.25  153256.10  45.69
764.2  335765.80  153527.27  45.72
765.5  336001.83  153733.13  45.75
766.8  336355.20  153985.68  45.78
768.1  336855.60  154274.00  45.80
769.3  337440.60  154579.83  45.81
770.6  338083.20  154908.48  45.82
771.9  338776.20  155251.76  45.83
773.2  339124.40  155436.18  45.83
774.5  339682.20  155720.19  45.84
775.8  340314.60  156035.64  45.85
777.1  340850.95  156290.08  45.85
778.4  341153.45  156433.39  45.85
779.6  341926.68  156776.44  45.85
780.9  342330.00  156986.86  45.86
782.2  342762.75  157194.56  45.86
783.5  343033.50  157327.13  45.86
784.8  343452.15  157557.44  45.87
786.0  343802.55  157728.77  45.88
787.3  344179.13  157891.79  45.87
788.6  344569.28  158077.50  45.88
789.9  344958.60  158265.76  45.88
791.2  345555.60  158555.24  45.88
792.4  346171.55  158850.31  45.89
793.7  346591.80  159057.80  45.89
795.0  347179.80  159328.64  45.89
796.2  347794.45  159605.19  45.89
797.5  348430.65  159894.40  45.89
798.8  349044.53  160173.11  45.89
800.0  349650.68  160466.15  45.89
801.3  350025.60  160654.63  45.90
802.6  350576.33  160918.02  45.90
803.8  351192.23  161197.17  45.90
805.1  351643.25  161391.90  45.90
806.4  352044.00  161570.85  45.90
807.7  352507.95  161815.59  45.90
808.9  353042.80  162058.71  45.90
810.2  353458.35  162275.53  45.91
811.4  353962.70  162479.85  45.90
812.7  354534.38  162749.17  45.91
814.0  355330.25  163120.17  45.91
815.2  355918.75  163403.14  45.91
816.5  356335.98  163580.09  45.91
817.7  356726.25  163784.94  45.91
819.0  357159.00  164004.30  45.92
820.2  357280.00  164076.42  45.92
821.5  357959.05  164405.55  45.93
822.7  358261.08  164560.40  45.93
824.0  358570.80  164695.32  45.93
825.2  359046.68  164892.36  45.93
826.5  359290.00  165030.27  45.93
827.7  359803.30  165281.93  45.94
829.0  360175.20  165445.04  45.93
830.2  360441.05  165596.28  45.94
831.5  360879.40  165808.32  45.95
832.7  361211.03  165951.48  45.94
834.0  361506.03  166099.32  45.95
835.2  361844.73  166266.14  45.95
836.4  362139.80  166406.27  45.95
837.7  362489.60  166596.35  45.96
838.9  362889.18  166772.35  45.96
840.1  363210.08  166949.16  45.96
841.4  363647.90  167135.35  45.96
842.6  364024.40  167327.15  45.97
843.8  364257.60  167508.94  45.99
845.1  364765.10  167742.32  45.99
846.3  365107.50  167926.27  45.99
847.5  365460.90  168109.52  46.00
848.8  365856.00  168278.46  46.00
850.0  366251.90  168444.97  45.99
851.2  366741.00  168682.73  46.00
852.5  367024.40  168868.95  46.01
853.7  367488.00  169096.93  46.01
854.9  367912.60  169306.65  46.02
856.1  368358.90  169498.27  46.01
857.4  368561.05  169575.42  46.01
858.6  368993.75  169802.18  46.02
859.8  369352.50  169979.32  46.02
861.0  369813.60  170186.19  46.02
862.2  370158.60  170376.93  46.03
863.5  370473.35  170527.60  46.03
864.7  370986.00  170719.25  46.02
865.9  371330.60  170873.80  46.02
867.1  371639.80  170982.84  46.01
868.3  371929.65  171189.79  46.03
869.5  372424.95  171418.58  46.03
870.8  372861.00  171617.91  46.03
872.0  373325.10  171827.93  46.03
873.2  373635.15  171979.12  46.03
874.4  374104.58  172133.91  46.01
875.6  374463.85  172283.61  46.01
876.8  374861.20  172506.51  46.02
878.0  375345.05  172684.31  46.01
879.2  375809.55  172895.93  46.01
880.4  376228.88  173078.26  46.00
881.6  376612.48  173232.15  46.00
882.8  376982.40  173368.53  45.99
884.0  377553.58  173593.59  45.98
885.2  377987.00  173769.62  45.97
886.5  378589.85  174002.15  45.96
887.7  378915.23  174197.52  45.97
888.8  379521.45  174444.78  45.96
890.0  379969.50  174633.65  45.96
891.2  380515.70  174845.98  45.95
892.4  380955.23  175052.34  45.95
893.6  381546.00  175252.39  45.93
894.8  382398.00  175605.55  45.92
896.0  383105.00  175916.37  45.92
897.2  383857.50  176228.06  45.91
898.4  384443.40  176509.39  45.91
899.6  384960.75  176698.30  45.90
900.8  385222.95  176792.70  45.89
902.0  385340.85  176828.07  45.89
903.2  385589.33  176914.35  45.88
904.3  385900.50  177011.44  45.87
905.5  386406.18  177217.67  45.86
906.7  386921.50  177416.71  45.85
907.9  387249.45  177548.14  45.85
909.1  387459.45  177586.97  45.83
910.2  387486.60  177617.20  45.84
911.4  387597.60  177644.33  45.83
912.6  387744.50  177634.33  45.81
913.8  387912.30  177681.06  45.80
915.0  388219.65  177762.20  45.79
916.2  388362.00  177761.44  45.77
917.3  388122.98  177655.23  45.77
918.5  388348.50  177696.78  45.76
919.7  388467.15  177712.77  45.75
920.8  388433.00  177614.98  45.73
922.0  388484.25  177592.80  45.71
923.2  388615.50  177561.80  45.69
924.4  388695.38  177557.53  45.68
925.5  388771.30  177593.08  45.68
926.7  389110.88  177716.54  45.67
927.9  389986.20  178017.75  45.65
929.0  391419.00  178530.79  45.61
930.2  393412.10  179445.26  45.61
931.4  395780.18  180370.63  45.57
932.5  398419.75  181475.74  45.55
933.7  399746.43  182006.81  45.53
934.9  400316.88  182147.92  45.50
936.0  399644.38  181853.63  45.50
937.2  397410.90  180715.52  45.47
938.3  395644.05  179748.33  45.43
939.5  394066.80  178894.35  45.40
940.7  394166.70  178821.84  45.37
941.8  395407.95  179351.18  45.36
943.0  396859.50  179768.97  45.30
944.2  397446.40  179967.65  45.28
945.3  396990.75  179593.70  45.24
946.5  395941.50  179082.44  45.23
947.6  396083.90  178920.19  45.17
948.8  395811.00  178647.13  45.13
949.9  395984.40  178445.84  45.06
951.1  395234.78  178047.10  45.05
952.2  394944.00  177693.71  44.99
953.4  394811.25  177295.47  44.91
954.5  394453.80  176988.24  44.87
955.7  394342.20  176619.12  44.79
956.8  393963.20  176237.52  44.73
958.0  393384.00  175837.25  44.70
959.1  393212.95  175489.36  44.63
960.3  392567.33  175148.96  44.62
961.4  392402.15  174862.61  44.56
962.6  392231.00  174702.40  44.54
963.7  392029.35  174475.14  44.51
964.9  392101.05  174254.38  44.44
966.0  391677.53  174026.65  44.43
967.2  391734.45  173946.55  44.40
968.3  391015.35  173782.88  44.44
969.5  390845.85  173592.11  44.41
970.6  390933.65  173586.97  44.40
971.8  391049.05  173506.81  44.37
972.9  390905.70  173436.53  44.37
974.0  391405.90  173484.33  44.32
975.2  391270.38  173408.46  44.32
976.3  390792.25  173334.89  44.35
977.5  390654.78  173268.98  44.35
978.6  390497.60  173125.18  44.33
979.7  390747.00  173134.09  44.31
980.9  390501.05  173043.54  44.31
982.0  390679.30  173001.41  44.28
983.2  389324.85  172887.29  44.41
984.3  388817.00  172503.72  44.37
985.4  388802.40  172503.51  44.37
986.6  388741.13  172282.53  44.32
987.7  390030.55  172696.76  44.28
988.9  389511.00  172297.47  44.23
990.0  389319.50  172388.66  44.28
993.1  391963.19  172233.58  43.94
996.9  390646.38  172084.46  44.05
1000.7  390583.32  172473.55  44.16
1004.5  390645.33  172824.04  44.24
1008.4  390155.13  172998.98  44.34
1012.2  389870.21  173195.80  44.42
1016.0  389425.80  173322.86  44.51
1019.8  388686.38  173296.20  44.59
1023.7  387460.30  173003.16  44.65
1027.5  385817.60  172465.55  44.70
1031.3  384851.90  172174.20  44.74
1035.1  383805.98  171854.64  44.78
1038.9  383331.48  171729.61  44.80
1042.7  383002.92  171683.30  44.83
1046.5  382879.83  171668.91  44.84
1050.3  382857.76  171688.91  44.84
1054.2  382470.08  171565.42  44.86
1058.0  382053.64  171369.93  44.85
1061.8  381973.87  171363.82  44.86
1065.6  381483.40  171082.74  44.85
1069.4  380684.67  170690.01  44.84
1073.2  379359.74  170060.88  44.83
1077.0  378615.25  169649.83  44.81
1080.8  378661.46  169563.69  44.78
1084.6  378614.83  169420.53  44.75
1088.4  378846.98  169425.97  44.72
1092.2  378378.00  169060.82  44.68
1096.0  377700.76  168620.02  44.64
1099.8  377044.20  168118.54  44.59
1103.6  376123.75  167515.65  44.54
1107.4  374959.57  166787.93  44.48
1111.2  374642.50  166425.56  44.42
1114.9  374073.00  165910.00  44.35
1118.7  373772.03  165454.10  44.27
1122.5  373392.93  164884.57  44.16
1126.3  372416.92  163983.03  44.03
1130.1  372016.93  163130.66  43.85
1133.9  370344.10  161471.70  43.60
1137.7  368769.30  159663.08  43.30
1141.4  366685.69  157439.49  42.94
1145.2  365726.38  155558.55  42.53
1149.0  364412.71  153641.05  42.16
1152.8  362578.95  151701.46  41.84
1156.6  360727.03  150075.93  41.60
1160.3  358916.67  148739.24  41.44
1164.1  356569.27  147397.52  41.34
1167.9  354870.83  146498.36  41.28
1171.7  353548.13  145837.13  41.25
1175.4  352062.40  145159.46  41.23
1179.2  350625.40  144468.67  41.20
1183.0  350266.67  144194.24  41.17
1186.7  350200.67  144046.20  41.13
1190.5  349814.33  143761.41  41.10
1194.3  348862.87  143280.49  41.07
1198.0  347373.68  142643.21  41.06
1201.8  345646.13  141968.64  41.07
1205.6  344558.67  141634.81  41.11
1209.3  343944.37  141576.60  41.16
1213.1  343483.73  141574.91  41.22
1216.8  342877.88  141558.80  41.29
1220.6  341777.33  141328.00  41.35
1224.3  340533.00  141030.91  41.41
1228.1  339034.40  140647.23  41.48
1231.9  337427.40  140162.61  41.54
1235.6  335706.23  139582.00  41.58
1239.4  334076.63  139088.84  41.63
1243.1  332686.86  138610.11  41.66
1246.9  331379.40  138139.72  41.69
1250.6  330278.20  137735.69  41.70
1254.3  329082.69  137272.17  41.71
1258.1  327828.55  136750.63  41.71
1261.8  326347.20  136130.21  41.71
1265.6  325108.67  135561.77  41.70
1269.3  324249.15  135117.11  41.67
1273.1  324593.27  135123.03  41.63
1276.8  324392.00  134875.94  41.58
1280.6  323274.40  134244.07  41.53
1284.3  321276.00  133205.49  41.46
1288.0  319960.83  132397.43  41.38
1291.8  319424.86  131838.25  41.27
1295.5  318649.47  131157.09  41.16
1299.2  317514.43  130261.98  41.03
1302.9  315865.84  129080.92  40.87
1306.7  314088.37  127766.45  40.68
1310.4  312373.14  126365.94  40.45
1314.1  310769.98  124950.57  40.21
1317.9  309337.50  123476.46  39.92
1321.6  307798.36  121850.19  39.59
1325.3  306083.40  120064.35  39.23
1329.0  304749.67  118360.68  38.84
1332.8  302779.40  116298.60  38.41
1336.5  301104.47  114332.07  37.97
1340.2  300952.17  112939.67  37.53
1343.9  300927.29  111585.71  37.08
1347.6  301120.50  110310.79  36.63
1351.4  302591.00  109554.00  36.21
1355.1  304627.77  109003.98  35.78
1358.8  306336.00  108240.00  35.33
1362.5  306613.30  106822.01  34.84
1366.2  304621.30  104372.84  34.26
1369.9  301402.75  101219.00  33.58
1373.6  298524.57  97733.89  32.74
1377.3  296948.40  94041.69  31.67
1381.0  296415.83  89884.36  30.32
1384.8  294466.25  84451.25  28.68
1388.4  291232.32  78153.93  26.84
1392.2  288953.17  71791.40  24.85
1395.9  287456.45  65574.30  22.81
1399.6  285610.90  59658.27  20.89
1403.3  284154.27  54456.30  19.16
1407.0  282443.00  49997.77  17.70
1410.7  280629.53  46395.76  16.53
1414.3  278727.40  43598.83  15.64
1418.1  277023.83  41558.38  15.00
1421.7  275659.07  40118.46  14.55
1425.4  274293.18  39112.73  14.26
1429.1  273029.25  38477.04  14.09
1432.8  271356.16  38045.38  14.02
1436.5  270508.03  37912.64  14.02
1440.2  269863.73  37949.31  14.06
1443.9  268764.93  37996.63  14.14
1447.6  267220.80  38046.80  14.24
1451.2  265987.33  38156.88  14.35
1454.9  264534.15  38284.05  14.47
1458.6  263289.22  38535.49  14.64
1462.3  262076.10  38914.86  14.85
1466.0  260687.12  39419.76  15.12
1469.7  258942.56  40044.94  15.46
1473.3  257877.50  40903.97  15.86
1477.0  255817.73  41705.28  16.30
1480.7  254146.33  42613.95  16.77
1484.4  252097.24  43458.43  17.24
1488.0  250492.00  44408.57  17.73
1491.7  248875.47  45327.97  18.21
1495.4  247171.38  46226.87  18.70
1499.0  245586.50  47106.36  19.18
1502.7  244304.83  48028.09  19.66
1506.4  242856.85  48875.77  20.13
1510.0  241403.10  49681.99  20.58
1513.7  239899.92  50429.17  21.02
1517.4  238506.67  51159.76  21.45
1521.0  237226.13  51879.72  21.87
1524.7  235966.25  52534.85  22.26
1528.3  234644.50  53144.30  22.65
1532.0  233390.85  53717.95  23.02
1535.7  231969.22  54196.16  23.36
1539.3  230695.88  54673.42  23.70
1543.0  229694.64  55184.83  24.03
1546.6  228995.00  55731.77  24.34
1550.3  227989.35  56161.86  24.63
1553.9  226904.97  56538.30  24.92
1557.6  225636.40  56836.06  25.19
1561.2  224343.90  57079.41  25.44
1564.9  223008.30  57292.33  25.69
1568.5  221633.53  57469.07  25.93
1572.2  220486.65  57671.24  26.16
1575.8  219366.00  57874.00  26.38
1579.5  218317.55  58067.12  26.60
1583.1  217248.17  58240.15  26.81
1586.8  215894.00  58310.00  27.01
1590.4  214681.93  58394.70  27.20
1594.0  213343.33  58433.18  27.39
1597.7  212474.62  58596.36  27.58
1601.3  211519.35  58722.98  27.76
1604.9  210515.41  58802.51  27.93
1608.6  209162.70  58747.98  28.09
1612.2  207808.43  58668.58  28.23
1615.8  206396.78  58551.26  28.37
1619.5  205145.58  58459.94  28.50
1623.1  203787.63  58320.81  28.62
1626.7  202553.65  58179.92  28.72
1630.3  201332.42  58022.56  28.82
1634.0  200186.00  57860.00  28.90
1637.6  199184.00  57695.44  28.97
1641.2  198147.15  57468.51  29.00
1644.8  196910.01  57134.72  29.02
1648.5  195775.53  56795.46  29.01
1652.1  194805.60  56458.41  28.98
1655.7  193872.60  56108.26  28.94
1659.3  193034.72  55808.10  28.91
1662.9  191590.00  55347.14  28.89
1666.6  190096.93  54892.15  28.88
1670.2  188662.83  54423.83  28.85
1673.8  187166.53  53903.89  28.80
1677.4  185993.90  53436.16  28.73
1681.0  185156.63  52996.40  28.62
1684.6  184731.08  52603.26  28.48
1688.2  184034.90  52043.70  28.28
1691.8  183332.57  51503.95  28.09
1695.4  182881.80  51024.66  27.90
1699.0  182514.03  50585.27  27.72
1702.6  182162.33  50133.90  27.52
1706.2  181530.59  49570.85  27.31
1709.8  180549.72  48932.49  27.10
1713.4  179799.37  48403.67  26.92
1717.0  178902.75  47918.53  26.78
1720.6  178053.53  47486.85  26.67
1724.2  177309.00  47101.17  26.56
1727.8  176581.65  46730.25  26.46
1731.4  176100.38  46403.50  26.35
1735.0  175935.10  46143.45  26.23
1738.6  175743.75  45811.45  26.07
1742.2  175197.64  45350.80  25.89
1745.8  174564.30  44830.50  25.68
1749.4  173616.30  44214.70  25.47
1753.0  172093.80  43464.49  25.26
1756.6  170428.13  42706.96  25.06
1760.1  169087.36  42051.96  24.87
1763.7  167317.33  41316.76  24.69
1767.3  165832.40  40671.17  24.53
1770.9  164559.97  40080.25  24.36
1774.5  163058.19  39463.64  24.20
1778.0  161897.59  38979.65  24.08
1781.6  160786.95  38569.73  23.99
1785.2  159595.55  38191.40  23.93
1788.8  158429.20  37857.86  23.90
1792.3  157162.30  37530.58  23.88
1795.9  156620.75  37383.61  23.87
1799.5  156369.00  37318.00  23.87
1803.1  157354.52  37543.68  23.86
1806.6  159541.32  38046.71  23.85
1810.2  161420.23  38458.47  23.83
1813.8  162315.45  38632.99  23.80
1817.3  161831.80  38480.97  23.78
1820.9  160548.00  38133.89  23.75
1824.5  159083.53  37730.72  23.72
1828.0  157918.29  37364.77  23.66
1831.6  157385.58  37121.77  23.59
1835.2  157065.83  36869.76  23.47
1838.7  156814.67  36540.95  23.30
1842.3  156555.00  36130.71  23.08
1845.8  155378.63  35389.29  22.78
1849.4  154750.00  34633.05  22.38
1852.9  153894.13  33660.46  21.87
1856.5  152834.35  32438.25  21.22
1860.0  151772.72  30985.53  20.42
1863.6  151722.08  29489.03  19.44
1867.1  152309.15  27849.15  18.28
1870.7  153129.03  25881.43  16.90
1874.2  152138.70  23299.71  15.31
1877.8  149561.53  20413.58  13.65
1881.3  146634.63  17512.82  11.94
1884.9  144772.38  14942.82  10.32
1888.4  143233.49  12649.14  8.83
1891.9  141614.47  10741.77  7.59
1895.5  140160.32  9264.52  6.61
1899.0  139399.50  8244.28  5.91
1901.3  180332.67  7297.05  4.05
1904.1  180180.75  6643.50  3.69
1906.8  179070.00  6119.40  3.42
1909.6  176758.05  5698.93  3.22
1912.4  174589.92  5392.57  3.09
1915.1  173015.70  5175.68  2.99
1917.9  171383.33  5022.22  2.93
1920.6  169950.07  4931.45  2.90
1923.3  168466.43  4854.03  2.88
1926.1  166610.03  4804.91  2.88
1928.8  164868.00  4776.45  2.90
1931.6  163464.98  4789.78  2.93
1934.3  162200.78  4821.14  2.97
1937.0  160978.43  4877.02  3.03
1939.8  159653.08  4926.78  3.09
1942.5  158004.00  4983.00  3.15
1945.2  155945.35  5047.35  3.24
1947.9  154272.53  5123.69  3.32
1950.7  152955.77  5221.91  3.41
1953.4  151042.80  5312.98  3.52
1956.1  149574.33  5430.28  3.63
1958.8  148256.12  5549.63  3.74
1961.5  146703.20  5679.47  3.87
1964.2  145117.70  5805.80  4.00
1966.9  143478.70  5942.83  4.14
1969.6  142173.00  6099.00  4.29
1972.3  140726.80  6253.73  4.44
1975.0  139635.30  6439.85  4.61
1977.7  138483.38  6621.32  4.78
1980.4  137294.77  6805.86  4.96
1983.1  136163.05  6996.58  5.14
1985.8  135206.70  7189.10  5.32
1988.4  134134.00  7392.67  5.51
1991.1  133169.17  7594.45  5.70
1993.8  132274.45  7803.83  5.90
1996.5  131628.20  8024.99  6.10
1999.1  130921.63  8237.53  6.29
2001.8  130207.93  8457.79  6.50
2004.5  129507.80  8673.07  6.70
2007.1  128772.55  8877.78  6.89
2009.8  127989.17  9076.51  7.09
2012.4  127388.80  9280.15  7.28
2015.1  126832.30  9470.77  7.47
2017.8  126029.40  9640.56  7.65
2020.4  125518.98  9825.87  7.83
2023.1  125131.53  10006.03  8.00
2025.7  124886.67  10189.11  8.16
2028.3  124531.33  10362.44  8.32
2031.0  124119.57  10509.73  8.47
2033.6  123827.10  10660.40  8.61
2036.2  123557.40  10802.50  8.74
2038.9  122939.70  10906.90  8.87
2041.5  122565.05  11026.58  9.00
2044.1  122000.10  11107.00  9.10
2046.8  121608.60  11202.70  9.21
2049.4  120947.40  11266.50  9.32
2052.0  120633.53  11347.51  9.41
2054.6  120225.00  11421.67  9.50
2057.2  119655.40  11484.33  9.60
2059.8  119314.80  11580.40  9.71
2062.4  118407.20  11610.60  9.81
2065.0  117865.07  11676.47  9.91
2067.6  116942.80  11691.95  10.00
2070.2  116332.63  11752.97  10.10
2072.8  115670.17  11790.74  10.19
2075.4  115220.00  11844.58  10.28
2078.0  114578.58  11878.00  10.37
2080.6  114012.80  11924.00  10.46
2083.2  113291.63  11951.89  10.55
2085.8  112778.00  11989.25  10.63
2088.4  112086.17  12010.39  10.72
2090.9  111275.15  12014.18  10.80
2093.5  110354.80  12001.57  10.88
2096.1  109563.30  12012.67  10.96
2098.7  108781.58  12015.60  11.05
2101.2  107804.27  11993.78  11.13
2103.8  107114.33  12002.51  11.21
2106.4  106433.13  12008.33  11.28
2108.9  105743.20  12011.24  11.36
2111.5  104878.60  11996.69  11.44
2114.0  104223.60  12005.42  11.52
2116.6  103696.25  12022.50  11.59
2119.1  103131.07  12024.94  11.66
2121.7  102628.75  12040.00  11.73
2124.2  102210.57  12057.09  11.80
2126.8  101386.02  12027.31  11.86
2129.3  100980.00  12038.40  11.92
2131.9  100364.00  12035.47  11.99
2134.4  99907.65  12044.85  12.06
2136.9  99511.10  12054.68  12.11
2139.4  98952.00  12046.84  12.17
2142.0  98473.20  12049.80  12.24
2144.5  98175.90  12065.43  12.29
2147.0  97927.20  12092.76  12.35
2149.5  97418.00  12089.78  12.41
2152.1  97253.57  12118.52  12.46
2154.6  97176.53  12158.40  12.51
2157.1  96610.33  12141.39  12.57
2159.6  96174.33  12132.31  12.61
2162.1  95995.90  12151.53  12.66
2164.6  95735.60  12168.64  12.71
2167.1  95396.47  12170.98  12.76
2169.6  95060.70  12169.07  12.80
2172.1  94577.03  12147.99  12.84
2174.6  94232.73  12148.60  12.89
2177.1  93789.52  12136.41  12.94
2179.5  93353.00  12120.99  12.98
2182.0  92864.20  12102.02  13.03
2184.5  92313.23  12073.22  13.08
2187.0  91682.57  12046.37  13.14
2189.5  90983.10  11999.58  13.19
2191.9  90183.50  11947.83  13.25
2194.4  89540.80  11902.48  13.29
2196.9  88780.80  11840.00  13.34
2199.3  88102.00  11783.67  13.38
2201.8  87181.47  11696.22  13.42
2204.3  86700.80  11665.47  13.45
2206.7  86049.60  11600.02  13.48
2209.2  85560.02  11556.91  13.51
2211.6  84932.10  11487.30  13.53
2214.1  84634.70  11469.03  13.55
2216.5  84036.00  11406.78  13.57
2219.0  83688.33  11370.35  13.59
2221.4  83290.08  11308.30  13.58
2223.9  82804.17  11238.89  13.57
2226.3  82278.58  11139.72  13.54
2228.7  81715.40  11026.51  13.49
2231.1  81110.70  10909.80  13.45
2233.6  80499.73  10774.36  13.38
2236.0  79928.33  10633.97  13.30
2238.4  79412.67  10491.83  13.21
2240.9  78950.13  10340.60  13.10
2243.3  78393.87  10175.05  12.98
2245.7  77809.00  9993.12  12.84
2248.1  77311.43  9827.13  12.71
2250.5  76781.82  9643.90  12.56
2252.9  76145.33  9448.40  12.41
2255.3  75560.30  9250.18  12.24
2257.7  75080.00  9083.33  12.10
2260.1  74567.73  8892.88  11.93
2262.5  73950.00  8706.67  11.77
2264.9  73417.43  8529.09  11.62
2267.3  72790.00  8346.67  11.47
2269.7  72280.13  8183.86  11.32
2272.1  71709.32  8036.71  11.21
2274.5  71121.27  7890.16  11.09
2276.8  70627.52  7756.24  10.98
2279.2  70018.35  7624.60  10.89
2281.6  69590.87  7492.95  10.77
2284.0  69114.30  7383.10  10.68
2286.3  68633.07  7262.22  10.58
2288.7  68218.15  7152.09  10.48
2291.1  67642.33  7023.48  10.38
2293.4  67174.80  6912.89  10.29
2295.8  66527.70  6777.40  10.19
2298.2  65939.85  6641.25  10.07
2300.5  65246.40  6510.15  9.98
2302.9  64490.33  6372.22  9.88
2305.2  63757.00  6234.93  9.78
2307.6  63086.42  6110.90  9.69
2309.9  62279.00  5993.33  9.62
2312.2  61679.67  5896.89  9.56
2314.6  61054.65  5799.45  9.50
2316.9  60309.45  5689.05  9.43
2319.2  59722.37  5594.55  9.37
2321.6  59081.17  5489.32  9.29
2323.9  58489.58  5388.89  9.21
2326.2  57925.87  5296.66  9.14
2328.6  57401.85  5218.03  9.09
2330.9  56878.50  5138.00  9.03
2333.2  56409.17  5048.25  8.95
2335.5  55939.60  4961.23  8.87
2337.8  55447.90  4892.04  8.82
2340.1  54854.82  4802.18  8.75
2342.4  54394.17  4726.94  8.69
2344.8  53961.08  4654.14  8.62
2347.1  53385.73  4573.10  8.57
2349.4  52835.93  4483.78  8.49
2351.6  52252.05  4395.65  8.41
2353.9  51757.37  4325.07  8.36
2356.2  51192.25  4250.27  8.30
2358.5  50590.40  4177.60  8.26
2360.8  49996.80  4095.47  8.19
2363.1  49544.02  4026.78  8.13
2365.4  49064.60  3958.77  8.07
2367.7  48586.80  3879.80  7.99
2369.9  48044.20  3805.22  7.92
2372.2  47391.73  3730.49  7.87
2374.5  46789.05  3653.65  7.81
2376.7  46153.02  3562.45  7.72
2379.0  45521.23  3478.37  7.64
2381.3  44870.00  3398.89  7.57
2383.5  44352.00  3308.80  7.46
2385.8  43724.93  3224.06  7.37
2388.0  43176.20  3150.60  7.30
2390.3  42672.53  3081.38  7.22
2392.5  42168.00  3004.00  7.12
2394.8  41672.40  2928.20  7.03
2397.0  41180.53  2847.29  6.91
2399.3  40704.52  2777.80  6.82
2401.5  40253.50  2707.25  6.73
2403.8  39696.62  2639.87  6.65
2406.0  39187.00  2566.11  6.55
2408.2  38758.87  2497.49  6.44
2410.4  38323.83  2442.57  6.37
2412.7  37901.07  2383.48  6.29
2414.9  37532.55  2327.60  6.20
2417.1  37122.10  2264.83  6.10
2419.3  36684.80  2201.60  6.00
2421.6  36282.92  2135.55  5.89
2423.8  35891.73  2083.31  5.80
2426.0  35509.42  2029.73  5.72
2428.2  35136.27  1981.78  5.64
2430.4  34816.90  1918.83  5.51
2432.6  34546.67  1880.00  5.44
2434.8  34245.40  1840.15  5.37
2437.0  33852.00  1773.20  5.24
2439.2  33480.78  1730.13  5.17
2441.4  33156.27  1672.36  5.04
2443.6  32925.12  1630.37  4.95
2445.7  32653.60  1601.21  4.90
2447.9  32356.25  1567.95  4.85
2450.1  32034.00  1522.08  4.75
2452.3  31649.57  1472.84  4.65
2454.5  31288.43  1423.06  4.55
2456.6  30901.60  1383.87  4.48
2458.8  30530.50  1344.20  4.40
2461.0  30217.33  1321.53  4.37
2463.1  29900.25  1280.40  4.28
2465.3  29617.87  1253.59  4.23
2467.5  29352.50  1224.25  4.17
2469.6  29102.42  1193.34  4.10
2471.8  28816.98  1166.29  4.05
2473.9  28492.42  1126.22  3.95
2476.1  28103.83  1107.17  3.94
2478.2  27739.90  1081.57  3.90
2480.4  27445.80  1054.03  3.84
2482.5  27095.83  1027.06  3.79
2484.6  26772.17  1007.72  3.76
2486.8  26485.90  994.33  3.75
2488.9  26200.33  973.31  3.71
2491.1  25830.93  936.13  3.62
2493.2  25418.93  926.07  3.64
2495.3  25012.00  913.90  3.65
2497.4  24649.10  890.87  3.61
2499.5  24339.73  857.72  3.52
2501.7  24206.30  843.58  3.48
2503.8  24122.15  841.40  3.49
2505.9  24053.33  842.78  3.50
2508.0  24050.38  840.80  3.50
2510.1  24088.85  840.52  3.49
2512.2  24222.00  825.75  3.41
2514.3  24393.58  841.59  3.45
2516.4  24625.00  879.93  3.57
