/*** Spectra Vista SIG Data ***/
name= 2_20220926_ACRU_25_avg.sig
comm= Averaged Ref/Tar of files: HR.092622.0003_moc.sig,HR.092622.0004_moc.sig,HR.092622.0005_moc.sig
data=
337.3  6317.33  496.60  7.86
338.8  6541.60  485.58  7.42
340.3  6900.33  502.33  7.28
341.8  7076.55  485.59  6.86
343.2  7461.30  475.43  6.37
344.7  7900.50  436.74  5.53
346.2  8225.00  444.93  5.41
347.7  8627.35  438.72  5.09
349.2  8920.80  426.24  4.78
350.6  9350.40  431.34  4.61
352.1  9834.25  440.67  4.48
353.6  10388.80  437.70  4.21
355.1  10910.10  447.30  4.10
356.6  11583.35  456.14  3.94
358.0  12158.40  460.76  3.79
359.5  12621.83  465.73  3.69
361.0  13283.20  466.49  3.51
362.5  13899.68  495.46  3.56
364.0  14596.35  506.48  3.47
365.4  15214.38  520.58  3.42
366.9  15873.28  522.14  3.29
368.4  16569.50  553.84  3.34
369.9  17384.00  580.48  3.34
371.3  18278.70  611.29  3.34
372.8  19013.70  623.40  3.28
374.3  19830.20  624.19  3.15
375.8  20707.40  645.97  3.12
377.2  21533.85  655.87  3.05
378.7  22386.88  666.21  2.98
380.2  23251.73  687.94  2.96
381.7  24212.25  700.32  2.89
383.1  25149.83  699.99  2.78
384.6  26077.20  712.02  2.73
386.1  27047.93  738.15  2.73
387.6  27969.90  746.06  2.67
389.0  29095.88  788.87  2.71
390.5  30122.48  794.74  2.64
392.0  31153.50  826.03  2.65
393.4  32263.50  840.59  2.61
394.9  33288.60  849.30  2.55
396.4  34509.20  874.18  2.53
397.9  35621.10  895.12  2.51
399.3  36599.15  915.10  2.50
400.8  37820.48  942.90  2.49
402.2  39045.60  959.73  2.46
403.7  40283.10  986.40  2.45
405.2  41490.00  1006.30  2.43
406.6  42717.90  1025.94  2.40
408.1  43804.88  1054.92  2.41
409.6  44999.30  1077.12  2.39
411.0  46300.38  1104.17  2.38
412.5  47727.35  1124.59  2.36
414.0  49100.10  1148.62  2.34
415.4  50426.10  1177.22  2.33
416.9  51746.98  1211.52  2.34
418.4  53070.83  1246.81  2.35
419.8  54474.35  1274.62  2.34
421.3  55994.40  1310.76  2.34
422.7  57460.00  1335.90  2.32
424.2  58995.00  1375.93  2.33
425.7  60467.00  1425.23  2.36
427.1  61983.30  1461.90  2.36
428.6  63472.85  1507.54  2.38
430.0  65058.68  1560.37  2.40
431.5  66758.90  1611.54  2.41
432.9  68440.50  1671.15  2.44
434.4  70199.70  1722.65  2.45
435.9  71869.20  1766.40  2.46
437.3  73591.50  1826.22  2.48
438.8  75251.60  1886.80  2.51
440.2  76973.40  1948.42  2.53
441.7  78889.78  2014.74  2.55
443.1  80746.20  2073.99  2.57
444.6  82559.50  2140.81  2.59
446.0  84427.53  2197.05  2.60
447.5  86400.00  2257.62  2.61
448.9  88184.65  2326.81  2.64
450.4  90125.00  2398.57  2.66
451.8  91957.50  2457.46  2.67
453.3  93820.80  2517.87  2.68
454.7  95674.28  2573.01  2.69
456.2  97524.35  2631.89  2.70
457.6  99470.70  2692.52  2.71
459.1  101330.78  2760.17  2.72
460.5  103196.70  2813.20  2.73
462.0  105261.30  2877.46  2.73
463.4  107311.93  2935.94  2.74
464.8  109322.33  2988.09  2.73
466.3  111305.33  3047.36  2.74
467.7  113369.60  3112.20  2.75
469.2  115278.90  3170.60  2.75
470.6  117315.63  3230.72  2.75
472.0  119406.95  3298.27  2.76
473.5  121455.58  3353.53  2.76
474.9  123671.95  3416.20  2.76
476.4  125767.20  3478.97  2.77
477.8  127932.00  3547.20  2.77
479.2  130036.00  3619.23  2.78
480.7  132209.85  3688.97  2.79
482.1  134458.88  3754.72  2.79
483.6  136737.90  3820.97  2.79
485.0  139035.75  3896.25  2.80
486.4  141189.18  3970.07  2.81
487.9  143481.75  4052.93  2.82
489.3  145649.70  4141.39  2.84
490.7  147883.10  4238.24  2.87
492.2  150160.50  4345.43  2.89
493.6  152480.40  4453.61  2.92
495.0  154805.63  4567.62  2.95
496.5  157059.00  4689.36  2.99
497.9  159410.75  4831.32  3.03
499.3  161737.50  4981.03  3.08
500.7  164055.10  5146.83  3.14
502.2  166471.05  5336.94  3.21
503.6  168833.40  5552.45  3.29
505.0  171167.98  5791.79  3.38
506.5  173669.65  6078.70  3.50
507.9  176150.53  6406.27  3.64
509.3  178479.45  6778.53  3.80
510.7  181157.93  7209.86  3.98
512.2  183879.68  7696.59  4.19
513.6  186755.60  8259.94  4.42
515.0  189577.50  8875.73  4.68
516.4  192485.00  9555.03  4.96
517.8  195328.00  10315.03  5.28
519.3  198315.20  11128.17  5.61
520.7  201054.90  11967.88  5.95
522.1  203742.18  12848.83  6.31
523.5  206337.90  13717.03  6.65
524.9  209288.03  14614.38  6.98
526.3  212018.18  15463.74  7.29
527.8  214859.25  16299.89  7.59
529.2  217440.00  17118.72  7.87
530.6  220214.70  17910.21  8.13
532.0  223191.15  18658.48  8.36
533.4  225700.65  19298.70  8.55
534.8  228333.60  19888.09  8.71
536.3  231428.63  20489.30  8.85
537.7  234473.25  21051.77  8.98
539.1  237416.08  21590.65  9.09
540.5  240358.50  22108.31  9.20
541.9  243325.43  22618.42  9.30
543.3  245924.40  23097.70  9.39
544.7  248974.00  23620.04  9.49
546.1  251785.10  24107.67  9.57
547.5  254750.40  24605.07  9.66
549.0  257940.40  25090.30  9.73
550.4  260851.50  25518.48  9.78
551.8  263798.03  25900.64  9.82
553.2  266733.68  26224.43  9.83
554.6  269652.45  26472.11  9.82
556.0  272636.70  26646.74  9.77
557.4  275794.10  26756.21  9.70
558.8  278710.90  26761.74  9.60
560.2  281960.00  26727.62  9.48
561.6  284944.55  26586.57  9.33
563.0  287782.30  26362.34  9.16
564.4  291000.50  26108.12  8.97
565.8  294071.00  25782.19  8.77
567.2  297285.83  25418.44  8.55
568.6  300378.38  25009.96  8.33
570.0  303312.75  24573.40  8.10
571.4  306785.50  24172.86  7.88
572.8  309979.00  23765.01  7.67
574.2  312887.40  23375.33  7.47
575.6  316027.75  23048.54  7.29
577.0  319096.80  22758.28  7.13
578.4  322590.63  22538.75  6.99
579.8  325738.70  22339.90  6.86
581.2  328855.00  22178.38  6.74
582.5  331785.00  22042.71  6.64
583.9  334893.10  21961.49  6.56
585.3  337843.70  21891.09  6.48
586.7  340886.70  21861.40  6.41
588.1  343931.30  21857.18  6.36
589.5  347338.95  21895.22  6.30
590.9  350346.63  21939.42  6.26
592.3  353348.78  22009.14  6.23
593.7  356361.25  22085.71  6.20
595.0  359356.80  22161.55  6.17
596.4  362752.13  22233.51  6.13
597.8  365481.10  22240.51  6.09
599.2  368639.70  22241.85  6.03
600.6  371886.08  22211.28  5.97
602.0  374925.60  22129.03  5.90
603.3  377858.00  22005.41  5.82
604.7  380944.35  21848.17  5.74
606.1  384046.35  21651.51  5.64
607.5  387405.60  21452.28  5.54
608.9  390559.40  21223.77  5.43
610.2  393782.40  21008.37  5.34
611.6  396742.50  20770.62  5.24
613.0  399628.15  20550.83  5.14
614.4  402455.10  20342.17  5.05
615.8  405792.10  20181.69  4.97
617.1  408556.88  20045.13  4.91
618.5  411878.25  19956.52  4.85
619.9  414651.45  19896.20  4.80
621.3  417648.08  19887.73  4.76
622.6  420673.50  19910.61  4.73
624.0  423430.13  19958.79  4.71
625.4  426583.80  20064.32  4.70
626.8  429594.10  20188.60  4.70
628.1  432486.60  20329.38  4.70
629.5  435277.85  20469.29  4.70
630.9  438140.20  20601.11  4.70
632.2  441260.95  20722.66  4.70
633.6  443761.18  20761.66  4.68
635.0  446745.30  20742.22  4.64
636.3  449853.00  20655.70  4.59
637.7  452620.15  20453.30  4.52
639.1  455676.10  20177.93  4.43
640.4  458430.38  19823.00  4.32
641.8  461323.80  19437.33  4.21
643.2  463971.95  19028.17  4.10
644.5  466900.00  18642.67  3.99
645.9  469589.40  18253.39  3.89
647.2  472402.70  17938.47  3.80
648.6  475261.20  17674.32  3.72
650.0  478170.00  17447.93  3.65
651.3  480683.70  17281.91  3.60
652.7  484183.50  17157.20  3.54
654.0  486998.10  17019.65  3.49
655.4  489347.25  16883.03  3.45
656.8  491090.25  16748.57  3.41
658.1  493922.63  16634.03  3.37
659.5  497188.80  16526.26  3.32
660.8  500327.10  16430.34  3.28
662.2  503166.85  16381.00  3.26
663.5  505960.55  16337.26  3.23
664.9  507942.33  16312.46  3.21
666.2  510133.65  16348.80  3.20
667.6  512786.25  16469.74  3.21
668.9  515548.80  16662.03  3.23
670.3  518573.13  16903.37  3.26
671.6  520841.60  17186.13  3.30
673.0  523173.60  17507.57  3.35
674.3  525648.20  17890.25  3.40
675.7  528242.40  18326.78  3.47
677.0  530641.58  18846.02  3.55
678.4  532943.80  19457.82  3.65
679.7  535370.78  20175.51  3.77
681.1  537950.75  21035.12  3.91
682.4  540154.13  22041.46  4.08
683.8  542611.88  23286.88  4.29
685.1  544930.65  24806.16  4.55
686.4  547131.33  26673.85  4.88
687.8  549696.68  28958.04  5.27
689.1  552025.60  31710.24  5.74
690.5  554050.50  35009.67  6.32
691.8  556827.98  39081.19  7.02
693.1  559279.50  43925.89  7.85
694.5  561676.10  49527.50  8.82
695.8  564123.30  55874.40  9.90
697.1  566439.40  62932.16  11.11
698.5  568826.38  70706.57  12.43
699.8  571290.80  79126.11  13.85
701.1  573229.13  87969.21  15.35
702.5  575282.63  97194.70  16.90
703.8  577782.20  106706.59  18.47
705.1  579677.10  116177.88  20.04
706.5  582029.40  125716.64  21.60
707.8  583935.30  135056.70  23.13
709.1  586258.65  144322.24  24.62
710.5  588538.98  153389.45  26.06
711.8  590519.00  162173.89  27.46
713.1  592497.00  170776.34  28.82
714.4  594648.53  179174.95  30.13
715.8  596976.43  187433.68  31.40
717.1  599267.20  195444.84  32.61
718.4  601565.78  203216.10  33.78
719.7  603781.20  210732.84  34.90
721.0  605563.33  217849.67  35.97
722.4  607477.05  224740.13  37.00
723.7  609471.15  231423.60  37.97
725.0  611296.48  237759.84  38.89
726.3  613628.60  244031.99  39.77
727.6  615429.00  249816.96  40.59
729.0  617232.70  255380.07  41.38
730.3  619240.18  260732.66  42.11
731.6  620832.30  265615.57  42.78
732.9  622872.90  270437.34  43.42
734.2  624586.88  274855.82  44.01
735.5  626409.30  279096.27  44.55
736.8  628517.40  283169.47  45.05
738.1  630358.65  286940.99  45.52
739.5  632181.75  290462.21  45.95
740.8  634174.75  293848.57  46.34
742.1  635765.48  296877.29  46.70
743.4  637558.25  299812.81  47.03
744.7  639499.00  302619.33  47.32
746.0  641027.70  305062.44  47.59
747.3  642670.70  307365.63  47.83
748.6  644226.90  309517.20  48.04
749.9  646055.58  311631.95  48.24
751.2  647382.50  313387.50  48.41
752.5  648962.73  315176.00  48.57
753.8  650320.65  316734.48  48.70
755.1  652019.15  318323.05  48.82
756.4  653251.43  319582.61  48.92
757.7  655320.88  321193.74  49.01
759.0  659031.65  323519.58  49.09
760.3  661798.90  325327.63  49.16
761.6  664691.93  327146.29  49.22
762.9  666187.50  328207.63  49.27
764.2  667017.15  328904.94  49.31
765.5  667972.13  329605.86  49.34
766.8  668573.85  330117.18  49.38
768.1  669749.85  330866.58  49.40
769.3  670976.70  331679.63  49.43
770.6  672413.60  332538.48  49.45
771.9  673677.40  333267.74  49.47
773.2  675180.68  334109.49  49.48
774.5  676155.75  334684.37  49.50
775.8  677269.28  335349.36  49.51
777.1  678540.48  336055.39  49.53
778.4  679859.75  336797.82  49.54
779.6  681231.00  337548.91  49.55
780.9  682032.15  337979.71  49.55
782.2  683041.93  338549.28  49.56
783.5  684018.00  339118.24  49.58
784.8  684833.63  339621.45  49.59
786.0  685737.93  340125.45  49.60
787.3  686627.78  340602.24  49.61
788.6  687622.00  341144.91  49.61
789.9  688421.00  341581.33  49.62
791.2  689771.55  342349.11  49.63
792.4  690905.88  342996.26  49.64
793.7  692468.20  343867.71  49.66
795.0  693622.90  344462.66  49.66
796.2  695069.65  345208.56  49.67
797.5  696373.75  345885.55  49.67
798.8  697886.00  346663.85  49.67
800.0  699020.00  347290.67  49.68
801.3  700315.88  347977.35  49.69
802.6  701424.00  348578.74  49.70
803.8  702530.33  349211.09  49.71
805.1  703659.38  349769.28  49.71
806.4  704701.85  350334.93  49.71
807.7  705870.50  350955.90  49.72
808.9  707091.00  351609.78  49.73
810.2  708002.40  352092.00  49.73
811.4  709121.20  352684.78  49.74
812.7  710505.30  353405.45  49.74
814.0  711803.40  354121.46  49.75
815.2  713178.60  354882.66  49.76
816.5  714459.38  355507.42  49.76
817.7  715282.50  355985.94  49.77
819.0  715993.60  356373.39  49.77
820.2  716893.65  356851.42  49.78
821.5  717940.60  357443.00  49.79
822.7  719013.40  358025.51  49.79
824.0  719999.15  358520.85  49.79
825.2  720735.60  358920.60  49.80
826.5  721416.65  359327.20  49.81
827.7  722454.58  359906.19  49.82
829.0  723370.43  360387.48  49.82
830.2  724363.80  360886.48  49.82
831.5  725403.60  361373.51  49.82
832.7  726333.30  361902.24  49.83
834.0  726929.10  362235.63  49.83
835.2  727956.50  362780.03  49.84
836.4  728720.40  363180.46  49.84
837.7  729421.88  363609.11  49.85
838.9  730562.60  364283.79  49.86
840.1  731509.35  364808.68  49.87
841.4  732420.60  365334.36  49.88
842.6  733320.70  365800.25  49.88
843.8  734116.50  366253.31  49.89
845.1  734881.95  366719.67  49.90
846.3  735748.65  367227.40  49.91
847.5  736771.75  367701.60  49.91
848.8  737670.20  368221.36  49.92
850.0  738714.60  368841.47  49.93
851.2  739690.35  369331.24  49.93
852.5  740738.80  369989.31  49.95
853.7  741447.68  370363.46  49.95
854.9  742614.60  370963.88  49.95
856.1  743542.30  371444.69  49.96
857.4  744402.90  371899.88  49.96
858.6  745406.20  372412.75  49.96
859.8  746500.10  373027.10  49.97
861.0  747412.05  373577.00  49.98
862.2  748524.00  374101.20  49.98
863.5  749383.53  374590.85  49.99
864.7  750375.00  375075.24  49.99
865.9  751298.00  375552.08  49.99
867.1  752000.00  375879.70  49.98
868.3  753194.35  376491.23  49.99
869.5  754398.45  377174.23  50.00
870.8  755520.30  377724.04  50.00
872.0  756412.13  378206.79  50.00
873.2  757273.40  378618.99  50.00
874.4  758171.65  379000.10  49.99
875.6  759321.78  379568.21  49.99
876.8  760717.65  380275.75  49.99
878.0  761635.00  380823.67  50.00
879.2  762668.45  381299.07  50.00
880.4  763932.00  381812.65  49.98
881.6  764784.50  382271.52  49.98
882.8  766075.25  382894.30  49.98
884.0  766957.43  383343.63  49.98
885.2  768268.25  383967.34  49.98
886.5  769513.85  384630.80  49.98
887.7  770629.98  385070.46  49.97
888.8  772069.75  385766.16  49.97
890.0  773036.25  386165.50  49.95
891.2  773951.10  386645.67  49.96
892.4  775159.28  387307.05  49.96
893.6  777061.43  388142.70  49.95
894.8  778677.90  388912.96  49.95
896.0  780223.60  389656.78  49.94
897.2  782052.98  390487.11  49.93
898.4  784041.30  391429.92  49.92
899.6  785185.50  391994.71  49.92
900.8  785842.85  392278.58  49.92
902.0  786367.55  392515.20  49.91
903.2  786820.10  392610.48  49.90
904.3  787995.00  393099.11  49.89
905.5  788980.50  393652.29  49.89
906.7  790203.93  394204.60  49.89
907.9  791172.68  394656.21  49.88
909.1  792410.85  395147.28  49.87
910.2  792855.00  395262.00  49.85
911.4  792865.13  395244.66  49.85
912.6  793460.00  395464.38  49.84
913.8  794495.45  395999.90  49.84
915.0  795087.20  396113.71  49.82
916.2  795100.43  396139.58  49.82
917.3  795949.18  396359.98  49.80
918.5  796226.85  396515.35  49.80
919.7  796658.00  396417.18  49.76
920.8  796793.45  396500.86  49.76
922.0  796906.00  396463.30  49.75
923.2  797321.33  396661.61  49.75
924.4  798063.13  396796.17  49.72
925.5  798868.20  397040.98  49.70
926.7  799652.08  397297.85  49.68
927.9  801026.83  397910.36  49.68
929.0  804321.90  399222.15  49.63
930.2  808738.80  401307.36  49.62
931.4  813956.63  403645.40  49.59
932.5  818364.25  405797.79  49.59
933.7  821157.45  406892.94  49.55
934.9  822648.75  407419.33  49.53
936.0  821672.33  406704.59  49.50
937.2  818743.25  404974.06  49.46
938.3  814781.50  402847.71  49.44
939.5  812962.80  401556.70  49.39
940.7  812507.85  401321.58  49.39
941.8  815476.35  402535.43  49.36
943.0  817858.95  403277.40  49.31
944.2  819474.00  403813.03  49.28
945.3  819308.40  403276.73  49.22
946.5  817591.25  402150.33  49.19
947.6  818702.25  402317.64  49.14
948.8  817446.58  401347.54  49.10
949.9  817791.63  401109.21  49.05
951.1  818036.03  400680.57  48.98
952.2  817501.13  399877.96  48.91
953.4  817687.65  399316.73  48.83
954.5  816088.88  398000.05  48.77
955.7  815855.30  397230.53  48.69
956.8  816105.80  397003.03  48.65
958.0  814886.55  395933.43  48.59
959.1  814665.60  395297.28  48.52
960.3  814925.00  394605.00  48.42
961.4  815189.80  394554.92  48.40
962.6  814291.20  394116.21  48.40
963.7  814935.80  394079.79  48.36
964.9  815286.83  393986.62  48.32
966.0  815427.55  393785.93  48.29
967.2  815568.60  393842.24  48.29
968.3  817432.80  394412.37  48.25
969.5  818062.10  394538.80  48.23
970.6  818319.30  394804.64  48.25
971.8  818472.03  394613.94  48.21
972.9  817848.50  394821.33  48.28
974.0  818967.95  394974.53  48.23
975.2  817796.25  394395.11  48.23
976.3  819253.13  394892.14  48.20
977.5  818448.15  394709.47  48.23
978.6  817651.65  394621.61  48.26
979.7  817555.20  394272.85  48.23
980.9  817674.10  394676.60  48.27
982.0  817846.10  394562.64  48.24
983.2  818637.40  394681.60  48.21
984.3  816486.30  394050.26  48.26
985.4  815453.10  393398.83  48.24
986.6  815668.30  394037.13  48.31
987.7  814644.38  393451.47  48.30
988.9  815564.23  393978.82  48.31
990.0  816766.80  393699.64  48.20
993.1  862299.00  412881.65  47.88
996.9  862380.90  414123.47  48.02
1000.7  862014.55  415018.65  48.15
1004.5  860968.53  415528.72  48.26
1008.4  861538.08  416880.41  48.39
1012.2  862561.33  418336.70  48.50
1016.0  862301.43  419107.71  48.60
1019.8  860973.57  419314.09  48.70
1023.7  859808.69  419485.88  48.79
1027.5  857752.73  419090.86  48.86
1031.3  856493.58  418946.89  48.91
1035.1  855630.45  418934.59  48.96
1038.9  855358.38  419076.74  48.99
1042.7  854901.88  419247.99  49.04
1046.5  854070.00  419102.74  49.07
1050.3  852455.04  418489.30  49.09
1054.2  850345.65  417664.25  49.12
1058.0  849459.60  417248.69  49.12
1061.8  848236.50  416755.92  49.13
1065.6  846399.71  415818.52  49.13
1069.4  844383.38  414809.52  49.13
1073.2  842673.00  413860.75  49.11
1077.0  841106.93  412970.96  49.10
1080.8  840319.33  412345.91  49.07
1084.6  839437.50  411655.73  49.04
1088.4  838311.48  410872.80  49.01
1092.2  836892.93  409852.03  48.97
1096.0  835554.77  408784.58  48.92
1099.8  834123.75  407613.06  48.87
1103.6  832383.65  406254.33  48.81
1107.4  830881.63  404949.77  48.74
1111.2  829381.73  403589.73  48.66
1114.9  828159.00  402233.43  48.57
1118.7  827312.67  400866.65  48.45
1122.5  827163.57  399641.90  48.31
1126.3  824553.45  397067.70  48.16
1130.1  823981.78  394977.55  47.94
1133.9  820560.69  391007.36  47.65
1137.7  818043.40  386800.35  47.28
1141.4  814359.08  381475.24  46.84
1145.2  813480.00  377086.36  46.35
1149.0  811498.80  372313.50  45.88
1152.8  808239.20  367495.31  45.47
1156.6  804746.99  363478.82  45.17
1160.3  801583.05  360417.59  44.96
1164.1  796938.33  357369.24  44.84
1167.9  793798.46  355435.48  44.78
1171.7  791286.80  354052.71  44.74
1175.4  788938.80  352877.74  44.73
1179.2  786981.75  351830.36  44.71
1183.0  787113.75  351654.10  44.68
1186.7  787075.33  351338.63  44.64
1190.5  785478.00  350402.60  44.61
1194.3  782607.00  348871.34  44.58
1198.0  779550.03  347384.02  44.56
1201.8  777032.67  346325.63  44.57
1205.6  775432.96  345876.05  44.60
1209.3  774151.50  345774.24  44.66
1213.1  772737.00  345700.40  44.74
1216.8  770844.80  345534.27  44.83
1220.6  768581.83  345322.98  44.93
1224.3  766287.50  345028.97  45.03
1228.1  764139.94  344868.37  45.13
1231.9  761863.70  344492.25  45.22
1235.6  759491.43  343939.59  45.29
1239.4  757136.65  343417.74  45.36
1243.1  754928.10  342785.10  45.41
1246.9  752918.93  342167.81  45.45
1250.6  750847.78  341423.23  45.47
1254.3  748924.80  340706.55  45.49
1258.1  746802.67  339804.21  45.50
1261.8  744320.97  338664.80  45.50
1265.6  741897.43  337455.33  45.49
1269.3  739385.20  336104.40  45.46
1273.1  739807.42  335977.05  45.41
1276.8  740155.20  335705.18  45.36
1280.6  739672.79  335003.84  45.29
1284.3  737100.10  333279.43  45.21
1288.0  735031.81  331623.49  45.12
1291.8  733168.80  329895.60  45.00
1295.5  731335.87  328041.04  44.86
1299.2  728958.75  325809.47  44.70
1302.9  726122.93  323137.78  44.50
1306.7  723123.45  320145.63  44.27
1310.4  720117.23  316882.64  44.00
1314.1  717665.63  313656.64  43.71
1317.9  715114.40  310048.56  43.36
1321.6  712298.71  306035.76  42.96
1325.3  709418.25  301652.53  42.52
1329.0  706700.87  297127.03  42.04
1332.8  702851.25  291875.79  41.53
1336.5  699209.79  286604.47  40.99
1340.2  697278.35  282008.48  40.44
1343.9  696208.80  277784.56  39.90
1347.6  695101.55  273605.62  39.36
1351.4  694115.00  269580.32  38.84
1355.1  694438.43  266083.66  38.32
1358.8  693035.23  261770.43  37.77
1362.5  692666.39  257561.99  37.18
1366.2  690466.33  252056.54  36.51
1369.9  686424.00  245113.25  35.71
1373.6  682238.70  236883.45  34.72
1377.3  679396.63  227524.62  33.49
1381.0  676691.43  216152.87  31.94
1384.8  673180.60  202382.51  30.06
1388.4  668803.05  187122.98  27.98
1392.2  664623.08  171088.48  25.74
1395.9  662757.45  155501.81  23.46
1399.6  658831.55  140386.38  21.31
1403.3  656580.00  127270.06  19.38
1407.0  654365.25  116209.50  17.76
1410.7  653197.24  107559.48  16.47
1414.3  651233.00  100910.91  15.50
1418.1  649213.54  96131.37  14.81
1421.7  647420.90  92795.72  14.33
1425.4  646022.31  90683.81  14.04
1429.1  642463.50  89114.08  13.87
1432.8  641072.55  88497.61  13.80
1436.5  637767.00  88048.38  13.81
1440.2  634397.83  87912.73  13.86
1443.9  632207.65  88125.52  13.94
1447.6  628691.20  88297.80  14.04
1451.2  625728.90  88594.76  14.16
1454.9  624073.33  89198.83  14.29
1458.6  620343.57  89733.05  14.47
1462.3  619408.93  90992.19  14.69
1466.0  619382.29  92812.45  14.98
1469.7  617586.20  94829.21  15.35
1473.3  615322.40  97158.03  15.79
1477.0  611105.02  99420.99  16.27
1480.7  607957.25  101998.30  16.78
1484.4  604284.63  104496.88  17.29
1488.0  601111.50  107148.87  17.83
1491.7  597522.23  109676.01  18.36
1495.4  594016.25  112200.53  18.89
1499.0  591030.70  114735.95  19.41
1502.7  588218.66  117266.92  19.94
1506.4  585460.17  119685.27  20.44
1510.0  582662.71  122022.02  20.94
1513.7  579962.58  124250.69  21.42
1517.4  577403.87  126421.67  21.89
1521.0  575004.28  128531.61  22.35
1524.7  572516.58  130463.24  22.79
1528.3  570079.35  132294.36  23.21
1532.0  567462.55  133976.12  23.61
1535.7  564730.88  135491.04  23.99
1539.3  562109.83  136965.32  24.37
1543.0  560400.75  138574.40  24.73
1546.6  558980.92  140167.69  25.08
1550.3  557359.48  141614.75  25.41
1553.9  555007.60  142750.78  25.72
1557.6  552754.18  143833.55  26.02
1561.2  550224.42  144728.73  26.30
1564.9  547501.43  145526.76  26.58
1568.5  544786.67  146224.55  26.84
1572.2  542376.92  146959.35  27.10
1575.8  540506.05  147780.81  27.34
1579.5  538629.08  148529.47  27.58
1583.1  536261.48  149112.96  27.81
1586.8  534047.82  149669.90  28.03
1590.4  531798.37  150165.34  28.24
1594.0  529378.63  150555.82  28.44
1597.7  527242.23  150996.48  28.64
1601.3  524926.58  151353.80  28.83
1604.9  522296.50  151521.34  29.01
1608.6  519418.80  151564.44  29.18
1612.2  516734.29  151550.60  29.33
1615.8  514326.60  151571.00  29.47
1619.5  512041.45  151556.26  29.60
1623.1  509279.10  151316.64  29.71
1626.7  506467.67  150972.33  29.81
1630.3  503883.60  150585.42  29.88
1634.0  501442.61  150106.86  29.94
1637.6  499194.17  149472.78  29.94
1641.2  496920.43  148588.57  29.90
1644.8  494358.41  147379.25  29.81
1648.5  491670.33  146003.11  29.70
1652.1  489502.52  144802.44  29.58
1655.7  487620.92  143889.93  29.51
1659.3  485777.25  143353.25  29.51
1662.9  482530.05  142678.21  29.57
1666.6  478916.35  142003.69  29.65
1670.2  475530.00  141282.04  29.71
1673.8  472298.44  140352.94  29.72
1677.4  469696.50  139423.58  29.68
1681.0  467995.98  138500.87  29.59
1684.6  467123.71  137533.04  29.44
1688.2  465628.80  136124.44  29.23
1691.8  463923.88  134588.88  29.01
1695.4  463084.41  133300.97  28.79
1699.0  462193.15  132035.41  28.57
1702.6  461666.67  130771.55  28.33
1706.2  460119.13  129074.29  28.05
1709.8  457923.53  127190.93  27.78
1713.4  456320.80  125642.73  27.53
1717.0  454655.60  124339.59  27.35
1720.6  452905.72  123226.91  27.21
1724.2  451450.59  122294.13  27.09
1727.8  450117.16  121486.19  26.99
1731.4  449356.33  120948.42  26.92
1735.0  449264.98  120583.54  26.84
1738.6  448637.63  119943.82  26.74
1742.2  447728.48  118974.75  26.57
1745.8  445988.27  117629.02  26.37
1749.4  443654.46  115982.69  26.14
1753.0  439915.60  113966.48  25.91
1756.6  436028.25  111976.14  25.68
1760.1  432724.40  110202.22  25.47
1763.7  428889.33  108380.67  25.27
1767.3  425771.87  106831.37  25.09
1770.9  423095.83  105435.03  24.92
1774.5  419989.93  103988.17  24.76
1778.0  417760.43  102876.72  24.63
1781.6  415483.27  101921.56  24.53
1785.2  412799.03  101006.79  24.47
1788.8  409973.54  100177.10  24.44
1792.3  407607.84  99498.48  24.41
1795.9  407008.38  99283.77  24.39
1799.5  407220.76  99303.24  24.39
1803.1  408580.63  99575.03  24.37
1806.6  410341.07  99901.27  24.35
1810.2  412149.68  100238.39  24.32
1813.8  411632.53  100015.15  24.30
1817.3  410927.55  99779.06  24.28
1820.9  409750.00  99389.58  24.26
1824.5  408553.79  98947.28  24.22
1828.0  408742.33  98767.05  24.16
1831.6  409207.95  98557.77  24.09
1835.2  408410.42  97857.49  23.96
1838.7  408655.33  97175.43  23.78
1842.3  407048.25  95830.14  23.54
1845.8  405615.38  94225.80  23.23
1849.4  405136.67  92425.66  22.81
1852.9  403508.33  89888.16  22.28
1856.5  402049.59  86796.23  21.59
1860.0  401795.80  83297.53  20.73
1863.6  400933.44  78998.32  19.70
1867.1  400362.19  74037.12  18.49
1870.7  400842.26  68266.31  17.03
1874.2  400027.58  61379.63  15.34
1877.8  396914.99  53937.92  13.59
1881.3  393816.73  46515.11  11.81
1884.9  391297.18  39629.77  10.13
1888.4  388941.58  33391.76  8.59
1891.9  386982.26  28238.77  7.30
1895.5  385069.77  24278.70  6.31
1899.0  383779.63  21527.86  5.61
1901.3  404745.60  14511.56  3.59
1904.1  404599.25  13068.17  3.23
1906.8  402943.92  11962.90  2.97
1909.6  399545.20  11164.82  2.79
1912.4  395898.58  10564.11  2.67
1915.1  392046.43  10119.43  2.58
1917.9  388220.55  9823.82  2.53
1920.6  385370.10  9636.61  2.50
1923.3  382950.67  9567.42  2.50
1926.1  379794.90  9524.15  2.51
1928.8  376227.80  9509.07  2.53
1931.6  375171.30  9615.67  2.56
1934.3  371426.23  9655.36  2.60
1937.0  367502.40  9757.20  2.66
1939.8  364227.50  9890.62  2.72
1942.5  359781.83  10029.06  2.79
1945.2  356216.58  10195.28  2.86
1947.9  353522.65  10409.32  2.94
1950.7  349346.03  10604.64  3.04
1953.4  345901.30  10847.75  3.14
1956.1  343238.57  11144.53  3.25
1958.8  341081.42  11467.94  3.36
1961.5  338184.00  11778.08  3.48
1964.2  334836.53  12102.36  3.61
1966.9  331821.07  12457.42  3.75
1969.6  329134.73  12838.59  3.90
1972.3  326630.87  13225.13  4.05
1975.0  324115.33  13660.67  4.21
1977.7  321888.02  14108.67  4.38
1980.4  319621.87  14585.51  4.56
1983.1  317268.37  15032.12  4.74
1985.8  315118.80  15517.60  4.92
1988.4  313105.10  16001.88  5.11
1991.1  311320.80  16530.97  5.31
1993.8  309798.30  17058.77  5.51
1996.5  308255.50  17586.57  5.71
1999.1  306903.57  18129.24  5.91
2001.8  305627.70  18684.72  6.11
2004.5  304418.70  19229.82  6.32
2007.1  302927.13  19743.51  6.52
2009.8  300962.08  20219.31  6.72
2012.4  299635.00  20695.88  6.91
2015.1  298449.27  21175.74  7.10
2017.8  297315.58  21623.57  7.27
2020.4  296177.35  22065.55  7.45
2023.1  295727.23  22540.98  7.62
2025.7  295478.07  23015.07  7.79
2028.3  294653.40  23386.17  7.94
2031.0  294075.63  23765.15  8.08
2033.6  293778.50  24159.92  8.22
2036.2  293370.70  24490.82  8.35
2038.9  292385.60  24765.87  8.47
2041.5  291437.50  25006.95  8.58
2044.1  290645.83  25243.06  8.69
2046.8  289518.20  25431.03  8.78
2049.4  288690.33  25631.22  8.88
2052.0  288499.85  25865.45  8.97
2054.6  288107.73  26087.56  9.05
2057.2  287016.75  26256.37  9.15
2059.8  285516.00  26397.00  9.25
2062.4  284145.33  26523.03  9.33
2065.0  282764.65  26628.25  9.42
2067.6  280879.13  26719.34  9.51
2070.2  279385.77  26817.50  9.60
2072.8  278489.75  26965.58  9.68
2075.4  277452.67  27114.50  9.77
2078.0  276839.55  27271.12  9.85
2080.6  275544.53  27370.70  9.93
2083.2  274174.97  27462.97  10.02
2085.8  272853.00  27541.50  10.09
2088.4  271820.05  27620.23  10.16
2090.9  270147.50  27627.50  10.23
2093.5  268227.60  27598.87  10.29
2096.1  266430.45  27584.70  10.35
2098.7  264953.95  27591.76  10.41
2101.2  263006.00  27563.20  10.48
2103.8  261518.92  27556.11  10.54
2106.4  260093.50  27548.98  10.59
2108.9  259067.52  27555.96  10.64
2111.5  258115.08  27569.11  10.68
2114.0  257551.67  27603.33  10.72
2116.6  255359.87  27452.70  10.75
2119.1  254258.90  27378.17  10.77
2121.7  253694.10  27370.24  10.79
2124.2  253572.33  27408.11  10.81
2126.8  252403.05  27371.65  10.84
2129.3  251291.48  27332.61  10.88
2131.9  251501.07  27437.96  10.91
2134.4  250642.93  27475.35  10.96
2136.9  250378.43  27563.09  11.01
2139.4  249318.17  27572.50  11.06
2142.0  248912.98  27661.99  11.11
2144.5  248394.08  27754.92  11.17
2147.0  247906.15  27855.13  11.24
2149.5  247496.43  27957.47  11.30
2152.1  247833.30  28149.48  11.36
2154.6  247892.00  28280.80  11.41
2157.1  247826.87  28390.50  11.46
2159.6  246775.37  28382.71  11.50
2162.1  246565.53  28448.07  11.54
2164.6  245913.78  28478.68  11.58
2167.1  244912.23  28470.29  11.62
2169.6  245025.87  28587.94  11.67
2172.1  244234.10  28576.43  11.70
2174.6  243890.27  28679.78  11.76
2177.1  242784.08  28675.22  11.81
2179.5  242333.33  28740.73  11.86
2182.0  242018.00  28803.53  11.90
2184.5  241056.45  28805.33  11.95
2187.0  240261.43  28853.17  12.01
2189.5  239265.38  28880.73  12.07
2191.9  238030.65  28884.17  12.13
2194.4  236340.00  28793.42  12.18
2196.9  235236.65  28804.66  12.24
2199.3  233792.90  28741.17  12.29
2201.8  232615.02  28696.38  12.34
2204.3  231939.70  28754.67  12.40
2206.7  230696.90  28698.25  12.44
2209.2  229471.65  28638.60  12.48
2211.6  227490.37  28479.47  12.52
2214.1  226797.78  28497.78  12.57
2216.5  226466.75  28497.18  12.58
2219.0  225134.43  28381.59  12.61
2221.4  225164.10  28425.20  12.62
2223.9  223987.40  28272.69  12.62
2226.3  222701.53  28084.12  12.61
2228.7  221730.60  27887.60  12.58
2231.1  221051.57  27691.14  12.53
2233.6  220020.80  27399.47  12.45
2236.0  218958.08  27098.73  12.38
2238.4  218130.25  26737.66  12.26
2240.9  217419.00  26367.93  12.13
2243.3  216541.18  25971.75  11.99
2245.7  215733.43  25570.04  11.85
2248.1  214794.67  25144.89  11.71
2250.5  213960.27  24745.60  11.57
2252.9  213273.80  24368.29  11.43
2255.3  212548.73  23977.84  11.28
2257.7  211665.30  23603.07  11.15
2260.1  210784.80  23202.80  11.01
2262.5  209705.60  22805.20  10.87
2264.9  208757.53  22452.86  10.76
2267.3  207836.20  22107.80  10.64
2269.7  206861.10  21757.19  10.52
2272.1  206043.00  21480.83  10.43
2274.5  205328.60  21217.00  10.33
2276.8  204658.40  20966.76  10.24
2279.2  203928.00  20685.80  10.14
2281.6  203352.25  20418.67  10.04
2284.0  202999.50  20196.00  9.95
2286.3  202439.13  19905.67  9.83
2288.7  201896.32  19619.17  9.72
2291.1  201361.00  19316.67  9.59
2293.4  200655.20  19003.30  9.47
2295.8  199966.43  18693.28  9.35
2298.2  199161.90  18352.23  9.21
2300.5  198009.20  18010.37  9.10
2302.9  196651.15  17657.48  8.98
2305.2  195216.58  17318.19  8.87
2307.6  193732.00  16987.91  8.77
2309.9  192676.30  16755.39  8.70
2312.2  191681.17  16565.83  8.64
2314.6  190574.93  16355.95  8.58
2316.9  189472.87  16131.36  8.51
2319.2  188794.28  15970.78  8.46
2321.6  188069.55  15785.61  8.39
2323.9  187273.80  15575.53  8.32
2326.2  186438.03  15385.23  8.25
2328.6  185734.95  15164.80  8.16
2330.9  185382.67  15008.80  8.10
2333.2  184904.75  14849.83  8.03
2335.5  184353.00  14703.50  7.98
2337.8  183833.00  14546.73  7.91
2340.1  183254.73  14366.55  7.84
2342.4  182833.20  14203.35  7.77
2344.8  182129.90  14040.25  7.71
2347.1  181352.60  13875.60  7.65
2349.4  180742.67  13747.51  7.61
2351.6  179968.00  13616.67  7.57
2353.9  178928.80  13433.67  7.51
2356.2  178096.67  13305.63  7.47
2358.5  177246.40  13159.91  7.42
2360.8  176541.67  13009.72  7.37
2363.1  176152.25  12906.39  7.33
2365.4  175648.50  12757.50  7.26
2367.7  175104.60  12573.09  7.18
2369.9  174415.45  12429.51  7.13
2372.2  173253.50  12249.40  7.07
2374.5  172040.00  12041.67  7.00
2376.7  170977.70  11852.50  6.93
2379.0  169802.60  11644.60  6.86
2381.3  168343.63  11406.94  6.78
2383.5  167402.67  11201.56  6.69
2385.8  166730.67  11019.56  6.61
2388.0  165905.90  10827.51  6.53
2390.3  165218.12  10606.82  6.42
2392.5  164677.50  10415.50  6.32
2394.8  163734.25  10230.42  6.25
2397.0  163268.27  10059.87  6.16
2399.3  162616.23  9905.72  6.09
2401.5  161851.90  9695.67  5.99
2403.8  161157.37  9506.33  5.90
2406.0  160646.93  9343.89  5.82
2408.2  159855.15  9175.25  5.74
2410.4  159025.35  8981.55  5.65
2412.7  158589.00  8766.67  5.53
2414.9  157935.67  8593.69  5.44
2417.1  157928.73  8488.47  5.37
2419.3  157369.57  8318.29  5.29
2421.6  156537.03  8160.52  5.21
2423.8  155910.20  7966.49  5.11
2426.0  155507.70  7814.27  5.03
2428.2  155174.25  7661.50  4.94
2430.4  155213.83  7534.46  4.85
2432.6  155200.90  7347.73  4.73
2434.8  154496.00  7201.77  4.66
2437.0  153910.90  7087.60  4.61
2439.2  153429.47  6898.95  4.50
2441.4  152729.60  6719.60  4.40
2443.6  152542.73  6620.22  4.34
2445.7  152671.67  6518.32  4.27
2447.9  152636.25  6411.82  4.20
2450.1  151810.00  6258.83  4.12
2452.3  150781.95  6055.50  4.02
2454.5  150370.27  5904.89  3.93
2456.6  149565.42  5756.94  3.85
2458.8  148384.13  5655.38  3.81
2461.0  148047.47  5580.03  3.77
2463.1  147689.33  5483.28  3.71
2465.3  147077.33  5353.11  3.64
2467.5  146670.33  5205.78  3.55
2469.6  146237.33  5169.25  3.53
2471.8  145831.93  5068.89  3.48
2473.9  145218.67  4973.94  3.43
2476.1  144535.42  4882.78  3.38
2478.2  143622.02  4753.26  3.31
2480.4  142792.02  4735.79  3.32
2482.5  141779.17  4617.95  3.26
2484.6  140794.00  4537.33  3.22
2486.8  139994.20  4428.44  3.16
2488.9  139519.40  4378.40  3.14
2491.1  138155.80  4304.98  3.12
2493.2  136965.07  4215.63  3.08
2495.3  135347.18  4138.26  3.06
2497.4  133988.02  4025.77  3.00
2499.5  133215.90  3958.96  2.97
2501.7  133216.00  3951.83  2.97
2503.8  133577.27  3921.48  2.94
2505.9  134157.45  3941.13  2.94
2508.0  134929.25  3969.47  2.94
2510.1  135777.30  4010.30  2.95
2512.2  136546.50  3914.19  2.87
2514.3  137726.98  3948.39  2.87
2516.4  139643.22  4255.37  3.05
