/*** Spectra Vista SIG Data ***/
name= 19_20220720_QUPA_26_avg.sig
comm= Averaged Ref/Tar of files: 18_20220720_QUPA_26_1_avg.sig,19_20220720_QUPA_26_2_avg.sig
data=
337.3  3225.63  248.36  7.70
338.8  3391.05  240.04  7.08
340.3  3537.18  234.03  6.62
341.8  3703.73  234.94  6.34
343.2  3840.60  223.90  5.83
344.7  3966.45  223.81  5.64
346.2  4166.70  216.90  5.21
347.7  4365.08  213.86  4.90
349.2  4573.80  213.48  4.67
350.6  4810.98  210.38  4.37
352.1  5072.96  208.74  4.11
353.6  5326.45  211.67  3.97
355.1  5590.06  208.14  3.72
356.6  5883.12  210.39  3.58
358.0  6140.75  214.95  3.50
359.5  6411.75  215.13  3.36
361.0  6703.20  219.88  3.28
362.5  7040.64  222.63  3.16
364.0  7383.82  224.90  3.05
365.4  7699.40  232.16  3.02
366.9  8066.51  234.42  2.91
368.4  8359.79  242.36  2.90
369.9  8702.06  256.09  2.94
371.3  9078.00  262.04  2.89
372.8  9451.80  271.57  2.87
374.3  9836.25  270.68  2.75
375.8  10227.53  274.51  2.68
377.2  10598.60  278.35  2.63
378.7  10975.20  283.48  2.58
380.2  11338.35  288.60  2.55
381.7  11809.93  293.80  2.49
383.1  12221.83  300.30  2.46
384.6  12678.25  304.95  2.41
386.1  13066.59  308.60  2.36
387.6  13501.95  314.68  2.33
389.0  13936.00  323.65  2.32
390.5  14363.55  331.62  2.31
392.0  14864.90  340.95  2.29
393.4  15370.88  348.83  2.27
394.9  15855.75  354.09  2.23
396.4  16340.07  358.92  2.20
397.9  16861.26  371.44  2.20
399.3  17372.96  379.64  2.19
400.8  17871.23  390.02  2.18
402.2  18449.33  402.62  2.18
403.7  18995.18  411.46  2.17
405.2  19543.72  420.52  2.15
406.6  20079.60  429.53  2.14
408.1  20611.20  441.24  2.14
409.6  21181.75  450.71  2.13
411.0  21777.00  462.99  2.13
412.5  22386.88  474.32  2.12
414.0  22972.82  490.46  2.13
415.4  23621.44  502.65  2.13
416.9  24247.96  520.15  2.15
418.4  24865.77  530.55  2.13
419.8  25525.50  547.39  2.14
421.3  26193.84  562.93  2.15
422.7  26917.80  582.41  2.16
424.2  27641.25  596.73  2.16
425.7  28329.40  614.20  2.17
427.1  29015.14  629.76  2.17
428.6  29752.25  650.56  2.19
430.0  30433.47  667.99  2.19
431.5  31223.10  688.76  2.21
432.9  32032.23  707.04  2.21
434.4  32854.39  728.94  2.22
435.9  33607.00  748.94  2.23
437.3  34381.88  768.56  2.24
438.8  35145.68  787.03  2.24
440.2  35931.09  810.36  2.26
441.7  36816.50  834.12  2.27
443.1  37656.50  856.40  2.27
444.6  38546.75  879.39  2.28
446.0  39398.59  903.19  2.29
447.5  40267.84  926.42  2.30
448.9  41112.30  950.85  2.31
450.4  42029.23  975.69  2.32
451.8  42822.00  1000.08  2.34
453.3  43670.51  1024.46  2.35
454.7  44597.38  1048.73  2.35
456.2  45388.21  1070.47  2.36
457.6  46289.93  1094.49  2.36
459.1  47170.50  1115.69  2.37
460.5  48029.63  1138.09  2.37
462.0  48987.56  1162.12  2.37
463.4  49922.80  1187.86  2.38
464.8  50831.07  1212.55  2.39
466.3  51745.24  1235.07  2.39
467.7  52654.58  1259.32  2.39
469.2  53632.79  1282.57  2.39
470.6  54514.00  1305.25  2.39
472.0  55455.50  1328.95  2.40
473.5  56372.88  1354.66  2.40
474.9  57306.38  1378.52  2.41
476.4  58356.00  1407.08  2.41
477.8  59348.50  1434.74  2.42
479.2  60283.75  1459.81  2.42
480.7  61294.39  1485.55  2.42
482.1  62344.53  1515.12  2.43
483.6  63421.05  1544.29  2.43
485.0  64428.23  1574.53  2.44
486.4  65511.38  1608.75  2.46
487.9  66514.50  1643.02  2.47
489.3  67587.75  1677.81  2.48
490.7  68574.33  1714.34  2.50
492.2  69714.75  1753.57  2.52
493.6  70715.55  1792.61  2.53
495.0  71735.63  1835.86  2.56
496.5  72817.36  1882.31  2.58
497.9  73815.26  1935.36  2.62
499.3  74879.19  1989.37  2.66
500.7  76033.50  2053.73  2.70
502.2  77073.40  2119.37  2.75
503.6  78212.20  2197.86  2.81
505.0  79183.25  2278.50  2.88
506.5  80376.01  2378.99  2.96
507.9  81478.21  2491.10  3.06
509.3  82754.20  2624.18  3.17
510.7  83910.94  2767.68  3.30
512.2  85192.62  2938.15  3.45
513.6  86530.50  3133.36  3.62
515.0  87818.04  3350.87  3.82
516.4  89068.62  3596.81  4.04
517.8  90548.32  3878.66  4.28
519.3  91733.82  4177.73  4.55
520.7  93158.53  4506.37  4.84
522.1  94331.25  4844.47  5.14
523.5  95576.40  5198.47  5.44
524.9  96813.00  5554.36  5.74
526.3  98053.55  5904.55  6.02
527.8  99509.85  6262.74  6.29
529.2  100656.95  6600.92  6.56
530.6  101944.75  6933.05  6.80
532.0  103523.00  7260.27  7.01
533.4  104778.64  7536.97  7.19
534.8  105608.24  7758.61  7.35
536.3  107128.05  8011.21  7.48
537.7  108927.00  8263.26  7.59
539.1  110271.78  8473.68  7.68
540.5  111426.35  8660.34  7.77
541.9  113081.22  8881.72  7.85
543.3  114251.04  9058.60  7.93
544.7  115556.10  9251.54  8.01
546.1  117169.80  9461.77  8.08
547.5  118232.80  9616.75  8.13
549.0  119806.50  9802.10  8.18
550.4  121135.63  9951.78  8.22
551.8  122489.95  10075.64  8.23
553.2  123908.78  10180.25  8.22
554.6  125143.20  10237.66  8.18
556.0  126518.40  10271.10  8.12
557.4  127962.89  10275.79  8.03
558.8  129437.10  10252.81  7.92
560.2  130756.13  10186.47  7.79
561.6  132256.77  10104.70  7.64
563.0  133702.90  9989.71  7.47
564.4  135129.68  9848.88  7.29
565.8  136499.38  9680.74  7.09
567.2  138094.50  9506.59  6.88
568.6  139455.57  9301.44  6.67
570.0  140748.89  9080.82  6.45
571.4  142307.43  8877.26  6.24
572.8  143890.75  8682.00  6.03
574.2  145381.60  8496.21  5.84
575.6  146795.63  8324.68  5.67
577.0  148159.95  8170.82  5.51
578.4  149717.75  8047.82  5.38
579.8  151097.07  7933.71  5.25
581.2  152656.89  7847.30  5.14
582.5  153931.05  7757.77  5.04
583.9  155305.70  7687.93  4.95
585.3  156938.97  7643.76  4.87
586.7  158267.04  7598.08  4.80
588.1  159625.63  7564.73  4.74
589.5  161105.88  7548.16  4.69
590.9  162582.60  7541.68  4.64
592.3  164223.03  7554.68  4.60
593.7  165510.16  7559.61  4.57
595.0  167000.74  7577.13  4.54
596.4  168298.20  7584.14  4.51
597.8  169635.05  7589.86  4.47
599.2  171045.60  7588.18  4.44
600.6  172632.04  7583.01  4.39
602.0  173800.05  7546.26  4.34
603.3  175418.30  7512.89  4.28
604.7  176927.15  7459.91  4.22
606.1  178268.40  7390.17  4.15
607.5  179750.87  7315.20  4.07
608.9  181273.10  7239.09  3.99
610.2  182524.39  7148.66  3.92
611.6  183961.66  7068.50  3.84
613.0  185364.60  6987.13  3.77
614.4  186611.03  6909.52  3.70
615.8  187916.63  6841.44  3.64
617.1  189313.95  6794.13  3.59
618.5  190779.40  6756.20  3.54
619.9  192151.92  6730.75  3.50
621.3  193623.30  6722.52  3.47
622.6  195062.75  6723.29  3.45
624.0  196384.95  6728.70  3.43
625.4  197708.78  6746.22  3.41
626.8  199142.13  6775.86  3.40
628.1  200362.53  6805.93  3.40
629.5  202075.97  6857.49  3.39
630.9  203547.86  6903.79  3.39
632.2  204837.33  6940.19  3.39
633.6  206339.13  6975.75  3.38
635.0  207750.20  6995.57  3.37
636.3  209131.05  6995.88  3.35
637.7  210367.82  6978.96  3.32
639.1  211863.75  6950.00  3.28
640.4  213204.69  6898.30  3.24
641.8  214292.16  6826.13  3.19
643.2  215732.22  6756.12  3.13
644.5  216956.00  6678.11  3.08
645.9  218558.70  6612.48  3.03
647.2  220239.96  6557.53  2.98
648.6  222071.63  6518.57  2.94
650.0  223506.00  6473.73  2.90
651.3  223742.07  6400.68  2.86
652.7  224460.90  6344.46  2.83
654.0  226183.30  6322.48  2.80
655.4  227750.00  6299.89  2.77
656.8  228089.60  6232.56  2.73
658.1  229020.30  6187.05  2.70
659.5  231043.84  6161.47  2.67
660.8  232661.25  6141.54  2.64
662.2  233452.80  6107.52  2.62
663.5  235089.03  6096.84  2.59
664.9  236414.75  6089.50  2.58
666.2  237218.10  6086.93  2.57
667.6  238966.80  6125.77  2.56
668.9  240003.88  6162.63  2.57
670.3  240833.32  6203.52  2.58
671.6  242379.38  6269.81  2.59
673.0  243430.32  6346.51  2.61
674.3  244525.45  6424.16  2.63
675.7  245727.87  6520.64  2.65
677.0  246790.13  6619.67  2.68
678.4  248100.62  6742.91  2.72
679.7  249146.80  6871.80  2.76
681.1  250319.47  7021.85  2.81
682.4  251365.40  7190.92  2.86
683.8  252547.75  7384.77  2.92
685.1  253475.07  7607.74  3.00
686.4  254634.00  7882.38  3.10
687.8  255863.88  8227.42  3.22
689.1  256831.75  8651.97  3.37
690.5  258041.93  9214.59  3.57
691.8  258878.29  9951.40  3.84
693.1  260044.65  10938.34  4.21
694.5  261090.38  12200.50  4.67
695.8  262216.50  13791.38  5.26
697.1  263285.75  15743.22  5.98
698.5  264250.70  18095.80  6.85
699.8  265274.83  20851.50  7.86
701.1  266329.22  24003.43  9.01
702.5  267082.20  27476.53  10.29
703.8  267975.00  31251.32  11.66
705.1  269010.30  35266.09  13.11
706.5  269999.13  39452.35  14.61
707.8  270915.53  43753.85  16.15
709.1  271739.91  48103.47  17.70
710.5  272811.51  52525.62  19.25
711.8  273621.00  56892.61  20.79
713.1  274579.90  61262.78  22.31
714.4  275416.15  65550.32  23.80
715.8  276196.65  69748.35  25.25
717.1  277419.38  73969.67  26.66
718.4  278297.60  77995.20  28.03
719.7  279341.78  81945.25  29.34
721.0  279843.75  85613.68  30.59
722.4  280567.10  89202.97  31.79
723.7  281471.55  92703.43  32.94
725.0  282471.75  96081.74  34.01
726.3  283395.20  99282.78  35.03
727.6  283931.59  102194.27  35.99
729.0  284762.89  105061.90  36.89
730.3  285533.03  107742.20  37.73
731.6  286400.23  110310.86  38.52
732.9  287166.95  112708.53  39.25
734.2  287944.94  114966.94  39.93
735.5  288910.53  117184.30  40.56
736.8  289685.10  119190.35  41.14
738.1  290456.70  121083.89  41.69
739.5  291357.10  122911.80  42.19
740.8  292011.23  124537.08  42.65
742.1  292753.79  126104.40  43.08
743.4  293500.00  127593.34  43.47
744.7  294484.57  129083.26  43.83
746.0  295314.83  130434.56  44.17
747.3  295847.52  131552.81  44.47
748.6  296588.50  132687.55  44.74
749.9  297336.00  133761.09  44.99
751.2  298070.78  134765.90  45.21
752.5  298959.88  135780.76  45.42
753.8  299614.79  136620.46  45.60
755.1  300287.00  137413.10  45.76
756.4  300868.43  138116.00  45.91
757.7  301805.09  138926.86  46.03
759.0  303501.93  140043.25  46.14
760.3  304629.60  140869.77  46.24
761.6  306139.40  141828.67  46.33
762.9  306702.13  142324.78  46.40
764.2  307090.40  142718.08  46.47
765.5  307422.89  143050.15  46.53
766.8  307876.80  143425.34  46.59
768.1  308428.10  143819.99  46.63
769.3  309057.88  144236.89  46.67
770.6  309713.95  144652.70  46.71
771.9  310460.33  145099.78  46.74
773.2  310894.80  145395.56  46.77
774.5  311496.90  145767.67  46.80
775.8  312171.43  146152.32  46.82
777.1  312808.65  146503.88  46.83
778.4  313184.99  146741.50  46.85
779.6  313985.18  147155.17  46.87
780.9  314490.00  147444.29  46.88
782.2  314993.25  147722.85  46.90
783.5  315370.00  147936.91  46.91
784.8  315910.02  148246.97  46.93
786.0  316359.40  148483.90  46.94
787.3  316795.88  148710.83  46.94
788.6  317279.34  148965.86  46.95
789.9  317781.80  149228.91  46.96
791.2  318453.21  149569.66  46.97
792.4  319165.03  149924.93  46.97
793.7  319671.40  150187.08  46.98
795.0  320305.84  150517.07  46.99
796.2  320996.28  150850.44  46.99
797.5  321761.86  151221.26  47.00
798.8  322484.88  151565.63  47.00
800.0  323179.83  151900.41  47.00
801.3  323690.65  152155.49  47.01
802.6  324298.69  152463.56  47.01
803.8  324965.27  152790.31  47.02
805.1  325475.07  153048.29  47.02
806.4  325983.60  153311.68  47.03
807.7  326537.33  153571.50  47.03
808.9  327121.58  153851.02  47.03
810.2  327691.53  154125.79  47.03
811.4  328198.45  154383.85  47.04
812.7  328879.69  154698.46  47.04
814.0  329693.80  155101.21  47.04
815.2  330305.13  155403.84  47.05
816.5  330738.47  155621.12  47.05
817.7  331230.50  155854.84  47.05
819.0  331762.48  156126.41  47.06
820.2  331936.00  156221.17  47.06
821.5  332620.18  156564.16  47.07
822.7  332997.63  156751.54  47.07
824.0  333302.85  156926.86  47.08
825.2  333803.03  157164.01  47.08
826.5  334163.34  157324.00  47.08
827.7  334662.22  157586.49  47.09
829.0  335033.10  157774.33  47.09
830.2  335369.90  157933.88  47.09
831.5  335804.40  158156.63  47.10
832.7  336079.54  158307.40  47.10
834.0  336393.54  158459.05  47.11
835.2  336737.78  158637.01  47.11
836.4  337038.63  158791.96  47.11
837.7  337395.00  158990.54  47.12
838.9  337830.05  159205.83  47.13
840.1  338166.91  159396.73  47.14
841.4  338583.45  159612.36  47.14
842.6  338881.40  159805.99  47.16
843.8  339206.10  159972.14  47.16
845.1  339630.38  160206.00  47.17
846.3  340015.75  160406.33  47.18
847.5  340370.10  160604.61  47.19
848.8  340734.30  160803.01  47.19
850.0  341035.28  160953.82  47.20
851.2  341519.63  161201.98  47.20
852.5  341915.25  161400.66  47.20
853.7  342334.13  161625.50  47.21
854.9  342695.45  161835.78  47.22
856.1  343085.28  162032.71  47.23
857.4  343262.33  162135.34  47.23
858.6  343696.23  162339.93  47.23
859.8  344030.63  162516.89  47.24
861.0  344436.30  162725.27  47.24
862.2  344855.90  162929.29  47.25
863.5  345155.04  163085.51  47.25
864.7  345648.60  163305.75  47.25
865.9  346007.60  163489.06  47.25
867.1  346280.50  163622.92  47.25
868.3  346667.78  163810.30  47.25
869.5  347082.20  164018.57  47.26
870.8  347577.75  164255.34  47.26
872.0  348001.17  164475.06  47.26
873.2  348470.85  164651.63  47.25
874.4  348872.07  164850.16  47.25
875.6  349175.18  165000.91  47.25
876.8  349658.08  165198.47  47.25
878.0  350074.38  165411.24  47.25
879.2  350559.98  165627.85  47.25
880.4  351057.75  165841.92  47.24
881.6  351493.70  166047.71  47.24
882.8  351944.40  166235.61  47.23
884.0  352403.54  166485.79  47.24
885.2  352948.65  166691.39  47.23
886.5  353534.15  166953.38  47.22
887.7  353933.29  167169.14  47.23
888.8  354603.38  167462.68  47.23
890.0  355192.90  167689.33  47.21
891.2  355732.05  167926.46  47.21
892.4  356343.75  168187.47  47.20
893.6  356880.40  168423.47  47.19
894.8  357667.25  168818.44  47.20
896.0  358491.00  169195.26  47.20
897.2  359274.50  169553.14  47.19
898.4  360044.85  169902.76  47.19
899.6  360654.01  170126.97  47.17
900.8  361027.92  170298.52  47.17
902.0  361330.58  170393.25  47.16
903.2  361659.57  170547.56  47.16
904.3  362063.85  170696.94  47.15
905.5  362598.11  170972.11  47.15
906.7  363313.50  171249.88  47.14
907.9  363816.43  171481.93  47.13
909.1  364221.23  171627.56  47.12
910.2  364452.94  171730.91  47.12
911.4  364691.93  171838.82  47.12
912.6  365014.65  171930.16  47.10
913.8  365300.52  172059.07  47.10
915.0  365791.13  172245.96  47.09
916.2  366054.00  172311.19  47.07
917.3  366217.99  172332.70  47.06
918.5  366491.70  172459.32  47.06
919.7  366761.40  172582.95  47.06
920.8  366816.44  172620.84  47.06
922.0  366991.63  172689.83  47.06
923.2  367458.00  172743.35  47.01
924.4  367731.57  172830.38  47.00
925.5  368006.90  172950.48  47.00
926.7  368608.88  173188.34  46.98
927.9  369453.00  173511.05  46.96
929.0  370818.00  174088.96  46.95
930.2  372998.50  175018.03  46.92
931.4  375248.03  175996.43  46.90
932.5  377755.15  177094.58  46.88
933.7  379193.51  177691.38  46.86
934.9  379839.69  177928.38  46.84
936.0  379703.19  177745.82  46.81
937.2  377970.53  176823.51  46.78
938.3  376588.95  176071.83  46.75
939.5  375285.60  175393.53  46.74
940.7  375601.50  175427.23  46.71
941.8  376988.33  176014.77  46.69
943.0  378396.75  176579.18  46.67
944.2  379455.38  176870.44  46.61
945.3  379206.75  176624.41  46.58
946.5  378677.70  176218.55  46.54
947.6  378920.90  176210.44  46.50
948.8  378930.83  176044.43  46.46
949.9  379106.70  175987.74  46.42
951.1  379092.52  175654.17  46.34
952.2  379134.00  175472.06  46.28
953.4  378853.00  175165.73  46.24
954.5  379080.00  175000.58  46.16
955.7  379134.00  174813.72  46.11
956.8  378928.10  174554.50  46.07
958.0  378765.00  174282.53  46.01
959.1  378766.56  174076.97  45.96
960.3  378423.87  173828.25  45.93
961.4  378563.70  173689.86  45.88
962.6  378805.00  173695.45  45.85
963.7  378659.14  173528.89  45.83
964.9  378671.22  173486.96  45.81
966.0  378818.78  173455.97  45.79
967.2  379055.25  173518.88  45.78
968.3  378940.28  173396.53  45.76
969.5  378963.92  173381.77  45.75
970.6  378951.57  173360.12  45.75
971.8  379221.77  173449.78  45.74
972.9  379353.38  173475.18  45.73
974.0  379673.50  173620.90  45.73
975.2  380013.26  173647.25  45.70
976.3  380036.51  173664.39  45.70
977.5  380065.88  173737.20  45.71
978.6  380095.00  173727.23  45.71
979.7  380341.24  173904.67  45.72
980.9  380580.70  173868.09  45.68
982.0  381080.30  174007.02  45.66
983.2  380894.59  174077.02  45.70
984.3  380660.00  174044.49  45.72
985.4  380991.64  174137.30  45.71
986.6  381371.63  174317.92  45.71
987.7  382203.86  174923.64  45.77
988.9  382617.00  174982.85  45.73
990.0  383497.90  175347.98  45.72
993.1  310635.36  141476.38  45.54
996.9  311442.57  142210.33  45.66
1000.7  312580.16  143043.33  45.76
1004.5  313195.75  143621.06  45.86
1008.4  313126.90  143920.87  45.96
1012.2  313319.92  144297.07  46.05
1016.0  313608.00  144696.43  46.14
1019.8  314021.40  145148.86  46.22
1023.7  314327.74  145471.06  46.28
1027.5  314302.12  145653.01  46.34
1031.3  314708.77  145967.07  46.38
1035.1  314688.59  146077.17  46.42
1038.9  314711.84  146186.54  46.45
1042.7  314538.92  146213.06  46.48
1046.5  314429.17  146234.26  46.51
1050.3  314468.93  146299.95  46.52
1054.2  314206.09  146244.67  46.54
1058.0  313733.18  146047.16  46.55
1061.8  313607.87  146035.86  46.57
1065.6  313472.92  145944.84  46.56
1069.4  313584.93  145981.16  46.55
1073.2  313414.44  145868.16  46.54
1077.0  313055.67  145657.71  46.53
1080.8  312641.15  145377.61  46.50
1084.6  311684.92  144863.02  46.48
1088.4  311067.63  144524.08  46.46
1092.2  310342.50  144087.59  46.43
1096.0  309906.47  143756.68  46.39
1099.8  309520.25  143431.12  46.34
1103.6  308953.79  143019.08  46.29
1107.4  308173.02  142489.48  46.24
1111.2  307968.60  142217.74  46.18
1114.9  307313.42  141722.63  46.12
1118.7  306703.24  141179.13  46.03
1122.5  305997.90  140531.86  45.93
1126.3  304971.34  139676.34  45.80
1130.1  304546.64  138923.85  45.62
1133.9  303289.00  137564.15  45.36
1137.7  302154.90  136087.01  45.04
1141.4  300754.46  134296.49  44.65
1145.2  300198.84  132755.47  44.22
1149.0  299285.00  131131.98  43.82
1152.8  297987.90  129499.50  43.46
1156.6  296672.02  128139.64  43.19
1160.3  295236.33  127013.05  43.02
1164.1  293211.22  125850.62  42.92
1167.9  291716.67  125064.22  42.87
1171.7  290658.38  124554.38  42.85
1175.4  289729.74  124129.72  42.84
1179.2  288912.24  123717.47  42.82
1183.0  288650.50  123514.64  42.79
1186.7  288090.72  123204.85  42.77
1190.5  287110.67  122731.67  42.75
1194.3  286097.03  122270.81  42.74
1198.0  285164.14  121896.92  42.75
1201.8  283972.68  121424.23  42.76
1205.6  282907.50  121048.26  42.79
1209.3  282044.51  120824.32  42.84
1213.1  281189.78  120608.99  42.89
1216.8  280333.21  120448.69  42.97
1220.6  279397.07  120259.34  43.04
1224.3  278365.04  120009.40  43.11
1228.1  277342.40  119789.46  43.19
1231.9  276281.05  119508.26  43.26
1235.6  275023.84  119112.50  43.31
1239.4  273880.63  118774.29  43.37
1243.1  272840.38  118431.82  43.41
1246.9  271856.27  118078.21  43.43
1250.6  271071.30  117793.82  43.45
1254.3  270213.67  117452.45  43.47
1258.1  269464.53  117138.25  43.47
1261.8  268445.20  116694.80  43.47
1265.6  267243.79  116133.56  43.46
1269.3  265984.84  115520.38  43.43
1273.1  265899.42  115379.28  43.39
1276.8  266237.60  115383.38  43.34
1280.6  266252.93  115241.21  43.28
1284.3  265171.60  114593.83  43.21
1288.0  263918.96  113841.33  43.13
1291.8  262676.48  113042.00  43.03
1295.5  261432.60  112200.42  42.92
1299.2  260323.97  111371.97  42.78
1302.9  259090.53  110413.35  42.62
1306.7  257770.63  109359.25  42.43
1310.4  256533.34  108234.74  42.19
1314.1  255373.71  107087.30  41.93
1317.9  254366.98  105893.45  41.63
1321.6  253237.49  104554.48  41.29
1325.3  251867.18  103022.14  40.90
1329.0  250715.45  101517.36  40.49
1332.8  248910.20  99654.50  40.04
1336.5  247335.27  97862.61  39.57
1340.2  246920.92  96521.75  39.09
1343.9  246321.77  95099.88  38.61
1347.6  245307.38  93527.68  38.13
1351.4  244830.25  92218.36  37.67
1355.1  244367.57  90939.88  37.21
1358.8  243872.00  89603.43  36.74
1362.5  243247.74  88117.94  36.23
1366.2  241935.08  86184.48  35.62
1369.9  240879.32  84088.74  34.91
1373.6  239456.73  81526.97  34.05
1377.3  237720.90  78368.83  32.97
1381.0  236445.58  74696.93  31.59
1384.8  234715.00  70152.42  29.89
1388.4  233076.96  65218.85  27.98
1392.2  231672.38  60027.60  25.91
1395.9  230311.31  54745.98  23.77
1399.6  229017.99  49724.34  21.71
1403.3  228141.27  45295.08  19.85
1407.0  227390.95  41524.26  18.26
1410.7  226589.97  38473.17  16.98
1414.3  225837.01  36144.97  16.00
1418.1  225032.17  34456.50  15.31
1421.7  224448.59  33294.71  14.83
1425.4  223801.67  32534.66  14.54
1429.1  223160.44  32094.22  14.38
1432.8  221987.86  31809.41  14.33
1436.5  221341.78  31759.62  14.35
1440.2  220610.80  31812.71  14.42
1443.9  219501.43  31880.75  14.52
1447.6  218179.50  31959.40  14.65
1451.2  217362.48  32118.04  14.78
1454.9  216364.73  32269.50  14.91
1458.6  215463.73  32515.00  15.09
1462.3  214480.57  32853.21  15.32
1466.0  213300.98  33293.50  15.61
1469.7  211879.64  33849.60  15.98
1473.3  210974.50  34608.29  16.40
1477.0  209376.57  35344.02  16.88
1480.7  208027.03  36160.26  17.38
1484.4  206442.30  36931.04  17.89
1488.0  205142.67  37770.86  18.41
1491.7  203794.52  38572.03  18.93
1495.4  202353.56  39351.18  19.45
1499.0  200984.50  40104.93  19.95
1502.7  199872.67  40904.21  20.47
1506.4  198676.26  41643.27  20.96
1510.0  197477.02  42347.80  21.44
1513.7  196231.73  43002.61  21.91
1517.4  195098.17  43645.00  22.37
1521.0  194069.47  44281.70  22.82
1524.7  193047.30  44865.48  23.24
1528.3  191979.94  45409.86  23.65
1532.0  190963.21  45919.50  24.05
1535.7  189785.30  46340.84  24.42
1539.3  188723.51  46763.97  24.78
1543.0  187921.80  47223.10  25.13
1546.6  187322.42  47705.28  25.47
1550.3  186506.73  48094.16  25.79
1553.9  185604.87  48431.04  26.09
1557.6  184547.00  48692.02  26.38
1561.2  183470.40  48906.71  26.66
1564.9  182375.67  49100.08  26.92
1568.5  181246.92  49259.06  27.18
1572.2  180254.48  49432.92  27.42
1575.8  179368.00  49626.00  27.67
1579.5  178533.43  49803.61  27.90
1583.1  177706.78  49975.63  28.12
1586.8  176687.00  50069.00  28.34
1590.4  175802.59  50193.23  28.55
1594.0  174720.71  50242.56  28.76
1597.7  173750.19  50309.55  28.96
1601.3  172601.89  50321.25  29.15
1604.9  171467.40  50309.26  29.34
1608.6  170317.00  50260.10  29.51
1612.2  169457.07  50268.61  29.66
1615.8  168517.54  50237.13  29.81
1619.5  167556.67  50175.55  29.95
1623.1  166454.74  50059.53  30.07
1626.7  165436.06  49939.66  30.19
1630.3  164411.50  49814.71  30.30
1634.0  163471.00  49684.00  30.39
1637.6  162610.67  49552.85  30.47
1641.2  161785.75  49378.73  30.52
1644.8  160771.52  49104.06  30.54
1648.5  159862.92  48834.68  30.55
1652.1  159048.00  48543.28  30.52
1655.7  158266.10  48236.39  30.48
1659.3  157553.94  47943.15  30.43
1662.9  156343.34  47505.89  30.39
1666.6  155127.20  47085.16  30.35
1670.2  153924.70  46669.66  30.32
1673.8  152698.06  46226.47  30.27
1677.4  151740.00  45828.09  30.20
1681.0  151052.91  45473.31  30.10
1684.6  150726.88  45179.34  29.97
1688.2  150188.10  44767.57  29.81
1691.8  149611.77  44364.43  29.65
1695.4  149263.30  44001.75  29.48
1699.0  148980.30  43649.57  29.30
1702.6  148715.50  43285.64  29.11
1706.2  148211.32  42843.19  28.91
1709.8  147434.98  42324.40  28.71
1713.4  146828.36  41864.36  28.51
1717.0  146106.13  41387.45  28.33
1720.6  145437.72  40942.58  28.15
1724.2  144862.05  40526.71  27.98
1727.8  144246.73  40138.35  27.83
1731.4  143838.75  39823.05  27.69
1735.0  143645.33  39592.68  27.56
1738.6  143399.18  39323.56  27.42
1742.2  142886.03  38941.43  27.25
1745.8  142281.76  38512.53  27.07
1749.4  141427.69  37987.24  26.86
1753.0  140141.74  37333.26  26.64
1756.6  138730.82  36661.65  26.43
1760.1  137589.94  36079.03  26.22
1763.7  136144.67  35436.43  26.03
1767.3  134936.10  34891.66  25.86
1770.9  133912.72  34407.07  25.69
1774.5  132696.05  33898.37  25.55
1778.0  131704.16  33468.33  25.41
1781.6  130767.23  33074.61  25.29
1785.2  129793.47  32687.96  25.18
1788.8  128810.55  32335.57  25.10
1792.3  127746.73  31981.30  25.03
1795.9  127295.03  31795.54  24.98
1799.5  126782.50  31622.05  24.94
1803.1  125933.27  31382.46  24.92
1806.6  125997.47  31372.21  24.90
1810.2  126733.60  31525.82  24.88
1813.8  127410.65  31656.67  24.85
1817.3  127360.30  31605.82  24.82
1820.9  126667.65  31387.25  24.78
1824.5  125559.23  31061.54  24.74
1828.0  124782.17  30786.35  24.67
1831.6  123881.83  30468.88  24.60
1835.2  123101.25  30132.50  24.48
1838.7  122719.47  29817.21  24.30
1842.3  122445.00  29471.78  24.07
1845.8  121973.98  28979.90  23.76
1849.4  121664.45  28411.00  23.35
1852.9  121210.40  27673.62  22.83
1856.5  120560.73  26712.23  22.16
1860.0  119990.98  25580.04  21.32
1863.6  119645.27  24312.29  20.32
1867.1  119192.50  22818.08  19.14
1870.7  118868.68  21029.47  17.69
1874.2  118412.10  18920.48  15.98
1877.8  117872.74  16711.01  14.18
1881.3  117123.32  14445.02  12.33
1884.9  116562.56  12330.32  10.58
1888.4  115808.37  10348.65  8.94
1891.9  115039.30  8675.23  7.54
1895.5  114085.83  7354.26  6.45
1899.0  113554.38  6419.53  5.65
1901.3  140308.82  4961.75  3.54
1904.1  140190.75  4414.22  3.15
1906.8  139632.30  4014.98  2.88
1909.6  138346.17  3705.76  2.68
1912.4  137126.07  3487.34  2.54
1915.1  136255.97  3342.49  2.45
1917.9  135239.82  3241.69  2.40
1920.6  134451.97  3182.82  2.37
1923.3  133730.28  3164.24  2.37
1926.1  132814.81  3152.26  2.37
1928.8  132005.50  3164.34  2.40
1931.6  131401.68  3196.83  2.43
1934.3  130808.71  3247.46  2.48
1937.0  130220.78  3313.71  2.54
1939.8  129534.97  3383.78  2.61
1942.5  128646.38  3465.00  2.69
1945.2  127426.00  3541.25  2.78
1947.9  126412.48  3635.83  2.88
1950.7  125605.44  3744.30  2.98
1953.4  124233.56  3847.46  3.10
1956.1  123141.75  3963.25  3.22
1958.8  122165.96  4092.35  3.35
1961.5  120998.40  4226.25  3.49
1964.2  119775.34  4364.59  3.64
1966.9  118486.00  4495.59  3.79
1969.6  117460.13  4647.38  3.96
1972.3  116291.85  4801.55  4.13
1975.0  115416.17  4974.81  4.31
1977.7  114495.44  5146.73  4.50
1980.4  113543.68  5325.76  4.69
1983.1  112628.05  5510.03  4.89
1985.8  111854.82  5701.77  5.10
1988.4  110987.50  5889.00  5.31
1991.1  110198.03  6085.43  5.52
1993.8  109448.91  6279.40  5.74
1996.5  108912.52  6491.58  5.96
1999.1  108334.12  6694.08  6.18
2001.8  107747.24  6894.80  6.40
2004.5  107160.53  7091.92  6.62
2007.1  106544.21  7277.89  6.83
2009.8  105927.77  7460.28  7.04
2012.4  105438.92  7647.29  7.25
2015.1  104975.94  7820.73  7.45
2017.8  104302.54  7973.97  7.65
2020.4  103875.00  8135.21  7.83
2023.1  103567.63  8291.24  8.01
2025.7  103353.25  8446.75  8.17
2028.3  103067.25  8591.92  8.34
2031.0  102741.21  8718.07  8.49
2033.6  102504.49  8843.55  8.63
2036.2  102279.38  8952.30  8.75
2038.9  101776.95  9026.26  8.87
2041.5  101501.23  9119.81  8.98
2044.1  101033.11  9186.12  9.09
2046.8  100713.38  9258.98  9.19
2049.4  100168.54  9307.92  9.29
2052.0  99910.43  9383.97  9.39
2054.6  99569.53  9445.63  9.49
2057.2  99104.78  9497.50  9.58
2059.8  98839.50  9578.29  9.69
2062.4  98098.46  9613.40  9.80
2065.0  97663.78  9675.45  9.91
2067.6  96921.71  9702.74  10.01
2070.2  96418.32  9752.86  10.12
2072.8  95872.44  9795.35  10.22
2075.4  95494.22  9856.88  10.32
2078.0  94942.35  9891.13  10.42
2080.6  94472.40  9935.20  10.52
2083.2  93897.58  9963.32  10.61
2085.8  93486.51  10006.42  10.70
2088.4  92915.63  10033.57  10.80
2090.9  92234.46  10043.29  10.89
2093.5  91491.13  10037.84  10.97
2096.1  90831.75  10040.45  11.05
2098.7  90163.12  10040.45  11.14
2101.2  89351.83  10021.50  11.22
2103.8  88785.25  10025.87  11.29
2106.4  88225.23  10029.15  11.37
2108.9  87668.48  10034.60  11.45
2111.5  86947.98  10013.86  11.52
2114.0  86414.15  10010.58  11.58
2116.6  85978.60  10014.38  11.65
2119.1  85514.46  10013.73  11.71
2121.7  85105.79  10015.47  11.77
2124.2  84768.19  10021.40  11.82
2126.8  84102.62  9986.65  11.87
2129.3  83760.60  9990.20  11.93
2131.9  83259.00  9967.10  11.97
2134.4  82892.42  9966.21  12.02
2136.9  82561.70  9961.55  12.07
2139.4  82124.18  9939.54  12.10
2142.0  81745.13  9925.13  12.14
2144.5  81511.77  9931.29  12.18
2147.0  81314.55  9943.92  12.23
2149.5  80895.80  9923.82  12.27
2152.1  80755.68  9933.33  12.30
2154.6  80675.20  9950.67  12.33
2157.1  80213.79  9925.82  12.37
2159.6  79869.75  9912.19  12.41
2162.1  79719.42  9917.87  12.44
2164.6  79504.53  9911.95  12.47
2167.1  79237.25  9901.93  12.50
2169.6  78951.12  9890.64  12.53
2172.1  78560.67  9870.44  12.56
2174.6  78288.28  9874.80  12.61
2177.1  77917.34  9863.55  12.66
2179.5  77564.75  9854.71  12.71
2182.0  77137.50  9837.37  12.75
2184.5  76680.60  9818.49  12.80
2187.0  76158.84  9796.52  12.86
2189.5  75591.65  9769.02  12.92
2191.9  74937.19  9728.01  12.98
2194.4  74418.38  9704.00  13.04
2196.9  73785.60  9667.20  13.10
2199.3  73221.38  9635.25  13.16
2201.8  72467.10  9566.65  13.20
2204.3  72071.51  9547.94  13.25
2206.7  71540.55  9510.18  13.29
2209.2  71152.59  9494.18  13.34
2211.6  70615.47  9448.32  13.38
2214.1  70348.99  9432.61  13.41
2216.5  69869.83  9389.49  13.44
2219.0  69590.45  9363.41  13.46
2221.4  69269.16  9321.67  13.46
2223.9  68856.38  9257.21  13.44
2226.3  68432.44  9184.08  13.42
2228.7  67965.21  9095.14  13.38
2231.1  67456.13  8989.20  13.33
2233.6  66953.15  8879.16  13.26
2236.0  66506.13  8761.38  13.17
2238.4  66093.35  8632.46  13.06
2240.9  65712.73  8504.18  12.94
2243.3  65258.28  8370.08  12.83
2245.7  64781.97  8222.44  12.69
2248.1  64370.97  8076.74  12.55
2250.5  63943.25  7933.01  12.41
2252.9  63410.43  7774.00  12.26
2255.3  62935.00  7624.19  12.11
2257.7  62557.50  7483.75  11.96
2260.1  62145.22  7344.41  11.82
2262.5  61623.75  7195.00  11.68
2264.9  61184.11  7059.47  11.54
2267.3  60663.75  6912.50  11.39
2269.7  60237.63  6787.56  11.27
2272.1  59769.45  6662.34  11.15
2274.5  59297.26  6537.84  11.03
2276.8  58901.76  6424.44  10.91
2279.2  58415.63  6303.87  10.79
2281.6  58044.40  6199.81  10.68
2284.0  57653.33  6096.62  10.57
2286.3  57262.20  5992.60  10.47
2288.7  56926.11  5894.88  10.36
2291.1  56464.98  5788.23  10.25
2293.4  56086.80  5686.45  10.14
2295.8  55558.20  5568.44  10.02
2298.2  55047.77  5450.57  9.90
2300.5  54496.64  5335.43  9.79
2302.9  53874.13  5215.75  9.68
2305.2  53275.47  5106.23  9.58
2307.6  52700.12  5008.74  9.50
2309.9  52033.50  4913.50  9.44
2312.2  51525.88  4833.42  9.38
2314.6  51007.39  4755.83  9.32
2316.9  50405.80  4671.74  9.27
2319.2  49892.18  4598.92  9.22
2321.6  49333.81  4516.75  9.16
2323.9  48851.57  4438.81  9.09
2326.2  48393.72  4358.53  9.01
2328.6  47961.59  4288.42  8.94
2330.9  47525.63  4207.88  8.85
2333.2  47124.94  4134.12  8.77
2335.5  46741.62  4060.66  8.69
2337.8  46361.60  3987.14  8.60
2340.1  45872.30  3904.92  8.51
2342.4  45508.13  3829.59  8.42
2344.8  45145.88  3755.34  8.32
2347.1  44649.42  3684.81  8.25
2349.4  44171.33  3618.98  8.19
2351.6  43687.97  3550.13  8.13
2353.9  43274.12  3489.30  8.06
2356.2  42825.57  3425.32  8.00
2358.5  42315.00  3355.80  7.93
2360.8  41819.40  3290.00  7.87
2363.1  41444.19  3229.00  7.79
2365.4  41044.43  3165.42  7.71
2367.7  40638.15  3103.65  7.64
2369.9  40159.45  3034.26  7.56
2372.2  39637.40  2965.57  7.48
2374.5  39137.18  2904.83  7.42
2376.7  38600.73  2838.83  7.35
2379.0  38062.82  2760.01  7.25
2381.3  37541.88  2681.88  7.14
2383.5  37114.00  2615.07  7.05
2385.8  36588.46  2546.02  6.96
2388.0  36130.13  2480.95  6.87
2390.3  35693.45  2420.80  6.78
2392.5  35284.50  2355.00  6.67
2394.8  34879.77  2292.95  6.57
2397.0  34466.25  2231.02  6.47
2399.3  34069.17  2171.69  6.37
2401.5  33676.78  2113.13  6.27
2403.8  33213.44  2052.27  6.18
2406.0  32766.03  1988.22  6.07
2408.2  32425.80  1935.45  5.97
2410.4  32061.88  1874.06  5.85
2412.7  31705.70  1822.17  5.75
2414.9  31384.65  1772.58  5.65
2417.1  31013.40  1725.62  5.56
2419.3  30657.60  1675.20  5.46
2421.6  30336.41  1624.27  5.35
2423.8  30021.08  1568.97  5.23
2426.0  29704.25  1525.54  5.14
2428.2  29385.30  1491.23  5.07
2430.4  29105.07  1439.13  4.94
2432.6  28855.00  1388.34  4.81
2434.8  28606.34  1356.72  4.74
2437.0  28300.68  1321.51  4.67
2439.2  27994.71  1280.71  4.57
2441.4  27709.76  1233.82  4.45
2443.6  27491.72  1203.78  4.38
2445.7  27249.52  1171.41  4.30
2447.9  27012.25  1132.47  4.19
2450.1  26754.71  1097.66  4.10
2452.3  26447.58  1065.81  4.03
2454.5  26141.66  1033.62  3.95
2456.6  25824.45  995.10  3.85
2458.8  25509.42  959.89  3.76
2461.0  25247.19  935.28  3.70
2463.1  25000.54  909.38  3.64
2465.3  24743.14  885.32  3.58
2467.5  24520.03  861.03  3.51
2469.6  24299.26  837.20  3.45
2471.8  24017.29  812.78  3.38
2473.9  23750.60  799.42  3.37
2476.1  23460.94  777.30  3.31
2478.2  23141.34  750.25  3.24
2480.4  22881.10  732.97  3.20
2482.5  22574.70  712.24  3.16
2484.6  22270.53  687.62  3.09
2486.8  22025.14  673.14  3.06
2488.9  21763.25  658.96  3.03
2491.1  21461.65  640.62  2.98
2493.2  21111.93  626.70  2.97
2495.3  20773.19  603.26  2.90
2497.4  20479.20  593.69  2.90
2499.5  20196.80  584.63  2.89
2501.7  20077.43  579.28  2.89
2503.8  19965.97  568.37  2.85
2505.9  19910.63  559.48  2.81
2508.0  19890.18  549.59  2.76
2510.1  19857.21  552.15  2.78
2512.2  19928.10  555.09  2.79
2514.3  20046.40  562.39  2.81
2516.4  20197.43  576.23  2.85
