/*** Spectra Vista SIG Data ***/
name= 3_20221020_TITO_08_avg.sig
comm= Averaged Ref/Tar of files: HR.102022.0008_moc.sig,HR.102022.0009_moc.sig,HR.102022.0010_moc.sig
data=
337.3  666.39  71.13  10.67
338.8  673.40  72.15  10.71
340.3  696.06  64.03  9.20
341.8  718.54  62.49  8.70
343.2  761.14  56.24  7.39
344.7  779.89  58.29  7.47
346.2  805.33  66.73  8.29
347.7  831.44  64.23  7.73
349.2  842.40  56.70  6.73
350.6  881.40  51.42  5.83
352.1  918.64  51.21  5.57
353.6  961.69  50.89  5.29
355.1  1019.87  56.13  5.50
356.6  1086.26  60.09  5.53
358.0  1130.17  60.61  5.36
359.5  1165.37  56.65  4.86
361.0  1214.10  54.86  4.52
362.5  1271.37  56.60  4.45
364.0  1335.44  60.22  4.51
365.4  1413.03  61.82  4.37
366.9  1483.86  63.54  4.28
368.4  1566.36  63.64  4.06
369.9  1636.94  70.27  4.29
371.3  1731.69  72.98  4.21
372.8  1820.57  75.23  4.13
374.3  1896.61  74.35  3.92
375.8  1978.90  77.26  3.90
377.2  2059.77  79.80  3.87
378.7  2136.63  78.91  3.69
380.2  2221.17  80.70  3.63
381.7  2324.15  81.98  3.53
383.1  2417.80  81.75  3.38
384.6  2520.24  81.83  3.25
386.1  2609.84  86.48  3.31
387.6  2718.10  90.73  3.34
389.0  2817.83  95.59  3.39
390.5  2920.50  95.58  3.27
392.0  3045.53  96.10  3.16
393.4  3160.51  97.22  3.08
394.9  3273.69  100.05  3.06
396.4  3385.93  104.36  3.08
397.9  3499.64  105.92  3.03
399.3  3639.56  111.43  3.06
400.8  3760.11  112.16  2.98
402.2  3906.96  115.39  2.95
403.7  4044.60  117.97  2.92
405.2  4180.33  123.90  2.96
406.6  4308.57  126.83  2.94
408.1  4442.51  131.08  2.95
409.6  4590.69  133.90  2.92
411.0  4751.90  137.35  2.89
412.5  4902.80  142.31  2.90
414.0  5058.82  145.34  2.87
415.4  5218.61  150.39  2.88
416.9  5374.97  153.56  2.86
418.4  5549.14  157.49  2.84
419.8  5730.40  161.98  2.83
421.3  5907.71  168.74  2.86
422.7  6094.97  175.16  2.87
424.2  6287.14  178.87  2.85
425.7  6468.77  185.82  2.87
427.1  6660.06  189.37  2.84
428.6  6873.14  194.27  2.83
430.0  7062.88  201.83  2.86
431.5  7283.40  207.96  2.86
432.9  7504.99  215.36  2.87
434.4  7731.41  219.17  2.83
435.9  7956.00  223.53  2.81
437.3  8179.29  231.46  2.83
438.8  8404.86  238.47  2.84
440.2  8631.70  245.69  2.85
441.7  8889.94  252.81  2.84
443.1  9131.14  258.38  2.83
444.6  9390.83  266.37  2.84
446.0  9645.99  275.07  2.85
447.5  9904.24  285.21  2.88
448.9  10165.20  291.97  2.87
450.4  10441.40  300.44  2.88
451.8  10693.43  305.50  2.86
453.3  10956.85  314.24  2.87
454.7  11240.16  323.23  2.88
456.2  11486.86  331.95  2.89
457.6  11761.65  341.61  2.90
459.1  12045.80  350.89  2.91
460.5  12320.29  357.11  2.90
462.0  12624.62  363.82  2.88
463.4  12924.97  373.10  2.89
464.8  13216.93  381.10  2.88
466.3  13504.07  391.30  2.90
467.7  13793.50  401.14  2.91
469.2  14107.17  410.05  2.91
470.6  14411.29  417.75  2.90
472.0  14726.47  426.00  2.89
473.5  15037.07  436.00  2.90
474.9  15353.36  446.03  2.91
476.4  15687.77  457.44  2.92
477.8  16016.29  469.32  2.93
479.2  16327.00  478.50  2.93
480.7  16666.93  488.77  2.93
482.1  17017.97  495.64  2.91
483.6  17381.29  506.71  2.92
485.0  17717.40  518.21  2.92
486.4  18083.57  532.05  2.94
487.9  18423.32  544.54  2.96
489.3  18784.89  555.62  2.96
490.7  19129.88  567.40  2.97
492.2  19509.00  581.14  2.98
493.6  19865.40  597.23  3.01
495.0  20224.29  611.81  3.03
496.5  20603.70  627.11  3.04
497.9  20968.48  642.77  3.07
499.3  21350.03  659.89  3.09
500.7  21753.16  681.72  3.13
502.2  22129.43  704.21  3.18
503.6  22538.23  728.05  3.23
505.0  22904.23  754.96  3.30
506.5  23336.06  787.02  3.37
507.9  23728.47  820.32  3.46
509.3  24170.51  859.88  3.56
510.7  24590.89  900.90  3.66
512.2  25045.89  950.04  3.79
513.6  25534.80  1005.94  3.94
515.0  26007.36  1069.72  4.11
516.4  26470.80  1142.04  4.31
517.8  27002.96  1222.76  4.53
519.3  27466.36  1309.92  4.77
520.7  27995.63  1406.41  5.02
522.1  28445.11  1502.32  5.28
523.5  28915.97  1606.84  5.56
524.9  29430.51  1717.25  5.83
526.3  29934.10  1829.63  6.11
527.8  30442.50  1943.87  6.39
529.2  30830.23  2054.21  6.66
530.6  31364.76  2171.84  6.92
532.0  31948.00  2289.93  7.17
533.4  32432.61  2395.08  7.38
534.8  32798.00  2486.74  7.58
536.3  33355.71  2588.60  7.76
537.7  34023.60  2694.30  7.92
539.1  34545.21  2785.04  8.06
540.5  35003.53  2867.90  8.19
541.9  35624.42  2962.98  8.32
543.3  36114.00  3045.77  8.43
544.7  36607.03  3129.68  8.55
546.1  37236.49  3225.40  8.66
547.5  37708.80  3303.63  8.76
549.0  38311.43  3390.20  8.85
550.4  38866.25  3467.65  8.92
551.8  39441.69  3540.26  8.98
553.2  39996.54  3605.15  9.01
554.6  40500.57  3654.21  9.02
556.0  41059.93  3696.33  9.00
557.4  41662.85  3730.08  8.95
558.8  42284.19  3753.60  8.88
560.2  42857.64  3764.40  8.78
561.6  43490.12  3767.94  8.66
563.0  44093.76  3760.87  8.53
564.4  44713.91  3745.60  8.38
565.8  45320.18  3719.46  8.21
567.2  46006.93  3691.19  8.02
568.6  46619.57  3648.93  7.83
570.0  47205.04  3598.34  7.62
571.4  47874.91  3548.89  7.41
572.8  48555.86  3502.90  7.21
574.2  49196.80  3456.69  7.03
575.6  49824.64  3413.25  6.85
577.0  50439.97  3375.31  6.69
578.4  51122.50  3347.28  6.55
579.8  51742.41  3319.72  6.42
581.2  52421.52  3302.35  6.30
582.5  53017.71  3281.07  6.19
583.9  53639.43  3267.42  6.09
585.3  54354.15  3260.70  6.00
586.7  54974.86  3252.76  5.92
588.1  55591.39  3249.10  5.84
589.5  56273.00  3251.15  5.78
590.9  56940.80  3256.24  5.72
592.3  57665.46  3270.12  5.67
593.7  58283.27  3279.45  5.63
595.0  58958.36  3294.32  5.59
596.4  59584.80  3307.43  5.55
597.8  60212.24  3321.05  5.52
599.2  60867.09  3336.08  5.48
600.6  61588.15  3349.46  5.44
602.0  62161.59  3350.88  5.39
603.3  62902.97  3358.60  5.34
604.7  63604.38  3358.13  5.28
606.1  64244.91  3348.80  5.21
607.5  64942.22  3336.43  5.14
608.9  65657.66  3321.89  5.06
610.2  66270.15  3298.52  4.98
611.6  66963.24  3279.47  4.90
613.0  67646.64  3259.92  4.82
614.4  68268.60  3238.35  4.74
615.8  68913.00  3217.99  4.67
617.1  69589.80  3203.13  4.60
618.5  70300.00  3193.35  4.54
619.9  70966.24  3184.50  4.49
621.3  71675.16  3185.85  4.44
622.6  72372.14  3191.83  4.41
624.0  73034.36  3201.76  4.38
625.4  73681.46  3217.56  4.37
626.8  74374.30  3241.27  4.36
628.1  74973.41  3261.23  4.35
629.5  75736.44  3292.33  4.35
630.9  76402.94  3315.86  4.34
632.2  77008.30  3331.63  4.33
633.6  77703.46  3345.08  4.30
635.0  78377.94  3348.84  4.27
636.3  79070.89  3338.90  4.22
637.7  79701.61  3318.05  4.16
639.1  80435.00  3292.92  4.09
640.4  81113.10  3255.74  4.01
641.8  81699.61  3212.07  3.93
643.2  82410.30  3170.00  3.85
644.5  83063.57  3125.62  3.76
645.9  83763.00  3085.46  3.68
647.2  84246.10  3045.64  3.62
648.6  84934.29  3023.33  3.56
650.0  85579.20  3007.44  3.51
651.3  86128.51  2995.40  3.48
652.7  87096.07  3000.34  3.44
654.0  87981.80  3003.72  3.41
655.4  88627.29  3000.99  3.39
656.8  88847.80  2978.24  3.35
658.1  89548.26  2969.92  3.32
659.5  90551.55  2965.60  3.28
660.8  91189.29  2948.25  3.23
662.2  91712.00  2922.45  3.19
663.5  92435.11  2905.34  3.14
664.9  92971.54  2884.79  3.10
666.2  93430.29  2870.46  3.07
667.6  94217.88  2876.95  3.05
668.9  94733.71  2877.19  3.04
670.3  95637.14  2893.83  3.03
671.6  96148.93  2902.06  3.02
673.0  96762.11  2920.50  3.02
674.3  97404.17  2942.98  3.02
675.7  98063.46  2975.71  3.03
677.0  98634.24  3005.68  3.05
678.4  99282.41  3049.73  3.07
679.7  99855.06  3098.19  3.10
681.1  100498.01  3155.99  3.14
682.4  101091.71  3222.18  3.19
683.8  101710.51  3305.42  3.25
685.1  102268.07  3407.25  3.33
686.4  102938.23  3541.64  3.44
687.8  103576.93  3723.91  3.60
689.1  104155.43  3966.44  3.81
690.5  104827.89  4300.89  4.10
691.8  105349.96  4751.97  4.51
693.1  106099.07  5363.52  5.06
694.5  106762.50  6136.43  5.75
695.8  107438.50  7067.67  6.58
697.1  108088.50  8153.60  7.54
698.5  108674.63  9382.67  8.63
699.8  109287.02  10739.64  9.83
701.1  109941.36  12198.40  11.10
702.5  110430.57  13711.15  12.42
703.8  110982.86  15278.25  13.77
705.1  111618.84  16879.30  15.12
706.5  112213.82  18481.75  16.47
707.8  112784.49  20085.20  17.81
709.1  113302.56  21670.14  19.13
710.5  113927.66  23262.65  20.42
711.8  114437.23  24822.87  21.69
713.1  115010.66  26382.39  22.94
714.4  115545.86  27919.60  24.16
715.8  116061.94  29434.51  25.36
717.1  116750.01  30971.89  26.53
718.4  117305.60  32453.12  27.67
719.7  117910.27  33917.77  28.77
721.0  118305.00  35288.25  29.83
722.4  118799.84  36645.26  30.85
723.7  119371.97  37979.52  31.82
725.0  119949.04  39280.92  32.75
726.3  120509.48  40516.66  33.62
727.6  120894.24  41650.30  34.45
729.0  121423.90  42774.23  35.23
730.3  121920.66  43828.09  35.95
731.6  122450.27  44842.33  36.62
732.9  122938.55  45785.81  37.24
734.2  123433.36  46677.54  37.82
735.5  124010.36  47556.57  38.35
736.8  124506.26  48353.53  38.84
738.1  125031.14  49114.50  39.28
739.5  125592.58  49848.05  39.69
740.8  126046.25  50497.64  40.06
742.1  126494.07  51114.13  40.41
743.4  126935.71  51692.50  40.72
744.7  127464.62  52274.21  41.01
746.0  127981.29  52813.35  41.27
747.3  128376.16  53276.63  41.50
748.6  128853.00  53739.39  41.71
749.9  129294.29  54167.53  41.89
751.2  129733.89  54568.95  42.06
752.5  130234.47  54980.38  42.22
753.8  130628.30  55330.28  42.36
755.1  131077.14  55684.20  42.48
756.4  131485.45  55999.50  42.59
757.7  132073.60  56366.33  42.68
759.0  132975.74  56855.80  42.76
760.3  133614.17  57229.04  42.83
761.6  134413.60  57659.93  42.90
762.9  134797.07  57905.73  42.96
764.2  135114.86  58117.45  43.01
765.5  135387.53  58299.23  43.06
766.8  135712.46  58499.95  43.11
768.1  136068.40  58709.98  43.15
769.3  136480.40  58931.37  43.18
770.6  136907.09  59166.43  43.22
771.9  137365.20  59403.23  43.24
773.2  137675.09  59579.41  43.28
774.5  138072.63  59785.44  43.30
775.8  138496.49  59996.46  43.32
777.1  138887.26  60193.78  43.34
778.4  139171.84  60347.74  43.36
779.6  139631.06  60579.55  43.39
780.9  139988.57  60754.00  43.40
782.2  140334.07  60930.56  43.42
783.5  140605.00  61067.10  43.43
784.8  140958.32  61243.11  43.45
786.0  141260.80  61398.73  43.46
787.3  141574.55  61550.42  43.48
788.6  141894.04  61709.74  43.49
789.9  142232.00  61878.74  43.51
791.2  142631.96  62076.01  43.52
792.4  143064.39  62275.49  43.53
793.7  143400.51  62436.85  43.54
795.0  143814.24  62628.12  43.55
796.2  144224.15  62821.13  43.56
797.5  144654.43  63022.40  43.57
798.8  145096.81  63220.66  43.57
800.0  145513.23  63420.64  43.58
801.3  145844.00  63574.51  43.59
802.6  146238.94  63761.93  43.60
803.8  146639.44  63957.11  43.62
805.1  147006.25  64118.02  43.62
806.4  147359.91  64278.51  43.62
807.7  147754.99  64455.89  43.62
808.9  148143.54  64641.42  43.63
810.2  148504.60  64810.59  43.64
811.4  148851.20  64975.37  43.65
812.7  149267.86  65166.56  43.66
814.0  149786.00  65391.47  43.66
815.2  150216.50  65593.43  43.67
816.5  150571.47  65755.95  43.67
817.7  150942.19  65920.44  43.67
819.0  151305.31  66096.14  43.68
820.2  151523.43  66199.47  43.69
821.5  151988.60  66413.90  43.70
822.7  152318.04  66560.29  43.70
824.0  152624.06  66700.35  43.70
825.2  152992.22  66873.94  43.71
826.5  153292.56  67009.16  43.71
827.7  153707.44  67201.38  43.72
829.0  154026.69  67350.94  43.73
830.2  154354.64  67497.61  43.73
831.5  154762.90  67670.74  43.73
832.7  155088.45  67815.13  43.73
834.0  155411.46  67968.37  43.73
835.2  155714.11  68124.93  43.75
836.4  155995.40  68255.99  43.76
837.7  156359.26  68425.69  43.76
838.9  156743.45  68590.41  43.76
840.1  157094.10  68753.88  43.77
841.4  157450.43  68921.07  43.77
842.6  157794.00  69078.71  43.78
843.8  158136.29  69233.95  43.78
845.1  158549.29  69421.70  43.79
846.3  158904.40  69601.81  43.80
847.5  159297.00  69775.16  43.80
848.8  159655.89  69941.12  43.81
850.0  160026.00  70105.35  43.81
851.2  160419.73  70283.57  43.81
852.5  160731.63  70444.94  43.83
853.7  161186.14  70630.95  43.82
854.9  161567.29  70808.52  43.83
856.1  161942.49  70982.62  43.83
857.4  162237.40  71103.21  43.83
858.6  162641.66  71297.60  43.84
859.8  162991.61  71470.13  43.85
861.0  163345.37  71632.08  43.85
862.2  163756.80  71821.29  43.86
863.5  164130.39  71973.44  43.85
864.7  164532.34  72161.98  43.86
865.9  164898.34  72311.23  43.85
867.1  165206.20  72454.44  43.86
868.3  165568.20  72629.45  43.87
869.5  165976.10  72808.09  43.87
870.8  166420.29  72991.20  43.86
872.0  166845.26  73172.65  43.86
873.2  167196.34  73330.75  43.86
874.4  167562.39  73494.14  43.86
875.6  167914.98  73648.28  43.86
876.8  168305.03  73816.26  43.86
878.0  168712.23  73996.68  43.86
879.2  169101.90  74167.36  43.86
880.4  169543.71  74342.62  43.85
881.6  169874.93  74502.12  43.86
882.8  170197.26  74654.61  43.86
884.0  170602.22  74844.09  43.87
885.2  170989.94  75009.81  43.87
886.5  171455.11  75202.64  43.86
887.7  171870.59  75362.93  43.85
888.8  172327.20  75563.53  43.85
890.0  172696.60  75735.04  43.85
891.2  173130.83  75918.86  43.85
892.4  173542.80  76099.19  43.85
893.6  173953.04  76273.87  43.85
894.8  174581.50  76515.44  43.83
896.0  175048.64  76750.03  43.84
897.2  175592.86  76976.36  43.84
898.4  176014.46  77181.94  43.85
899.6  176439.11  77341.86  43.83
900.8  176752.54  77469.81  43.83
902.0  176986.97  77577.97  43.83
903.2  177298.84  77707.52  43.83
904.3  177544.11  77826.02  43.83
905.5  177977.74  78000.32  43.83
906.7  178389.57  78175.02  43.82
907.9  178745.70  78328.87  43.82
909.1  179032.76  78429.98  43.81
910.2  179227.78  78523.67  43.81
911.4  179476.33  78642.82  43.82
912.6  179685.63  78740.09  43.82
913.8  179873.29  78831.14  43.83
915.0  180177.90  78960.07  43.82
916.2  180419.57  79037.08  43.81
917.3  180635.85  79093.49  43.79
918.5  180801.83  79187.53  43.80
919.7  181012.80  79298.34  43.81
920.8  181104.04  79349.41  43.81
922.0  181219.50  79412.67  43.82
923.2  181467.00  79479.40  43.80
924.4  181706.14  79556.40  43.78
925.5  181949.06  79638.96  43.77
926.7  182402.71  79820.17  43.76
927.9  182857.03  80050.56  43.78
929.0  183685.24  80368.43  43.75
930.2  184708.77  80838.86  43.77
931.4  185971.37  81357.37  43.75
932.5  187367.99  81938.27  43.73
933.7  188185.59  82243.57  43.70
934.9  188561.25  82421.35  43.71
936.0  188462.39  82363.40  43.70
937.2  187525.76  81947.39  43.70
938.3  186730.43  81580.35  43.69
939.5  186168.34  81244.20  43.64
940.7  186437.83  81308.70  43.61
941.8  187203.54  81631.10  43.61
943.0  187905.21  81971.03  43.62
944.2  188338.24  82155.97  43.62
945.3  188214.00  82047.23  43.59
946.5  187971.69  81877.95  43.56
947.6  188139.17  81899.29  43.53
948.8  188204.25  81852.68  43.49
949.9  188376.00  81868.36  43.46
951.1  188207.04  81787.46  43.46
952.2  188262.86  81715.60  43.41
953.4  188123.79  81601.23  43.38
954.5  188216.23  81579.42  43.34
955.7  188251.20  81510.24  43.30
956.8  188203.34  81443.76  43.27
958.0  188085.14  81334.80  43.24
959.1  188061.17  81276.05  43.22
960.3  187988.14  81150.51  43.17
961.4  187975.07  81130.85  43.16
962.6  188032.50  81147.39  43.16
963.7  187918.95  81096.27  43.15
964.9  187981.86  81106.18  43.15
966.0  187958.19  81027.27  43.11
967.2  187999.33  81058.83  43.12
968.3  187929.26  81016.07  43.11
969.5  187874.40  80974.24  43.10
970.6  187918.73  80996.99  43.10
971.8  187867.80  80994.46  43.11
972.9  187870.24  80939.13  43.08
974.0  187904.63  80975.29  43.09
975.2  188008.61  80903.48  43.03
976.3  187867.10  80919.10  43.07
977.5  187898.95  80929.45  43.07
978.6  187704.06  80900.22  43.10
979.7  187728.45  80839.33  43.06
980.9  187584.80  80760.67  43.05
982.0  187317.63  80631.60  43.05
983.2  186998.55  80555.84  43.08
984.3  186911.83  80536.78  43.09
985.4  186797.07  80518.36  43.10
986.6  186518.54  80348.02  43.08
987.7  186909.05  80441.08  43.04
988.9  186728.91  80292.12  43.00
990.0  186914.94  80386.59  43.01
993.1  197935.77  84735.19  42.81
996.9  197114.08  84562.63  42.90
1000.7  197078.31  84718.87  42.99
1004.5  197280.50  84935.42  43.05
1008.4  197303.11  85107.75  43.14
1012.2  197331.75  85258.90  43.21
1016.0  197246.00  85370.58  43.28
1019.8  196977.55  85377.60  43.34
1023.7  196411.36  85213.19  43.39
1027.5  195635.93  84960.97  43.43
1031.3  195263.48  84854.83  43.46
1035.1  194993.94  84795.44  43.49
1038.9  195062.27  84890.15  43.52
1042.7  195278.00  85051.61  43.55
1046.5  195616.22  85212.72  43.56
1050.3  195960.83  85390.73  43.58
1054.2  196155.94  85518.60  43.60
1058.0  196350.43  85613.33  43.60
1061.8  196705.34  85800.16  43.62
1065.6  196658.27  85775.20  43.62
1069.4  196455.73  85685.06  43.62
1073.2  195982.27  85457.52  43.60
1077.0  195943.15  85421.13  43.59
1080.8  196495.14  85619.48  43.57
1084.6  197073.10  85839.51  43.56
1088.4  197723.41  86123.87  43.56
1092.2  197886.00  86152.95  43.54
1096.0  197869.39  86102.95  43.52
1099.8  197812.91  86007.18  43.48
1103.6  197610.89  85871.09  43.45
1107.4  197306.23  85662.22  43.42
1111.2  197464.07  85676.10  43.39
1114.9  197527.94  85624.99  43.35
1118.7  197744.25  85609.01  43.29
1122.5  197935.69  85556.90  43.22
1126.3  197822.61  85354.65  43.15
1130.1  197972.69  85176.47  43.02
1133.9  197392.53  84553.14  42.84
1137.7  196862.00  83902.79  42.62
1141.4  196060.44  83070.33  42.37
1145.2  195805.82  82414.36  42.09
1149.0  195407.92  81785.23  41.85
1152.8  194746.97  81076.38  41.63
1156.6  194058.82  80462.56  41.46
1160.3  193450.00  79966.63  41.34
1164.1  192541.91  79417.48  41.25
1167.9  192002.08  79076.88  41.19
1171.7  191551.50  78808.28  41.14
1175.4  190966.04  78504.01  41.11
1179.2  190398.40  78190.31  41.07
1183.0  190500.89  78140.23  41.02
1186.7  190890.00  78241.33  40.99
1190.5  191127.91  78280.70  40.96
1194.3  190946.33  78161.31  40.93
1198.0  190345.28  77906.29  40.93
1201.8  189630.47  77616.65  40.93
1205.6  189342.00  77536.87  40.95
1209.3  189402.04  77637.37  40.99
1213.1  189526.20  77752.56  41.02
1216.8  189540.76  77868.59  41.08
1220.6  189207.82  77817.23  41.13
1224.3  188769.94  77720.49  41.17
1228.1  188205.87  77598.06  41.23
1231.9  187497.72  77386.09  41.27
1235.6  186731.45  77127.91  41.30
1239.4  186113.42  76954.78  41.35
1243.1  185559.66  76776.01  41.38
1246.9  185045.63  76603.29  41.40
1250.6  184677.47  76478.49  41.41
1254.3  184229.22  76311.24  41.42
1258.1  183718.34  76114.57  41.43
1261.8  183108.89  75864.72  41.43
1265.6  182716.11  75702.89  41.43
1269.3  182643.32  75646.29  41.42
1273.1  183112.41  75790.47  41.39
1276.8  183056.80  75689.28  41.35
1280.6  182390.13  75340.68  41.31
1284.3  181351.20  74838.12  41.27
1288.0  180932.17  74557.37  41.21
1291.8  181062.10  74474.54  41.13
1295.5  180972.98  74294.00  41.05
1299.2  180570.19  73945.12  40.95
1302.9  179828.81  73423.16  40.83
1306.7  179000.27  72827.48  40.69
1310.4  178181.97  72180.34  40.51
1314.1  177436.48  71554.86  40.33
1317.9  176791.81  70905.82  40.11
1321.6  176071.42  70185.50  39.86
1325.3  175270.20  69384.89  39.59
1329.0  174729.26  68669.55  39.30
1332.8  173824.93  67767.70  38.99
1336.5  173093.47  66930.59  38.67
1340.2  173223.56  66439.10  38.35
1343.9  173364.86  65946.38  38.04
1347.6  173575.60  65467.83  37.72
1351.4  174530.00  65310.80  37.42
1355.1  175819.36  65280.31  37.13
1358.8  177013.33  65168.00  36.82
1362.5  177353.48  64664.41  36.46
1366.2  176487.20  63593.86  36.03
1369.9  174826.08  62072.84  35.51
1373.6  173280.41  60375.19  34.84
1377.3  172525.60  58624.89  33.98
1381.0  172422.89  56675.48  32.87
1384.8  171556.67  54011.75  31.48
1388.4  169828.24  50787.05  29.90
1392.2  168660.56  47524.64  28.18
1395.9  167995.42  44350.79  26.40
1399.6  167143.06  41284.13  24.70
1403.3  166492.04  38551.19  23.15
1407.0  165676.87  36139.83  21.81
1410.7  164806.95  34107.23  20.70
1414.3  163849.00  32430.75  19.79
1418.1  163019.36  31123.13  19.09
1421.7  162314.83  30106.49  18.55
1425.4  161629.87  29306.62  18.13
1429.1  161007.00  28702.05  17.83
1432.8  160164.49  28220.36  17.62
1436.5  159839.74  27931.11  17.47
1440.2  159672.49  27774.05  17.39
1443.9  159213.02  27640.23  17.36
1447.6  158486.53  27516.72  17.36
1451.2  157888.13  27455.43  17.39
1454.9  157145.90  27409.38  17.44
1458.6  156550.89  27478.91  17.55
1462.3  155945.78  27632.77  17.72
1466.0  155235.51  27857.71  17.95
1469.7  154323.65  28151.68  18.24
1473.3  153811.78  28582.35  18.58
1477.0  152707.02  28967.77  18.97
1480.7  151829.34  29431.74  19.38
1484.4  150718.80  29854.83  19.81
1488.0  149912.89  30370.27  20.26
1491.7  149078.19  30871.59  20.71
1495.4  148232.95  31376.12  21.17
1499.0  147426.33  31871.00  21.62
1502.7  146790.50  32412.99  22.08
1506.4  146062.54  32904.99  22.53
1510.0  145304.47  33383.82  22.98
1513.7  144488.75  33825.52  23.41
1517.4  143772.89  34273.87  23.84
1521.0  143132.71  34720.79  24.26
1524.7  142467.00  35130.88  24.66
1528.3  141777.33  35524.38  25.06
1532.0  141129.02  35901.51  25.44
1535.7  140368.51  36210.45  25.80
1539.3  139695.56  36522.84  26.14
1543.0  139214.82  36872.74  26.49
1546.6  138889.83  37247.60  26.82
1550.3  138364.40  37540.20  27.13
1553.9  137816.69  37800.19  27.43
1557.6  137150.44  38007.35  27.71
1561.2  136449.60  38174.18  27.98
1564.9  135737.76  38329.38  28.24
1568.5  135001.53  38459.61  28.49
1572.2  134383.57  38603.78  28.73
1575.8  133793.33  38739.40  28.95
1579.5  133246.23  38872.80  29.17
1583.1  132666.96  38996.19  29.39
1586.8  131917.33  39037.60  29.59
1590.4  131202.31  39080.03  29.79
1594.0  130468.72  39107.98  29.97
1597.7  130105.64  39247.07  30.17
1601.3  129710.70  39368.23  30.35
1604.9  129258.16  39446.81  30.52
1608.6  128478.87  39413.43  30.68
1612.2  127664.90  39345.74  30.82
1615.8  126827.78  39264.16  30.96
1619.5  126122.11  39207.43  31.09
1623.1  125383.42  39130.41  31.21
1626.7  124694.27  39061.52  31.33
1630.3  124025.33  38988.94  31.44
1634.0  123414.67  38921.40  31.54
1637.6  122877.02  38866.20  31.63
1641.2  122309.93  38775.19  31.70
1644.8  121623.24  38628.62  31.76
1648.5  121009.84  38501.25  31.82
1652.1  120470.40  38375.97  31.86
1655.7  119971.07  38230.66  31.87
1659.3  119543.53  38098.66  31.87
1662.9  118726.11  37825.00  31.86
1666.6  117888.04  37538.31  31.84
1670.2  117068.43  37234.90  31.81
1673.8  116205.46  36898.82  31.75
1677.4  115537.83  36605.87  31.68
1681.0  115077.20  36354.32  31.59
1684.6  114882.44  36156.14  31.47
1688.2  114492.37  35857.52  31.32
1691.8  114132.68  35607.30  31.20
1695.4  113912.40  35383.56  31.06
1699.0  113752.80  35171.99  30.92
1702.6  113586.89  34947.53  30.77
1706.2  113249.50  34653.48  30.60
1709.8  112693.14  34307.62  30.44
1713.4  112260.17  34016.97  30.30
1717.0  111755.83  33731.78  30.18
1720.6  111265.60  33455.03  30.07
1724.2  110862.90  33197.68  29.94
1727.8  110456.97  32961.01  29.84
1731.4  110200.75  32766.80  29.73
1735.0  110178.81  32642.80  29.63
1738.6  110117.30  32480.54  29.50
1742.2  109850.69  32234.07  29.34
1745.8  109536.66  31955.12  29.17
1749.4  109014.40  31605.51  28.99
1753.0  108122.36  31145.89  28.81
1756.6  107136.56  30667.79  28.62
1760.1  106335.47  30267.61  28.46
1763.7  105278.67  29798.80  28.30
1767.3  104393.88  29404.60  28.17
1770.9  103623.02  29048.79  28.03
1774.5  102712.87  28679.57  27.92
1778.0  102027.23  28393.22  27.83
1781.6  101373.70  28150.22  27.77
1785.2  100677.52  27916.45  27.73
1788.8  99962.00  27708.50  27.72
1792.3  99189.31  27491.60  27.72
1795.9  98836.83  27401.66  27.72
1799.5  98773.11  27401.00  27.74
1803.1  99772.17  27705.01  27.77
1806.6  101523.57  28211.32  27.79
1810.2  102831.09  28593.34  27.81
1813.8  103305.20  28731.42  27.81
1817.3  102831.60  28600.96  27.81
1820.9  101864.03  28329.38  27.81
1824.5  100851.83  28023.65  27.79
1828.0  99997.64  27742.37  27.74
1831.6  99617.82  27575.64  27.68
1835.2  99431.11  27422.42  27.58
1838.7  99282.04  27223.84  27.42
1842.3  99210.00  26995.50  27.21
1845.8  98498.72  26520.34  26.92
1849.4  98121.82  26045.97  26.54
1852.9  97632.27  25432.45  26.05
1856.5  97033.08  24655.28  25.41
1860.0  96381.53  23716.30  24.61
1863.6  96288.68  22742.50  23.62
1867.1  96634.53  21686.18  22.44
1870.7  97196.82  20421.40  21.01
1874.2  96653.40  18693.54  19.34
1877.8  95041.78  16677.25  17.55
1881.3  93162.25  14594.55  15.67
1884.9  91860.02  12697.80  13.82
1888.4  90787.54  10949.96  12.06
1891.9  89577.16  9429.69  10.53
1895.5  88449.88  8197.76  9.27
1899.0  87759.00  7290.86  8.31
1901.3  116963.50  7351.57  6.29
1904.1  116815.95  6695.10  5.73
1906.8  116071.20  6181.44  5.33
1909.6  114583.35  5715.50  4.99
1912.4  113163.68  5365.83  4.74
1915.1  112087.80  5120.06  4.57
1917.9  110988.60  4911.73  4.43
1920.6  110032.00  4764.53  4.33
1923.3  108992.10  4618.79  4.24
1926.1  107764.92  4514.33  4.19
1928.8  106620.80  4449.87  4.17
1931.6  105689.21  4421.33  4.18
1934.3  104853.40  4409.14  4.21
1937.0  104015.14  4413.79  4.24
1939.8  103068.50  4429.47  4.30
1942.5  101976.60  4444.00  4.36
1945.2  100683.66  4466.33  4.44
1947.9  99594.88  4506.97  4.53
1950.7  98723.42  4568.85  4.63
1953.4  97507.41  4626.02  4.74
1956.1  96569.80  4702.68  4.87
1958.8  95739.93  4794.36  5.01
1961.5  94767.36  4885.20  5.15
1964.2  93775.50  4979.52  5.31
1966.9  92728.11  5069.81  5.47
1969.6  91924.20  5178.60  5.63
1972.3  91014.96  5295.50  5.82
1975.0  90339.03  5426.82  6.01
1977.7  89602.02  5552.74  6.20
1980.4  88872.96  5686.06  6.40
1983.1  88183.03  5824.48  6.60
1985.8  87581.16  5968.20  6.81
1988.4  86923.20  6108.27  7.03
1991.1  86309.16  6255.71  7.25
1993.8  85723.77  6400.46  7.47
1996.5  85320.51  6564.18  7.69
1999.1  84901.74  6722.72  7.92
2001.8  84459.90  6882.49  8.15
2004.5  84010.53  7034.18  8.37
2007.1  83548.62  7181.23  8.60
2009.8  83097.56  7327.97  8.82
2012.4  82745.85  7484.44  9.05
2015.1  82418.98  7637.05  9.27
2017.8  81911.34  7770.00  9.49
2020.4  81603.28  7922.16  9.71
2023.1  81388.16  8075.62  9.92
2025.7  81218.80  8217.73  10.12
2028.3  81026.40  8361.60  10.32
2031.0  80817.52  8500.98  10.52
2033.6  80643.78  8635.62  10.71
2036.2  80466.30  8755.68  10.88
2038.9  80100.90  8854.86  11.05
2041.5  79909.17  8967.71  11.22
2044.1  79552.80  9061.92  11.39
2046.8  79328.34  9168.06  11.56
2049.4  78900.30  9235.92  11.71
2052.0  78673.36  9323.71  11.85
2054.6  78403.50  9406.25  12.00
2057.2  78070.76  9491.39  12.16
2059.8  77903.08  9606.67  12.33
2062.4  77330.78  9672.01  12.51
2065.0  77007.04  9767.36  12.68
2067.6  76457.37  9825.43  12.85
2070.2  76070.35  9902.13  13.02
2072.8  75662.41  9971.87  13.18
2075.4  75379.50  10059.00  13.34
2078.0  74944.67  10128.94  13.52
2080.6  74595.84  10206.24  13.68
2083.2  74171.26  10265.77  13.84
2085.8  73869.59  10337.98  13.99
2088.4  73452.70  10402.13  14.16
2090.9  72933.23  10438.93  14.31
2093.5  72351.30  10463.89  14.46
2096.1  71851.18  10503.11  14.62
2098.7  71334.72  10532.97  14.77
2101.2  70713.80  10549.87  14.92
2103.8  70289.36  10595.28  15.07
2106.4  69864.92  10635.45  15.22
2108.9  69430.00  10666.89  15.36
2111.5  68858.84  10679.12  15.51
2114.0  68450.12  10710.56  15.65
2116.6  68129.25  10760.75  15.79
2119.1  67785.62  10802.29  15.94
2121.7  67473.00  10830.75  16.05
2124.2  67207.02  10874.17  16.18
2126.8  66691.85  10879.04  16.31
2129.3  66427.68  10912.00  16.43
2131.9  66026.40  10919.04  16.54
2134.4  65748.42  10942.14  16.64
2136.9  65500.37  10953.15  16.72
2139.4  65164.68  10948.56  16.80
2142.0  64882.72  10957.43  16.89
2144.5  64699.44  10980.82  16.97
2147.0  64561.20  11002.29  17.04
2149.5  64266.40  10991.57  17.10
2152.1  64162.56  11017.16  17.17
2154.6  64072.32  11035.95  17.22
2157.1  63732.30  11001.73  17.26
2159.6  63503.40  10992.65  17.31
2162.1  63406.98  11003.72  17.35
2164.6  63261.12  11011.15  17.41
2167.1  63072.97  11007.14  17.45
2169.6  62848.45  10988.11  17.48
2172.1  62546.60  10961.81  17.53
2174.6  62349.84  10962.47  17.58
2177.1  62072.08  10945.05  17.63
2179.5  61803.04  10928.45  17.68
2182.0  61485.60  10902.10  17.73
2184.5  61124.91  10871.53  17.79
2187.0  60709.16  10835.13  17.85
2189.5  60262.79  10792.03  17.91
2191.9  59758.80  10729.30  17.95
2194.4  59357.07  10686.45  18.00
2196.9  58855.68  10621.44  18.05
2199.3  58406.00  10569.53  18.10
2201.8  57792.64  10480.85  18.14
2204.3  57468.73  10439.04  18.16
2206.7  57055.14  10385.84  18.20
2209.2  56779.75  10351.80  18.23
2211.6  56358.72  10282.14  18.24
2214.1  56153.82  10246.51  18.25
2216.5  55773.68  10191.60  18.27
2219.0  55565.08  10161.80  18.29
2221.4  55317.15  10111.03  18.28
2223.9  54989.90  10035.67  18.25
2226.3  54662.65  9954.35  18.21
2228.7  54295.08  9865.54  18.17
2231.1  53857.98  9755.46  18.11
2233.6  53467.16  9637.32  18.02
2236.0  53133.50  9525.95  17.93
2238.4  52794.35  9408.93  17.82
2240.9  52489.72  9289.65  17.70
2243.3  52120.20  9156.55  17.57
2245.7  51724.08  9018.68  17.44
2248.1  51392.12  8892.26  17.30
2250.5  51058.76  8755.38  17.15
2252.9  50626.68  8593.26  16.97
2255.3  50225.61  8447.55  16.82
2257.7  49926.00  8314.00  16.65
2260.1  49610.82  8181.18  16.49
2262.5  49218.00  8034.00  16.32
2264.9  48884.39  7892.82  16.15
2267.3  48474.00  7746.00  15.98
2269.7  48141.94  7619.31  15.83
2272.1  47767.48  7498.48  15.70
2274.5  47392.88  7377.68  15.57
2276.8  47076.33  7272.10  15.45
2279.2  46690.29  7153.59  15.32
2281.6  46405.32  7056.73  15.21
2284.0  46080.24  6956.88  15.10
2286.3  45770.24  6854.19  14.98
2288.7  45507.28  6761.73  14.86
2291.1  45129.00  6647.57  14.73
2293.4  44832.48  6546.03  14.60
2295.8  44397.12  6427.20  14.48
2298.2  43985.43  6311.43  14.35
2300.5  43544.52  6187.23  14.21
2302.9  43040.40  6059.47  14.08
2305.2  42555.48  5943.10  13.97
2307.6  42122.95  5833.04  13.85
2309.9  41583.40  5718.47  13.75
2312.2  41155.60  5631.67  13.68
2314.6  40756.23  5553.81  13.63
2316.9  40290.48  5456.52  13.54
2319.2  39895.08  5367.86  13.45
2321.6  39485.74  5280.96  13.37
2323.9  39118.75  5204.17  13.30
2326.2  38749.40  5120.68  13.21
2328.6  38403.75  5043.17  13.13
2330.9  38058.30  4960.20  13.03
2333.2  37744.40  4883.15  12.94
2335.5  37435.02  4815.00  12.86
2337.8  37111.92  4731.73  12.75
2340.1  36717.25  4636.83  12.63
2342.4  36406.50  4556.50  12.52
2344.8  36136.35  4484.57  12.41
2347.1  35749.14  4399.83  12.31
2349.4  35363.50  4314.13  12.20
2351.6  34980.12  4234.81  12.11
2353.9  34662.32  4159.57  12.00
2356.2  34303.81  4084.26  11.91
2358.5  33909.12  4009.60  11.82
2360.8  33512.64  3937.92  11.75
2363.1  33219.28  3876.48  11.67
2365.4  32889.78  3808.10  11.58
2367.7  32572.08  3739.20  11.48
2369.9  32199.69  3670.87  11.40
2372.2  31778.72  3582.19  11.27
2374.5  31372.11  3506.58  11.18
2376.7  30939.83  3429.24  11.08
2379.0  30530.52  3352.73  10.98
2381.3  30128.00  3283.00  10.90
2383.5  29772.16  3203.20  10.76
2385.8  29355.48  3122.87  10.64
2388.0  28999.68  3046.76  10.51
2390.3  28650.88  2978.53  10.40
2392.5  28303.20  2916.00  10.30
2394.8  27987.30  2845.92  10.17
2397.0  27656.72  2773.68  10.03
2399.3  27332.09  2704.70  9.90
2401.5  27033.30  2648.45  9.80
2403.8  26677.90  2584.04  9.69
2406.0  26335.75  2525.55  9.59
2408.2  26075.28  2475.88  9.50
2410.4  25788.07  2409.28  9.34
2412.7  25492.74  2349.97  9.22
2414.9  25244.34  2292.18  9.08
2417.1  24963.12  2240.28  8.97
2419.3  24683.52  2186.24  8.86
2421.6  24412.50  2139.00  8.76
2423.8  24156.90  2079.85  8.61
2426.0  23899.72  2025.40  8.47
2428.2  23653.28  1980.91  8.37
2430.4  23430.94  1940.01  8.28
2432.6  23232.00  1890.67  8.14
2434.8  23025.42  1844.60  8.01
2437.0  22785.62  1802.75  7.91
2439.2  22562.02  1762.57  7.81
2441.4  22339.58  1720.53  7.70
2443.6  22175.75  1691.16  7.63
2445.7  21999.53  1643.79  7.47
2447.9  21810.20  1594.85  7.31
2450.1  21614.52  1559.55  7.22
2452.3  21378.28  1518.95  7.11
2454.5  21121.82  1475.07  6.98
2456.6  20860.72  1432.37  6.87
2458.8  20592.00  1398.54  6.79
2461.0  20362.10  1363.82  6.70
2463.1  20166.30  1332.78  6.61
2465.3  19992.06  1305.29  6.53
2467.5  19841.70  1268.50  6.39
2469.6  19654.20  1241.07  6.31
2471.8  19452.59  1219.35  6.27
2473.9  19249.35  1188.57  6.17
2476.1  19000.80  1158.73  6.10
2478.2  18737.00  1118.13  5.97
2480.4  18539.73  1099.06  5.93
2482.5  18329.17  1074.54  5.86
2484.6  18101.60  1047.20  5.79
2486.8  17916.84  1023.64  5.71
2488.9  17689.96  1016.45  5.75
2491.1  17459.68  990.08  5.67
2493.2  17186.52  970.77  5.65
2495.3  16911.96  942.76  5.57
2497.4  16682.82  917.70  5.50
2499.5  16458.45  896.56  5.45
2501.7  16387.32  897.26  5.48
2503.8  16318.81  882.64  5.41
2505.9  16287.25  881.50  5.41
2508.0  16279.99  879.34  5.40
2510.1  16277.41  876.28  5.38
2512.2  16349.85  866.12  5.30
2514.3  16492.72  865.64  5.25
2516.4  16689.84  882.56  5.29
