/*** Spectra Vista SIG Data ***/
name= 44_20220825_LIST_63_avg.sig
comm= Averaged Ref/Tar of files: HR.082522.0050_moc.sig,HR.082522.0051_moc.sig,HR.082522.0052_moc.sig
data=
337.3  3324.88  251.43  7.56
338.8  3463.20  243.71  7.04
340.3  3607.45  237.37  6.58
341.8  3795.18  231.67  6.10
343.2  3996.00  242.72  6.07
344.7  4137.05  227.47  5.50
346.2  4330.10  217.87  5.03
347.7  4522.38  220.22  4.87
349.2  4725.00  206.64  4.37
350.6  4957.88  220.35  4.44
352.1  5251.58  214.35  4.08
353.6  5552.00  217.45  3.92
355.1  5859.45  211.03  3.60
356.6  6128.93  218.50  3.57
358.0  6380.00  225.43  3.53
359.5  6674.40  230.72  3.46
361.0  7002.45  231.42  3.30
362.5  7406.58  230.30  3.11
364.0  7770.93  229.40  2.95
365.4  8120.90  232.29  2.86
366.9  8480.88  250.47  2.95
368.4  8864.38  254.57  2.87
369.9  9242.55  266.65  2.88
371.3  9692.10  284.80  2.94
372.8  10115.55  286.74  2.83
374.3  10561.88  290.25  2.75
375.8  10968.65  283.87  2.59
377.2  11405.60  294.11  2.58
378.7  11836.00  308.45  2.61
380.2  12239.50  315.63  2.58
381.7  12782.83  309.89  2.42
383.1  13286.35  316.21  2.38
384.6  13811.20  320.10  2.32
386.1  14323.25  331.51  2.31
387.6  14795.55  330.59  2.23
389.0  15302.80  346.61  2.27
390.5  15823.80  343.38  2.17
392.0  16399.00  356.19  2.17
393.4  16999.93  360.84  2.12
394.9  17565.30  368.88  2.10
396.4  18138.38  382.95  2.11
397.9  18731.88  389.50  2.08
399.3  19297.65  405.20  2.10
400.8  19865.23  412.09  2.07
402.2  20523.80  422.26  2.06
403.7  21161.93  433.35  2.05
405.2  21828.35  435.62  2.00
406.6  22434.40  445.44  1.99
408.1  23052.00  458.03  1.99
409.6  23662.10  474.12  2.00
411.0  24360.35  489.63  2.01
412.5  25052.48  497.02  1.98
414.0  25713.25  505.30  1.97
415.4  26433.75  519.40  1.96
416.9  27139.20  537.13  1.98
418.4  27863.10  557.76  2.00
419.8  28610.40  577.55  2.02
421.3  29375.60  591.79  2.01
422.7  30189.00  607.84  2.01
424.2  30965.63  625.50  2.02
425.7  31768.70  645.48  2.03
427.1  32552.03  666.76  2.05
428.6  33387.00  688.20  2.06
430.0  34174.10  706.14  2.07
431.5  35088.68  726.35  2.07
432.9  35980.40  746.17  2.07
434.4  36901.20  767.82  2.08
435.9  37772.00  793.33  2.10
437.3  38651.25  814.00  2.11
438.8  39530.40  838.03  2.12
440.2  40425.00  858.81  2.12
441.7  41419.40  884.40  2.14
443.1  42373.50  909.83  2.15
444.6  43374.10  934.47  2.15
446.0  44348.55  963.61  2.17
447.5  45340.90  994.36  2.19
448.9  46311.00  1019.96  2.20
450.4  47358.15  1046.36  2.21
451.8  48269.00  1074.67  2.23
453.3  49227.38  1101.79  2.24
454.7  50288.98  1129.54  2.25
456.2  51180.75  1151.46  2.25
457.6  52197.30  1180.59  2.26
459.1  53193.40  1206.36  2.27
460.5  54182.13  1232.28  2.27
462.0  55290.20  1260.53  2.28
463.4  56375.50  1287.80  2.28
464.8  57400.88  1311.65  2.29
466.3  58414.13  1335.18  2.29
467.7  59424.65  1362.46  2.29
469.2  60522.50  1390.61  2.30
470.6  61539.00  1416.24  2.30
472.0  62633.75  1448.79  2.31
473.5  63689.63  1476.53  2.32
474.9  64766.25  1506.70  2.33
476.4  65937.60  1541.76  2.34
477.8  67033.50  1573.73  2.35
479.2  68077.50  1602.73  2.35
480.7  69233.93  1642.43  2.37
482.1  70414.85  1674.27  2.38
483.6  71672.00  1710.88  2.39
485.0  72794.78  1754.37  2.41
486.4  74044.95  1798.38  2.43
487.9  75172.50  1842.75  2.45
489.3  76378.58  1894.62  2.48
490.7  77482.95  1945.66  2.51
492.2  78747.90  2003.12  2.54
493.6  79901.10  2066.63  2.59
495.0  81051.75  2135.25  2.63
496.5  82282.73  2212.99  2.69
497.9  83427.38  2293.21  2.75
499.3  84630.73  2389.09  2.82
500.7  85936.90  2496.36  2.90
502.2  87147.40  2616.32  3.00
503.6  88461.40  2760.37  3.12
505.0  89584.75  2922.19  3.26
506.5  90940.13  3110.63  3.42
507.9  92152.20  3318.82  3.60
509.3  93550.80  3563.84  3.81
510.7  94813.88  3843.45  4.05
512.2  96258.75  4164.94  4.33
513.6  97795.25  4538.43  4.64
515.0  99290.50  4948.40  4.98
516.4  100713.38  5399.73  5.36
517.8  102392.13  5906.13  5.77
519.3  103760.90  6436.97  6.20
520.7  105375.00  7006.27  6.65
522.1  106727.08  7572.59  7.10
523.5  108100.30  8150.96  7.54
524.9  109563.30  8723.40  7.96
526.3  110982.90  9272.01  8.35
527.8  112563.00  9808.92  8.71
529.2  113776.40  10298.88  9.05
530.6  115383.25  10785.48  9.35
532.0  117152.00  11237.33  9.59
533.4  118523.33  11600.29  9.79
534.8  119448.20  11886.63  9.95
536.3  121156.80  12218.88  10.09
537.7  123190.20  12564.72  10.20
539.1  124704.35  12847.58  10.30
540.5  125946.60  13108.79  10.41
541.9  127794.08  13425.07  10.51
543.3  129119.13  13692.45  10.60
544.7  130507.20  13971.84  10.71
546.1  132357.23  14304.22  10.81
547.5  133616.00  14558.51  10.90
549.0  135399.00  14864.67  10.98
550.4  136935.00  15122.92  11.04
551.8  138540.58  15351.06  11.08
553.2  140103.13  15536.52  11.09
554.6  141481.60  15647.15  11.06
556.0  143068.05  15730.62  11.00
557.4  144715.20  15765.59  10.89
558.8  146411.10  15758.22  10.76
560.2  147926.75  15680.08  10.60
561.6  149640.45  15570.78  10.41
563.0  151290.43  15406.63  10.18
564.4  152932.80  15201.85  9.94
565.8  154487.50  14948.67  9.68
567.2  156294.25  14687.37  9.40
568.6  157850.63  14378.20  9.11
570.0  159324.08  14043.61  8.81
571.4  161097.95  13728.52  8.52
572.8  162914.50  13430.10  8.24
574.2  164595.20  13135.36  7.98
575.6  166196.25  12862.50  7.74
577.0  167759.80  12615.32  7.52
578.4  169544.38  12413.92  7.32
579.8  171103.73  12220.11  7.14
581.2  172872.63  12065.78  6.98
582.5  174341.70  11909.04  6.83
583.9  175890.80  11776.40  6.70
585.3  177754.05  11681.73  6.57
586.7  179280.73  11582.48  6.46
588.1  180808.00  11497.73  6.36
589.5  182500.50  11444.77  6.27
590.9  184177.20  11409.65  6.19
592.3  186041.20  11395.40  6.13
593.7  187526.63  11370.32  6.06
595.0  189207.23  11356.11  6.00
596.4  190688.75  11330.39  5.94
597.8  192202.50  11298.54  5.88
599.2  193789.20  11260.48  5.81
600.6  195584.35  11214.32  5.73
602.0  196917.90  11123.06  5.65
603.3  198764.95  11038.73  5.55
604.7  200489.18  10921.77  5.45
606.1  202018.20  10780.56  5.34
607.5  203694.90  10627.56  5.22
608.9  205425.05  10470.06  5.10
610.2  206841.60  10298.61  4.98
611.6  208471.73  10138.28  4.86
613.0  210074.10  9982.06  4.75
614.4  211484.25  9826.10  4.65
615.8  212983.88  9691.50  4.55
617.1  214561.20  9580.48  4.47
618.5  216242.80  9495.68  4.39
619.9  217800.53  9432.60  4.33
621.3  219476.93  9398.76  4.28
622.6  221125.00  9379.77  4.24
624.0  222649.95  9381.24  4.21
625.4  224183.85  9396.64  4.19
626.8  225832.43  9440.34  4.18
628.1  227182.45  9473.24  4.17
629.5  229053.03  9538.23  4.16
630.9  230639.48  9590.83  4.16
632.2  231997.33  9614.64  4.14
633.6  233602.13  9619.68  4.12
635.0  235141.20  9593.01  4.08
636.3  236715.90  9533.45  4.03
637.7  238159.13  9424.20  3.96
639.1  239855.00  9284.33  3.87
640.4  241387.48  9101.45  3.77
641.8  242633.90  8881.60  3.66
643.2  244274.80  8671.23  3.55
644.5  245663.25  8455.83  3.44
645.9  247396.05  8260.68  3.34
647.2  249062.28  8090.34  3.25
648.6  250897.50  7951.50  3.17
650.0  252396.00  7827.84  3.10
651.3  252992.30  7696.59  3.04
652.7  254356.75  7594.21  2.99
654.0  256480.00  7517.31  2.93
655.4  258017.98  7430.72  2.88
656.8  258303.30  7318.48  2.83
658.1  259483.70  7224.65  2.78
659.5  261915.15  7157.78  2.73
660.8  263677.50  7080.00  2.69
662.2  264566.40  7000.75  2.65
663.5  266265.15  6952.15  2.61
664.9  267586.80  6915.83  2.58
666.2  268375.80  6896.80  2.57
667.6  270221.80  6926.70  2.56
668.9  271336.15  6973.74  2.57
670.3  272594.63  7046.63  2.59
671.6  274150.88  7150.80  2.61
673.0  275367.75  7274.70  2.64
674.3  276669.90  7416.76  2.68
675.7  278034.63  7587.91  2.73
677.0  279188.90  7776.29  2.79
678.4  280598.50  8008.29  2.85
679.7  281743.80  8263.78  2.93
681.1  283067.73  8573.93  3.03
682.4  284250.20  8928.40  3.14
683.8  285509.90  9349.77  3.27
685.1  286563.00  9864.80  3.44
686.4  287911.80  10510.96  3.65
687.8  289205.50  11329.70  3.92
689.1  290318.00  12373.97  4.26
690.5  291734.55  13746.74  4.71
691.8  292602.03  15495.76  5.30
693.1  293997.00  17748.54  6.04
694.5  295158.50  20471.97  6.94
695.8  296387.00  23699.43  8.00
697.1  297615.50  27409.20  9.21
698.5  298709.30  31568.13  10.57
699.8  299831.53  36122.79  12.05
701.1  301033.30  41014.54  13.62
702.5  301876.85  46080.17  15.26
703.8  302895.00  51294.00  16.93
705.1  304083.00  56597.71  18.61
706.5  305172.63  61883.28  20.28
707.8  306217.35  67103.64  21.91
709.1  307125.03  72196.07  23.51
710.5  308330.58  77229.62  25.05
711.8  309211.80  82066.97  26.54
713.1  310282.20  86812.41  27.98
714.4  311241.10  91382.43  29.36
715.8  312110.80  95779.99  30.69
717.1  313503.45  100184.62  31.96
718.4  314473.60  104309.33  33.17
719.7  315638.90  108326.50  34.32
721.0  316192.50  111978.00  35.41
722.4  316985.35  115555.22  36.45
723.7  318006.00  119033.30  37.43
725.0  319127.18  122384.73  38.35
726.3  320120.63  125531.41  39.21
727.6  320714.08  128358.67  40.02
729.0  321637.75  131167.68  40.78
730.3  322442.10  133769.11  41.49
731.6  323405.50  136273.25  42.14
732.9  324267.30  138582.45  42.74
734.2  325122.88  140761.13  43.29
735.5  326221.18  142909.67  43.81
736.8  327060.00  144819.64  44.28
738.1  327955.80  146644.03  44.71
739.5  328973.40  148395.82  45.11
740.8  329702.73  149920.80  45.47
742.1  330448.95  151355.43  45.80
743.4  331175.00  152686.67  46.10
744.7  332158.95  154060.93  46.38
746.0  333099.00  155311.00  46.63
747.3  333739.38  156345.73  46.85
748.6  334518.25  157380.57  47.05
749.9  335296.00  158326.13  47.22
751.2  335949.05  159173.31  47.38
752.5  336812.00  160062.41  47.52
753.8  337410.50  160792.36  47.65
755.1  338130.00  161525.87  47.77
756.4  338791.93  162167.12  47.87
757.7  339861.55  162975.70  47.95
759.0  341764.20  164133.53  48.03
760.3  343015.20  164961.28  48.09
761.6  344656.20  165955.63  48.15
762.9  345235.50  166413.53  48.20
764.2  345665.00  166754.89  48.24
765.5  345974.05  167043.33  48.28
766.8  346446.40  167377.92  48.31
768.1  347021.00  167746.45  48.34
769.3  347671.10  168130.43  48.36
770.6  348368.80  168549.68  48.38
771.9  349116.43  168989.89  48.41
773.2  349547.20  169260.21  48.42
774.5  350178.40  169628.51  48.44
775.8  350902.55  170034.21  48.46
777.1  351519.85  170368.15  48.47
778.4  351923.00  170578.69  48.47
779.6  352716.85  171013.87  48.48
780.9  353250.00  171300.00  48.49
782.2  353743.50  171590.10  48.51
783.5  354074.50  171796.33  48.52
784.8  354641.63  172098.03  48.53
786.0  355078.85  172338.41  48.54
787.3  355510.13  172571.13  48.54
788.6  355962.63  172830.97  48.55
789.9  356454.00  173111.49  48.56
791.2  357152.30  173481.42  48.57
792.4  357877.68  173866.18  48.58
793.7  358415.40  174134.24  48.58
795.0  359086.20  174469.35  48.59
796.2  359773.20  174839.55  48.60
797.5  360549.68  175231.61  48.60
798.8  361232.38  175617.76  48.62
800.0  361958.55  175987.15  48.62
801.3  362480.10  176254.64  48.62
802.6  363082.50  176577.90  48.63
803.8  363794.55  176923.26  48.63
805.1  364322.88  177203.72  48.64
806.4  364807.50  177464.72  48.65
807.7  365397.08  177764.76  48.65
808.9  365974.20  178084.59  48.66
810.2  366588.95  178375.77  48.66
811.4  367075.40  178642.83  48.67
812.7  367737.50  178993.75  48.67
814.0  368621.70  179435.95  48.68
815.2  369278.75  179781.07  48.68
816.5  369737.15  180006.95  48.69
817.7  370266.85  180267.09  48.69
819.0  370802.30  180537.65  48.69
820.2  370964.00  180634.67  48.69
821.5  371755.90  181011.10  48.69
822.7  372115.23  181214.70  48.70
824.0  372478.50  181396.80  48.70
825.2  373065.75  181661.13  48.69
826.5  373330.68  181819.65  48.70
827.7  373922.65  182097.99  48.70
829.0  374354.18  182289.97  48.69
830.2  374682.65  182450.72  48.69
831.5  375272.45  182686.42  48.68
832.7  375622.80  182847.91  48.68
834.0  375937.30  183030.64  48.69
835.2  376289.10  183228.21  48.69
836.4  376651.00  183381.73  48.69
837.7  377069.40  183593.47  48.69
838.9  377594.20  183825.66  48.68
840.1  378000.68  184023.45  48.68
841.4  378441.90  184272.55  48.69
842.6  378821.20  184474.48  48.70
843.8  379200.60  184668.13  48.70
845.1  379721.30  184942.51  48.70
846.3  380132.50  185148.07  48.71
847.5  380564.10  185355.24  48.71
848.8  381058.80  185564.80  48.70
850.0  381413.20  185761.43  48.70
851.2  381969.00  186060.78  48.71
852.5  382392.10  186272.81  48.71
853.7  382952.25  186545.40  48.71
854.9  383380.00  186754.53  48.71
856.1  383891.30  186995.81  48.71
857.4  384092.98  187097.52  48.71
858.6  384645.95  187341.27  48.70
859.8  385100.63  187562.25  48.70
861.0  385538.40  187808.40  48.71
862.2  386008.33  188036.02  48.71
863.5  386418.50  188229.38  48.71
864.7  386958.00  188479.28  48.71
865.9  387478.60  188686.93  48.70
867.1  387804.50  188845.22  48.70
868.3  388321.80  189091.06  48.69
869.5  388765.35  189346.91  48.70
870.8  389385.00  189618.00  48.70
872.0  389872.65  189879.27  48.70
873.2  390437.40  190071.22  48.68
874.4  390926.25  190298.16  48.68
875.6  391296.38  190502.70  48.69
876.8  391797.70  190753.38  48.69
878.0  392328.25  190984.79  48.68
879.2  393000.75  191241.08  48.66
880.4  393539.25  191490.10  48.66
881.6  394119.50  191725.89  48.65
882.8  394530.40  191915.20  48.64
884.0  395214.88  192254.22  48.65
885.2  395702.40  192483.96  48.64
886.5  396359.85  192757.11  48.63
887.7  397010.25  193025.60  48.62
888.8  397685.18  193320.45  48.61
890.0  398367.05  193577.97  48.59
891.2  398974.60  193884.04  48.60
892.4  399580.13  194167.75  48.59
893.6  400237.90  194472.84  48.59
894.8  401166.00  194900.47  48.58
896.0  402161.00  195297.53  48.56
897.2  403100.75  195710.23  48.55
898.4  403880.40  196075.00  48.55
899.6  404489.25  196337.60  48.54
900.8  404937.43  196512.20  48.53
902.0  405126.60  196602.62  48.53
903.2  405449.40  196763.06  48.53
904.3  405938.70  196917.52  48.51
905.5  406525.68  197186.00  48.51
906.7  407238.00  197474.87  48.49
907.9  407861.30  197720.23  48.48
909.1  408245.40  197847.99  48.46
910.2  408447.83  197911.86  48.45
911.4  408704.40  198036.15  48.45
912.6  409015.75  198110.29  48.44
913.8  409353.45  198195.09  48.42
915.0  409836.00  198370.62  48.40
916.2  409909.50  198406.00  48.40
917.3  409963.73  198399.66  48.39
918.5  410205.30  198463.21  48.38
919.7  410567.55  198570.34  48.36
920.8  410781.20  198561.98  48.34
922.0  410987.50  198549.63  48.31
923.2  411274.50  198598.40  48.29
924.4  411527.25  198632.70  48.27
925.5  411780.50  198683.51  48.25
926.7  412460.38  198926.35  48.23
927.9  413266.80  199258.80  48.22
929.0  414963.00  199849.32  48.16
930.2  417428.10  200833.80  48.11
931.4  419836.50  201970.98  48.11
932.5  422685.00  203160.15  48.06
933.7  424123.15  203744.81  48.04
934.9  424921.88  203984.08  48.01
936.0  424427.25  203624.42  47.98
937.2  422393.85  202444.62  47.93
938.3  420549.40  201449.18  47.90
939.5  419108.40  200535.84  47.85
940.7  419436.00  200481.24  47.80
941.8  421020.00  201130.61  47.77
943.0  422671.50  201668.20  47.71
944.2  423565.35  201816.07  47.65
945.3  423111.00  201379.10  47.59
946.5  422212.50  200810.52  47.56
947.6  422400.50  200590.97  47.49
948.8  422586.45  200337.28  47.41
949.9  422633.40  200110.96  47.35
951.1  422506.18  199642.69  47.25
952.2  422076.00  199212.80  47.20
953.4  421961.00  198628.40  47.07
954.5  421831.80  198244.80  47.00
955.7  421974.00  197835.12  46.88
956.8  422072.30  197388.35  46.77
958.0  421514.50  196957.80  46.73
959.1  421654.30  196591.43  46.62
960.3  421084.23  196184.01  46.59
961.4  421017.25  195864.89  46.52
962.6  421001.00  195763.87  46.50
963.7  420977.70  195573.09  46.46
964.9  420968.93  195397.86  46.42
966.0  420995.48  195350.13  46.40
967.2  421055.10  195365.34  46.40
968.3  421135.20  195191.10  46.35
969.5  420760.38  195031.52  46.35
970.6  420961.05  194985.62  46.32
971.8  421290.98  195105.33  46.31
972.9  420879.30  195036.55  46.34
974.0  421714.60  195322.73  46.32
975.2  421630.50  195305.43  46.32
976.3  421983.93  195324.42  46.29
977.5  422043.30  195339.99  46.28
978.6  422105.50  195355.49  46.28
979.7  422176.65  195600.02  46.33
980.9  421614.88  195460.96  46.36
982.0  421876.05  195627.62  46.37
983.2  422024.05  195582.09  46.34
984.3  421988.80  195550.48  46.34
985.4  422359.75  195712.64  46.34
986.6  421903.88  195701.17  46.39
987.7  422641.80  196015.35  46.38
988.9  422602.20  195973.44  46.37
990.0  422793.70  196479.00  46.47
993.1  373077.19  171547.84  45.98
996.9  373939.05  172599.44  46.16
1000.7  375197.08  173752.74  46.31
1004.5  375904.00  174617.35  46.45
1008.4  375762.67  175129.27  46.61
1012.2  375964.92  175724.65  46.74
1016.0  376154.40  176313.77  46.87
1019.8  376518.45  176934.45  46.99
1023.7  376722.81  177420.65  47.10
1027.5  376631.47  177735.27  47.19
1031.3  376991.48  178210.50  47.27
1035.1  376939.68  178437.25  47.34
1038.9  376997.87  178672.69  47.39
1042.7  376876.17  178824.23  47.45
1046.5  376736.00  178911.00  47.49
1050.3  376808.16  179070.86  47.52
1054.2  376534.08  179082.58  47.56
1058.0  376066.48  178907.06  47.57
1061.8  375945.54  178917.43  47.59
1065.6  375686.97  178797.01  47.59
1069.4  375811.67  178862.30  47.59
1073.2  375533.82  178704.17  47.59
1077.0  375132.35  178430.00  47.56
1080.8  374583.33  178056.55  47.53
1084.6  373417.57  177367.52  47.50
1088.4  372659.41  176915.96  47.47
1092.2  371796.75  176339.89  47.43
1096.0  371229.03  175863.58  47.37
1099.8  370743.10  175413.06  47.31
1103.6  370128.18  174864.02  47.24
1107.4  369241.35  174163.71  47.17
1111.2  369047.10  173789.80  47.09
1114.9  368397.75  173144.08  47.00
1118.7  367809.75  172419.82  46.88
1122.5  367133.00  171532.15  46.72
1126.3  366018.92  170323.90  46.53
1130.1  365498.19  169121.57  46.27
1133.9  363843.20  167062.40  45.92
1137.7  362421.40  164751.68  45.46
1141.4  360627.69  161968.56  44.91
1145.2  359937.90  159460.49  44.30
1149.0  358834.58  156910.00  43.73
1152.8  357177.95  154433.53  43.24
1156.6  355484.62  152437.63  42.88
1160.3  353685.00  150877.10  42.66
1164.1  351213.70  149398.50  42.54
1167.9  349384.38  148445.84  42.49
1171.7  348067.13  147862.13  42.48
1175.4  346883.63  147362.19  42.48
1179.2  345870.13  146904.87  42.47
1183.0  345604.33  146702.91  42.45
1186.7  345016.00  146349.00  42.42
1190.5  343927.87  145785.61  42.39
1194.3  342666.90  145208.71  42.38
1198.0  341439.18  144720.28  42.39
1201.8  339992.35  144182.53  42.41
1205.6  338752.00  143810.71  42.45
1209.3  337779.70  143633.59  42.52
1213.1  336786.15  143463.73  42.60
1216.8  335740.72  143352.09  42.70
1220.6  334611.20  143181.87  42.79
1224.3  333343.17  142935.95  42.88
1228.1  332050.40  142703.63  42.98
1231.9  330825.73  142432.02  43.05
1235.6  329343.38  142029.25  43.12
1239.4  327949.00  141683.04  43.20
1243.1  326691.18  141303.18  43.25
1246.9  325448.92  140899.66  43.29
1250.6  324467.80  140564.03  43.32
1254.3  323385.98  140158.44  43.34
1258.1  322367.38  139747.98  43.35
1261.8  321054.80  139179.39  43.35
1265.6  319592.82  138492.76  43.33
1269.3  318122.30  137745.32  43.30
1273.1  318032.98  137557.34  43.25
1276.8  318356.80  137478.86  43.18
1280.6  318315.30  137204.10  43.10
1284.3  317012.00  136342.57  43.01
1288.0  315543.10  135327.89  42.89
1291.8  314178.80  134255.94  42.73
1295.5  312712.40  133088.48  42.56
1299.2  311405.63  131911.90  42.36
1302.9  309965.89  130561.48  42.12
1306.7  308409.27  129054.33  41.85
1310.4  306903.18  127404.90  41.51
1314.1  305535.45  125702.71  41.14
1317.9  304288.33  123891.43  40.72
1321.6  302891.45  121876.23  40.24
1325.3  301257.08  119601.08  39.70
1329.0  299889.57  117345.43  39.13
1332.8  297789.80  114666.20  38.51
1336.5  295944.33  112074.78  37.87
1340.2  295613.50  110053.67  37.23
1343.9  295254.58  108035.65  36.59
1347.6  294832.35  106022.31  35.96
1351.4  295337.00  104410.21  35.35
1355.1  296050.70  102918.05  34.76
1358.8  296416.00  101234.29  34.15
1362.5  296002.50  99120.40  33.49
1366.2  294059.20  96207.86  32.72
1369.9  291957.13  92866.48  31.81
1373.6  289893.22  89003.18  30.70
1377.3  288139.80  84524.40  29.33
1381.0  287023.00  79322.90  27.64
1384.8  284862.50  72899.82  25.59
1388.4  282297.63  65933.53  23.36
1392.2  280364.67  58887.98  21.00
1395.9  278738.85  52021.73  18.66
1399.6  277018.34  45709.31  16.50
1403.3  275755.08  40321.07  14.62
1407.0  274514.50  35881.23  13.07
1410.7  273215.25  32402.46  11.86
1414.3  271869.68  29784.75  10.96
1418.1  270586.04  27911.66  10.32
1421.7  269599.11  26613.41  9.87
1425.4  268641.43  25760.20  9.59
1429.1  267724.88  25232.57  9.42
1432.8  266194.37  24891.06  9.35
1436.5  265357.28  24786.03  9.34
1440.2  264430.97  24802.15  9.38
1443.9  263079.48  24853.06  9.45
1447.6  261415.00  24934.80  9.54
1451.2  260311.52  25085.76  9.64
1454.9  259019.55  25263.71  9.75
1458.6  257901.49  25532.94  9.90
1462.3  256739.27  25911.03  10.09
1466.0  255394.66  26417.56  10.34
1469.7  253703.45  27052.12  10.66
1473.3  252656.17  27899.38  11.04
1477.0  250738.00  28754.92  11.47
1480.7  249148.91  29721.31  11.93
1484.4  247217.75  30671.09  12.41
1488.0  245652.00  31703.05  12.91
1491.7  244016.44  32718.69  13.41
1495.4  242265.23  33725.42  13.92
1499.0  240642.00  34731.64  14.43
1502.7  239302.25  35773.93  14.95
1506.4  237888.87  36769.64  15.46
1510.0  236446.60  37739.18  15.96
1513.7  234969.29  38665.09  16.46
1517.4  233633.33  39580.47  16.94
1521.0  232404.00  40486.76  17.42
1524.7  231177.92  41330.56  17.88
1528.3  229884.38  42128.82  18.33
1532.0  228647.65  42894.50  18.76
1535.7  227257.03  43570.56  19.17
1539.3  225995.32  44238.72  19.58
1543.0  225015.86  44928.73  19.97
1546.6  224319.33  45636.03  20.34
1550.3  223324.75  46244.57  20.71
1553.9  222259.93  46797.15  21.06
1557.6  220982.67  47275.80  21.39
1561.2  219712.50  47703.02  21.71
1564.9  218407.33  48100.30  22.02
1568.5  217079.80  48458.78  22.32
1572.2  215920.40  48827.77  22.61
1575.8  214830.00  49192.00  22.90
1579.5  213830.15  49543.43  23.17
1583.1  212853.13  49881.24  23.43
1586.8  211624.00  50138.00  23.69
1590.4  210584.20  50415.75  23.94
1594.0  209270.32  50607.48  24.18
1597.7  208109.68  50820.30  24.42
1601.3  206770.73  50979.38  24.66
1604.9  205428.32  51102.42  24.88
1608.6  204086.75  51184.99  25.08
1612.2  203053.95  51313.47  25.27
1615.8  201924.78  51396.06  25.45
1619.5  200817.50  51455.88  25.62
1623.1  199513.83  51437.24  25.78
1626.7  198249.35  51394.06  25.92
1630.3  197018.25  51324.67  26.05
1634.0  195902.00  51254.00  26.16
1637.6  194907.73  51164.49  26.25
1641.2  193890.00  51001.50  26.30
1644.8  192663.40  50719.46  26.33
1648.5  191562.12  50417.97  26.32
1652.1  190589.70  50097.30  26.29
1655.7  189641.00  49775.06  26.25
1659.3  188758.90  49505.62  26.23
1662.9  187325.83  49146.19  26.24
1666.6  185862.87  48825.40  26.27
1670.2  184431.28  48521.34  26.31
1673.8  182955.03  48173.31  26.33
1677.4  181778.90  47858.32  26.33
1681.0  180990.43  47587.57  26.29
1684.6  180590.58  47364.26  26.23
1688.2  179917.25  46992.15  26.12
1691.8  179273.91  46625.08  26.01
1695.4  178820.60  46253.46  25.87
1699.0  178471.77  45867.93  25.70
1702.6  178134.67  45473.53  25.53
1706.2  177525.08  45011.64  25.36
1709.8  176578.26  44492.71  25.20
1713.4  175855.12  44023.26  25.03
1717.0  174994.00  43518.82  24.87
1720.6  174212.03  43018.47  24.69
1724.2  173518.05  42512.79  24.50
1727.8  172804.10  41995.95  24.30
1731.4  172319.13  41518.12  24.09
1735.0  172085.28  41093.70  23.88
1738.6  171804.00  40618.05  23.64
1742.2  171196.49  40033.65  23.38
1745.8  170494.88  39420.19  23.12
1749.4  169493.78  38721.73  22.85
1753.0  167977.47  37914.65  22.57
1756.6  166285.29  37093.38  22.31
1760.1  164931.13  36371.47  22.05
1763.7  163208.00  35595.24  21.81
1767.3  161795.85  34915.51  21.58
1770.9  160571.37  34302.39  21.36
1774.5  159117.03  33681.82  21.17
1778.0  157962.95  33167.75  21.00
1781.6  156863.10  32704.52  20.85
1785.2  155719.10  32273.70  20.73
1788.8  154548.50  31893.36  20.64
1792.3  153338.73  31528.65  20.56
1795.9  152887.26  31350.71  20.51
1799.5  152405.33  31194.57  20.47
1803.1  151784.03  31020.03  20.44
1806.6  152255.37  31062.74  20.40
1810.2  153421.10  31244.20  20.36
1813.8  154429.35  31397.29  20.33
1817.3  154528.80  31354.09  20.29
1820.9  153832.27  31150.21  20.25
1824.5  152689.85  30842.06  20.20
1828.0  151883.88  30568.94  20.13
1831.6  151218.15  30290.12  20.03
1835.2  150620.00  29958.45  19.89
1838.7  150245.60  29583.64  19.69
1842.3  149880.00  29121.43  19.43
1845.8  149017.29  28438.13  19.08
1849.4  148482.63  27680.35  18.64
1852.9  147792.11  26718.34  18.08
1856.5  146855.07  25501.17  17.36
1860.0  146086.48  24086.56  16.49
1863.6  145947.42  22556.59  15.46
1867.1  145997.95  20832.35  14.27
1870.7  146064.85  18814.69  12.88
1874.2  145183.05  16433.68  11.32
1877.8  143689.13  14010.92  9.75
1881.3  142052.88  11693.84  8.23
1884.9  141039.43  9706.75  6.88
1888.4  139998.73  8010.83  5.72
1891.9  138993.93  6702.29  4.82
1895.5  137960.03  5768.05  4.18
1899.0  137533.88  5195.32  3.78
1901.3  169034.00  3592.78  2.13
1904.1  168990.00  3289.50  1.95
1906.8  168241.20  3073.80  1.83
1909.6  166519.85  2899.17  1.74
1912.4  164896.67  2755.71  1.67
1915.1  163756.45  2686.20  1.64
1917.9  162437.50  2636.66  1.62
1920.6  161327.37  2597.98  1.61
1923.3  160249.37  2567.83  1.60
1926.1  158857.83  2526.99  1.59
1928.8  157578.67  2527.55  1.60
1931.6  156584.28  2528.45  1.61
1934.3  155657.18  2531.75  1.63
1937.0  154776.13  2552.69  1.65
1939.8  153803.50  2579.22  1.68
1942.5  152526.00  2592.33  1.70
1945.2  150845.75  2605.53  1.73
1947.9  149486.63  2628.73  1.76
1950.7  148424.03  2653.28  1.79
1953.4  146707.10  2696.28  1.84
1956.1  145336.83  2746.53  1.89
1958.8  144128.83  2807.42  1.95
1961.5  142673.60  2867.33  2.01
1964.2  141186.50  2918.07  2.07
1966.9  139614.35  2977.45  2.13
1969.6  138384.00  3060.00  2.21
1972.3  136988.80  3138.73  2.29
1975.0  135944.85  3221.40  2.37
1977.7  134833.28  3320.94  2.46
1980.4  133691.67  3421.92  2.56
1983.1  132589.22  3536.06  2.67
1985.8  131665.80  3648.20  2.77
1988.4  130650.00  3764.22  2.88
1991.1  129724.47  3882.12  2.99
1993.8  128870.87  4012.50  3.11
1996.5  128224.62  4153.23  3.24
1999.1  127535.28  4299.71  3.37
2001.8  126840.93  4443.29  3.50
2004.5  126168.90  4581.62  3.63
2007.1  125433.65  4717.13  3.76
2009.8  124673.97  4860.57  3.90
2012.4  124080.00  5009.15  4.04
2015.1  123525.73  5145.47  4.17
2017.8  122740.10  5272.09  4.30
2020.4  122218.80  5411.27  4.43
2023.1  121850.87  5551.23  4.56
2025.7  121610.67  5691.11  4.68
2028.3  121272.67  5826.89  4.80
2031.0  120863.32  5942.29  4.92
2033.6  120599.40  6058.10  5.02
2036.2  120338.40  6174.10  5.13
2038.9  119738.10  6269.80  5.24
2041.5  119400.90  6374.79  5.34
2044.1  118842.00  6455.40  5.43
2046.8  118459.20  6548.20  5.53
2049.4  117832.80  6626.50  5.62
2052.0  117559.40  6715.93  5.71
2054.6  117180.00  6792.92  5.80
2057.2  116607.47  6861.49  5.88
2059.8  116275.60  6934.27  5.96
2062.4  115408.67  6973.33  6.04
2065.0  114869.53  7036.15  6.13
2067.6  113952.98  7077.93  6.21
2070.2  113360.25  7130.23  6.29
2072.8  112715.22  7182.53  6.37
2075.4  112271.25  7247.92  6.46
2078.0  111644.95  7290.16  6.53
2080.6  111073.60  7339.20  6.61
2083.2  110381.10  7369.84  6.68
2085.8  109879.50  7424.84  6.76
2088.4  109224.17  7458.28  6.83
2090.9  108409.73  7482.41  6.90
2093.5  107514.40  7501.35  6.98
2096.1  106752.63  7512.68  7.04
2098.7  105979.70  7527.32  7.10
2101.2  105009.60  7533.95  7.17
2103.8  104337.13  7568.89  7.25
2106.4  103655.93  7589.27  7.32
2108.9  103000.93  7606.73  7.39
2111.5  102145.07  7606.74  7.45
2114.0  101507.53  7627.11  7.51
2116.6  100992.50  7638.75  7.56
2119.1  100439.70  7656.22  7.62
2121.7  99960.00  7682.50  7.69
2124.2  99563.03  7708.82  7.74
2126.8  98768.58  7708.84  7.80
2129.3  98357.60  7732.27  7.86
2131.9  97768.00  7738.13  7.91
2134.4  97332.30  7758.50  7.97
2136.9  96943.82  7796.60  8.04
2139.4  96416.13  7817.44  8.11
2142.0  95972.80  7841.09  8.17
2144.5  95692.80  7885.40  8.24
2147.0  95452.67  7932.80  8.31
2149.5  94934.53  7962.58  8.39
2152.1  94774.17  8019.12  8.46
2154.6  94701.33  8072.36  8.52
2157.1  94176.00  8081.14  8.58
2159.6  93749.08  8096.28  8.64
2162.1  93584.40  8141.47  8.70
2164.6  93333.53  8174.33  8.76
2167.1  93017.98  8200.72  8.82
2169.6  92701.23  8224.34  8.87
2172.1  92231.77  8226.90  8.92
2174.6  91897.53  8247.33  8.97
2177.1  91459.40  8259.07  9.03
2179.5  91051.78  8266.99  9.08
2182.0  90564.10  8274.75  9.14
2184.5  90023.70  8269.84  9.19
2187.0  89428.00  8257.31  9.23
2189.5  88735.55  8247.34  9.29
2191.9  87960.50  8217.50  9.34
2194.4  87325.20  8209.82  9.40
2196.9  86592.00  8179.20  9.45
2199.3  85927.00  8145.78  9.48
2201.8  85020.67  8101.38  9.53
2204.3  84560.77  8095.48  9.57
2206.7  83922.00  8067.15  9.61
2209.2  83464.75  8051.62  9.65
2211.6  82823.40  8022.30  9.69
2214.1  82515.35  8023.02  9.72
2216.5  81950.00  7986.40  9.75
2219.0  81602.33  7956.60  9.75
2221.4  81237.33  7923.42  9.75
2223.9  80761.33  7880.44  9.76
2226.3  80245.67  7827.56  9.75
2228.7  79679.43  7765.01  9.75
2231.1  79081.20  7682.40  9.71
2233.6  78503.13  7592.38  9.67
2236.0  77954.92  7490.39  9.61
2238.4  77449.17  7401.14  9.56
2240.9  77003.20  7307.62  9.49
2243.3  76466.80  7191.73  9.41
2245.7  75898.60  7061.18  9.30
2248.1  75417.77  6936.80  9.20
2250.5  74894.97  6811.96  9.10
2252.9  74271.60  6671.02  8.98
2255.3  73719.55  6523.88  8.85
2257.7  73260.00  6403.33  8.74
2260.1  72771.77  6274.18  8.62
2262.5  72160.00  6133.33  8.50
2264.9  71630.42  5996.66  8.37
2267.3  71010.00  5876.67  8.28
2269.7  70514.27  5749.10  8.15
2272.1  69966.42  5626.03  8.04
2274.5  69394.15  5510.80  7.94
2276.8  68914.67  5402.32  7.84
2279.2  68340.00  5296.35  7.75
2281.6  67919.80  5197.75  7.65
2284.0  67447.80  5103.87  7.57
2286.3  66981.33  5009.24  7.48
2288.7  66568.45  4918.55  7.39
2291.1  66035.70  4819.90  7.30
2293.4  65573.20  4729.51  7.21
2295.8  64951.80  4621.27  7.11
2298.2  64356.30  4512.60  7.01
2300.5  63693.90  4405.65  6.92
2302.9  62950.67  4298.67  6.83
2305.2  62232.60  4188.67  6.73
2307.6  61559.55  4095.72  6.65
2309.9  60791.00  4002.45  6.58
2312.2  60191.67  3923.22  6.52
2314.6  59584.95  3843.30  6.45
2316.9  58881.15  3757.05  6.38
2319.2  58302.13  3676.71  6.31
2321.6  57669.03  3589.17  6.22
2323.9  57104.17  3524.30  6.17
2326.2  56569.53  3449.95  6.10
2328.6  56053.80  3375.35  6.02
2330.9  55545.00  3304.00  5.95
2333.2  55065.08  3231.45  5.87
2335.5  54623.50  3160.07  5.79
2337.8  54175.47  3105.60  5.73
2340.1  53571.60  3040.90  5.68
2342.4  53137.50  2968.33  5.59
2344.8  52716.58  2900.19  5.50
2347.1  52146.50  2840.37  5.45
2349.4  51591.05  2783.54  5.40
2351.6  51007.17  2721.12  5.33
2353.9  50521.63  2659.03  5.26
2356.2  50002.77  2601.30  5.20
2358.5  49403.20  2527.47  5.12
2360.8  48832.00  2475.20  5.07
2363.1  48388.70  2422.80  5.01
2365.4  47912.00  2361.70  4.93
2367.7  47412.60  2306.60  4.86
2369.9  46876.30  2248.02  4.80
2372.2  46256.53  2190.13  4.73
2374.5  45680.25  2140.60  4.69
2376.7  45049.43  2075.51  4.61
2379.0  44450.97  2016.44  4.54
2381.3  43820.00  1956.11  4.46
2383.5  43296.00  1896.89  4.38
2385.8  42689.47  1831.68  4.29
2388.0  42173.20  1785.73  4.23
2390.3  41640.13  1744.40  4.19
2392.5  41160.00  1688.00  4.10
2394.8  40680.20  1637.53  4.03
2397.0  40185.60  1585.42  3.95
2399.3  39717.67  1535.10  3.87
2401.5  39285.75  1486.33  3.78
2403.8  38760.55  1441.05  3.72
2406.0  38255.75  1398.94  3.66
2408.2  37848.80  1363.02  3.60
2410.4  37412.55  1323.23  3.54
2412.7  36996.27  1290.18  3.49
2414.9  36621.75  1248.13  3.41
2417.1  36233.10  1210.73  3.34
2419.3  35801.60  1173.33  3.28
2421.6  35378.75  1136.67  3.21
2423.8  35010.00  1106.49  3.16
2426.0  34652.52  1068.96  3.08
2428.2  34313.07  1027.91  3.00
2430.4  33983.20  1005.73  2.96
2432.6  33693.33  986.66  2.93
2434.8  33389.93  953.49  2.86
2437.0  33032.57  917.94  2.78
2439.2  32683.30  892.10  2.73
2441.4  32338.27  863.44  2.67
2443.6  32109.93  847.42  2.64
2445.7  31834.48  846.88  2.66
2447.9  31549.08  816.44  2.59
2450.1  31247.20  791.48  2.53
2452.3  30859.03  762.30  2.47
2454.5  30508.35  746.99  2.45
2456.6  30145.47  727.60  2.41
2458.8  29772.60  695.93  2.34
2461.0  29482.08  677.58  2.30
2463.1  29172.75  674.15  2.31
2465.3  28871.57  653.62  2.26
2467.5  28629.75  634.25  2.22
2469.6  28386.42  611.58  2.15
2471.8  28066.15  600.67  2.14
2473.9  27723.17  593.28  2.14
2476.1  27375.83  571.28  2.09
2478.2  27023.93  553.48  2.05
2480.4  26739.70  557.72  2.09
2482.5  26383.60  536.76  2.03
2484.6  26039.75  529.83  2.03
2486.8  25763.70  518.10  2.01
2488.9  25458.52  484.02  1.90
2491.1  25101.07  465.42  1.85
2493.2  24700.43  468.36  1.90
2495.3  24290.50  475.66  1.96
2497.4  23956.80  461.53  1.93
2499.5  23627.67  453.13  1.92
2501.7  23499.67  443.70  1.89
2503.8  23386.62  451.35  1.93
2505.9  23318.75  438.47  1.88
2508.0  23314.68  443.76  1.90
2510.1  23319.87  447.09  1.92
2512.2  23396.25  452.63  1.93
2514.3  23539.33  449.27  1.91
2516.4  23777.90  446.53  1.88
