/*** Spectra Vista SIG Data ***/
name= 39_20220721_QURU_56_avg.sig
comm= Averaged Ref/Tar of files: HR.072122.0039_moc.sig,HR.072122.0040_moc.sig,HR.072122.0041_moc.sig
data=
337.3  3324.88  264.67  7.96
338.8  3463.20  261.12  7.54
340.3  3560.60  249.87  7.02
341.8  3795.18  243.87  6.43
343.2  3951.60  245.26  6.21
344.7  4137.05  235.59  5.69
346.2  4330.10  241.21  5.57
347.7  4522.38  228.46  5.05
349.2  4649.40  223.20  4.80
350.6  4884.43  223.85  4.58
352.1  5180.13  221.16  4.27
353.6  5447.90  224.72  4.12
355.1  5724.75  234.12  4.09
356.6  6030.60  227.86  3.78
358.0  6252.40  227.85  3.64
359.5  6519.90  229.54  3.52
361.0  6822.90  228.00  3.34
362.5  7172.38  239.78  3.34
364.0  7512.85  245.79  3.27
365.4  7868.00  254.24  3.23
366.9  8204.63  257.83  3.14
368.4  8537.08  259.76  3.04
369.9  8891.23  267.68  3.01
371.3  9291.60  277.17  2.98
372.8  9637.65  290.79  3.02
374.3  10051.25  296.90  2.95
375.8  10429.65  300.30  2.88
377.2  10840.70  304.87  2.81
378.7  11217.30  302.30  2.69
380.2  11593.90  312.55  2.70
381.7  12107.20  314.01  2.59
383.1  12531.75  323.40  2.58
384.6  13028.93  331.41  2.54
386.1  13458.45  334.59  2.49
387.6  13906.20  341.37  2.45
389.0  14391.60  349.68  2.43
390.5  14868.00  364.11  2.45
392.0  15367.45  365.26  2.38
393.4  15896.38  372.85  2.35
394.9  16390.80  380.31  2.32
396.4  16922.25  394.29  2.33
397.9  17450.63  402.68  2.31
399.3  18006.08  412.43  2.29
400.8  18519.28  422.54  2.28
402.2  19124.45  430.21  2.25
403.7  19693.35  440.23  2.24
405.2  20265.80  450.95  2.23
406.6  20810.40  457.37  2.20
408.1  21379.60  469.22  2.19
409.6  21950.00  474.54  2.16
411.0  22588.30  488.00  2.16
412.5  23199.05  499.80  2.15
414.0  23818.38  510.35  2.14
415.4  24486.00  524.32  2.14
416.9  25134.60  536.03  2.13
418.4  25771.50  547.80  2.13
419.8  26444.60  561.60  2.12
421.3  27147.48  577.19  2.13
422.7  27874.80  593.26  2.13
424.2  28636.88  610.71  2.13
425.7  29356.30  625.61  2.13
427.1  30051.68  642.04  2.14
428.6  30814.00  661.33  2.15
430.0  31503.30  680.71  2.16
431.5  32327.55  709.30  2.19
432.9  33152.95  736.68  2.22
434.4  33993.23  758.54  2.23
435.9  34776.00  781.33  2.25
437.3  35571.25  807.98  2.27
438.8  36367.43  835.19  2.30
440.2  37177.53  868.82  2.34
441.7  38082.80  898.44  2.36
443.1  38955.00  933.81  2.40
444.6  39863.30  963.16  2.42
446.0  40754.48  995.99  2.44
447.5  41657.28  1026.61  2.46
448.9  42531.30  1063.94  2.50
450.4  43473.15  1097.67  2.52
451.8  44291.00  1126.67  2.54
453.3  45174.13  1161.81  2.57
454.7  46112.50  1197.04  2.60
456.2  46948.75  1220.48  2.60
457.6  47869.65  1250.38  2.61
459.1  48796.15  1279.20  2.62
460.5  49674.75  1310.75  2.64
462.0  50678.18  1343.48  2.65
463.4  51649.00  1372.61  2.66
464.8  52586.25  1402.04  2.67
466.3  53533.43  1430.55  2.67
467.7  54470.25  1455.76  2.67
469.2  55483.65  1486.59  2.68
470.6  56396.70  1517.40  2.69
472.0  57369.70  1546.91  2.70
473.5  58322.13  1577.96  2.71
474.9  59294.25  1605.50  2.71
476.4  60379.20  1638.86  2.71
477.8  61422.00  1668.19  2.72
479.2  62379.00  1698.57  2.72
480.7  63429.45  1727.35  2.72
482.1  64504.80  1760.15  2.73
483.6  65631.90  1798.68  2.74
485.0  66671.85  1830.74  2.75
486.4  67803.00  1867.94  2.75
487.9  68839.88  1904.03  2.77
489.3  69943.75  1942.30  2.78
490.7  70974.50  1980.16  2.79
492.2  72162.30  2027.20  2.81
493.6  73206.05  2073.32  2.83
495.0  74265.75  2121.32  2.86
496.5  75370.80  2171.90  2.88
497.9  76427.40  2223.61  2.91
499.3  77528.03  2283.71  2.95
500.7  78729.10  2348.18  2.98
502.2  79818.20  2416.65  3.03
503.6  80986.20  2495.90  3.08
505.0  81996.05  2579.79  3.15
506.5  83242.35  2680.61  3.22
507.9  84398.73  2787.10  3.30
509.3  85721.60  2917.71  3.40
510.7  86931.00  3057.32  3.52
512.2  88254.08  3220.34  3.65
513.6  89630.10  3409.83  3.80
515.0  90954.65  3615.86  3.98
516.4  92250.90  3847.50  4.17
517.8  93775.88  4112.39  4.39
519.3  95006.25  4394.08  4.63
520.7  96467.30  4715.45  4.89
522.1  97699.23  5042.98  5.16
523.5  99009.70  5387.91  5.44
524.9  100370.25  5740.76  5.72
526.3  101655.40  6088.50  5.99
527.8  103044.15  6437.83  6.25
529.2  104195.70  6766.02  6.49
530.6  105701.75  7108.03  6.72
532.0  107310.00  7432.00  6.93
533.4  108559.28  7717.06  7.11
534.8  109476.55  7960.19  7.27
536.3  111069.00  8222.83  7.40
537.7  112971.60  8481.60  7.51
539.1  114326.70  8693.23  7.60
540.5  115439.00  8887.16  7.70
541.9  117055.28  9103.76  7.78
543.3  118308.08  9289.77  7.85
544.7  119506.20  9476.11  7.93
546.1  121172.43  9696.50  8.00
547.5  122348.80  9874.13  8.07
549.0  124047.00  10079.14  8.13
550.4  125481.25  10255.66  8.17
551.8  126920.98  10402.71  8.20
553.2  128371.13  10520.89  8.20
554.6  129625.60  10591.16  8.17
556.0  131082.75  10639.80  8.12
557.4  132603.98  10655.40  8.04
558.8  134136.00  10650.65  7.94
560.2  135507.88  10597.32  7.82
561.6  137088.75  10536.20  7.69
563.0  138584.25  10442.08  7.53
564.4  140072.35  10331.97  7.38
565.8  141514.38  10191.91  7.20
567.2  143157.75  10046.64  7.02
568.6  144583.13  9868.28  6.83
570.0  145934.58  9671.59  6.63
571.4  147583.80  9486.16  6.43
572.8  149230.75  9307.92  6.24
574.2  150752.00  9131.73  6.06
575.6  152201.25  8970.00  5.89
577.0  153634.80  8829.07  5.75
578.4  155291.50  8716.50  5.61
579.8  156714.08  8613.90  5.50
581.2  158346.00  8533.53  5.39
582.5  159669.90  8452.97  5.29
583.9  161117.20  8393.73  5.21
585.3  162800.10  8358.86  5.13
586.7  164189.35  8322.45  5.07
588.1  165615.38  8299.27  5.01
589.5  167163.50  8296.17  4.96
590.9  168714.40  8299.73  4.92
592.3  170429.00  8326.03  4.89
593.7  171771.60  8342.57  4.86
595.0  173304.23  8380.22  4.84
596.4  174682.55  8406.40  4.81
597.8  176081.03  8430.26  4.79
599.2  177553.20  8451.77  4.76
600.6  179207.93  8474.70  4.73
602.0  180432.00  8464.14  4.69
603.3  182125.55  8456.49  4.64
604.7  183682.60  8430.31  4.59
606.1  185099.40  8382.52  4.53
607.5  186650.70  8329.80  4.46
608.9  188241.90  8269.43  4.39
610.2  189548.10  8191.80  4.32
611.6  191052.53  8118.86  4.25
613.0  192517.35  8050.72  4.18
614.4  193820.55  7980.33  4.12
615.8  195185.25  7921.18  4.06
617.1  196641.90  7879.20  4.01
618.5  198186.80  7851.05  3.96
619.9  199606.95  7829.23  3.92
621.3  201145.73  7824.64  3.89
622.6  202642.00  7831.24  3.86
624.0  204017.25  7841.24  3.84
625.4  205405.20  7865.87  3.83
626.8  206929.45  7903.35  3.82
628.1  208182.98  7936.34  3.81
629.5  209966.65  7996.52  3.81
630.9  211515.98  8050.40  3.81
632.2  212849.53  8091.42  3.80
633.6  214405.00  8138.45  3.80
635.0  215877.20  8164.27  3.78
636.3  217322.60  8178.78  3.76
637.7  218647.00  8166.25  3.73
639.1  220202.50  8153.33  3.70
640.4  221591.48  8120.40  3.66
641.8  222759.03  8067.09  3.62
643.2  224249.03  8025.42  3.58
644.5  225551.75  7965.69  3.53
645.9  227193.30  7924.72  3.49
647.2  229224.28  7906.13  3.45
648.6  231113.25  7897.50  3.42
650.0  232502.40  7885.03  3.39
651.3  232769.35  7819.19  3.36
652.7  233450.40  7762.36  3.33
654.0  235412.00  7731.48  3.28
655.4  236951.10  7708.80  3.25
656.8  237305.80  7668.28  3.23
658.1  238440.80  7642.33  3.21
659.5  240649.50  7606.70  3.16
660.8  242415.00  7566.43  3.12
662.2  243196.80  7524.27  3.09
663.5  244691.05  7501.47  3.07
664.9  246083.50  7474.01  3.04
666.2  246819.60  7446.51  3.02
667.6  248387.95  7454.42  3.00
668.9  249531.95  7474.01  3.00
670.3  250376.25  7496.69  2.99
671.6  252048.00  7560.43  3.00
673.0  253176.38  7627.86  3.01
674.3  254326.80  7701.32  3.03
675.7  255606.43  7793.53  3.05
677.0  256701.38  7891.24  3.07
678.4  258022.88  8015.00  3.11
679.7  259080.08  8149.25  3.15
681.1  260330.48  8306.51  3.19
682.4  261443.00  8475.88  3.24
683.8  262680.60  8680.04  3.30
685.1  263641.50  8904.78  3.38
686.4  264890.40  9182.34  3.47
687.8  266132.25  9506.05  3.57
689.1  267178.00  9889.60  3.70
690.5  268490.55  10391.69  3.87
691.8  269295.45  11023.45  4.09
693.1  270531.60  11872.92  4.39
694.5  271657.75  12969.67  4.77
695.8  272840.75  14349.83  5.26
697.1  273978.25  16050.67  5.86
698.5  275010.50  18105.95  6.58
699.8  276068.13  20534.91  7.44
701.1  277156.53  23331.49  8.42
702.5  277951.30  26424.30  9.51
703.8  278865.00  29809.29  10.69
705.1  279998.55  33464.51  11.95
706.5  281007.63  37295.93  13.27
707.8  281967.60  41266.61  14.64
709.1  282835.43  45334.63  16.03
710.5  283951.68  49523.23  17.44
711.8  284793.30  53726.01  18.86
713.1  285774.50  57996.99  20.29
714.4  286666.50  62272.22  21.72
715.8  287491.60  66517.71  23.14
717.1  288762.00  70853.76  24.54
718.4  289699.20  75067.73  25.91
719.7  290781.55  79272.53  27.26
721.0  291307.50  83256.43  28.58
722.4  292090.15  87210.51  29.86
723.7  293023.05  91106.93  31.09
725.0  294038.78  94916.92  32.28
726.3  294967.48  98554.00  33.41
727.6  295538.10  101925.58  34.49
729.0  296466.10  105269.42  35.51
730.3  297252.75  108395.12  36.47
731.6  298125.70  111413.23  37.37
732.9  298944.10  114244.78  38.22
734.2  299737.63  116935.11  39.01
735.5  300767.13  119547.33  39.75
736.8  301535.10  121921.83  40.43
738.1  302358.90  124173.02  41.07
739.5  303275.38  126331.65  41.66
740.8  303979.50  128265.32  42.20
742.1  304732.50  130108.86  42.70
743.4  305525.00  131842.86  43.15
744.7  306530.80  133573.75  43.58
746.0  307419.45  135127.57  43.96
747.3  307984.65  136439.63  44.30
748.6  308716.75  137730.62  44.61
749.9  309452.00  138951.43  44.90
751.2  310217.45  140091.78  45.16
752.5  311158.85  141219.96  45.39
753.8  311804.85  142148.48  45.59
755.1  312546.00  143054.47  45.77
756.4  313128.63  143832.24  45.93
757.7  314099.45  144726.18  46.08
759.0  315853.90  145925.89  46.20
760.3  317011.20  146806.63  46.31
761.6  318588.20  147835.20  46.40
762.9  319154.25  148378.43  46.49
764.2  319572.00  148810.80  46.57
765.5  319894.93  149170.28  46.63
766.8  320388.80  149576.69  46.69
768.1  320936.20  149990.21  46.74
769.3  321569.50  150413.37  46.77
770.6  322235.55  150860.79  46.82
771.9  323026.38  151334.63  46.85
773.2  323419.20  151628.95  46.88
774.5  324095.20  152018.53  46.91
775.8  324822.15  152426.92  46.93
777.1  325459.75  152779.31  46.94
778.4  325823.03  153032.42  46.97
779.6  326648.03  153463.10  46.98
780.9  327120.00  153754.28  47.00
782.2  327637.75  154030.12  47.01
783.5  327997.00  154239.95  47.02
784.8  328594.50  154559.49  47.04
786.0  329068.60  154809.57  47.04
787.3  329511.78  155060.84  47.06
788.6  329993.43  155318.12  47.07
789.9  330533.00  155581.20  47.07
791.2  331190.03  155928.77  47.08
792.4  331926.35  156285.80  47.08
793.7  332463.60  156560.11  47.09
795.0  333108.60  156899.68  47.10
796.2  333864.88  157252.47  47.10
797.5  334644.83  157634.97  47.11
798.8  335342.00  157985.80  47.11
800.0  336058.50  158332.44  47.11
801.3  336596.40  158585.58  47.11
802.6  337226.63  158893.56  47.12
803.8  337920.75  159243.54  47.12
805.1  338474.50  159508.50  47.13
806.4  338975.70  159755.12  47.13
807.7  339580.35  160041.34  47.13
808.9  340150.35  160329.33  47.13
810.2  340723.25  160606.90  47.14
811.4  341251.00  160885.02  47.15
812.7  341900.00  161196.13  47.15
814.0  342779.50  161605.85  47.15
815.2  343435.50  161934.33  47.15
816.5  343907.13  162154.82  47.15
817.7  344428.30  162397.42  47.15
819.0  344949.55  162664.39  47.16
820.2  345180.00  162783.24  47.16
821.5  345903.55  163121.34  47.16
822.7  346263.20  163326.33  47.17
824.0  346590.90  163500.17  47.17
825.2  347170.05  163753.27  47.17
826.5  347518.53  163927.19  47.17
827.7  348037.18  164199.76  47.18
829.0  348481.20  164398.15  47.18
830.2  348770.85  164564.89  47.18
831.5  349294.75  164802.45  47.18
832.7  349651.05  164977.60  47.18
834.0  349971.35  165135.76  47.19
835.2  350341.75  165323.69  47.19
836.4  350669.55  165491.70  47.19
837.7  351053.40  165712.63  47.20
838.9  351488.65  165943.60  47.21
840.1  351893.03  166154.14  47.22
841.4  352381.70  166397.28  47.22
842.6  352753.40  166585.11  47.22
843.8  353123.60  166775.60  47.23
845.1  353607.30  167016.55  47.23
846.3  353928.90  167243.99  47.25
847.5  354377.10  167469.20  47.26
848.8  354855.60  167695.77  47.26
850.0  355162.85  167872.17  47.27
851.2  355700.70  168154.59  47.27
852.5  356029.10  168355.77  47.29
853.7  356526.00  168606.00  47.29
854.9  357006.10  168831.99  47.29
856.1  357513.00  169077.44  47.29
857.4  357709.05  169174.93  47.29
858.6  358147.05  169395.51  47.30
859.8  358530.00  169611.97  47.31
861.0  359002.80  169863.94  47.32
862.2  359497.35  170106.17  47.32
863.5  359915.08  170293.65  47.31
864.7  360459.00  170554.69  47.32
865.9  360834.40  170749.37  47.32
867.1  361184.65  170891.04  47.31
868.3  361525.50  171135.62  47.34
869.5  362060.90  171372.47  47.33
870.8  362610.00  171636.85  47.33
872.0  363118.20  171904.52  47.34
873.2  363631.95  172116.07  47.33
874.4  363995.78  172308.41  47.34
875.6  364412.20  172503.94  47.34
876.8  364941.25  172744.62  47.33
878.0  365465.40  172989.13  47.33
879.2  365974.20  173226.53  47.33
880.4  366528.38  173486.04  47.33
881.6  367055.50  173700.94  47.32
882.8  367480.80  173914.74  47.33
884.0  368116.90  174213.64  47.33
885.2  368690.80  174464.54  47.32
886.5  369349.45  174746.80  47.31
887.7  369822.70  174991.45  47.32
888.8  370485.23  175274.08  47.31
890.0  371094.30  175549.34  47.31
891.2  371707.90  175834.74  47.30
892.4  372402.98  176122.05  47.29
893.6  372970.85  176393.91  47.29
894.8  373893.75  176843.72  47.30
896.0  374768.00  177232.14  47.29
897.2  375696.75  177617.45  47.28
898.4  376464.00  177982.51  47.28
899.6  377066.25  178249.50  47.27
900.8  377526.93  178449.38  47.27
902.0  377747.40  178606.50  47.28
903.2  378318.15  178776.85  47.26
904.3  378744.00  178959.69  47.25
905.5  379252.58  179223.23  47.26
906.7  379998.00  179492.14  47.24
907.9  380570.75  179754.63  47.23
909.1  381036.83  179944.72  47.23
910.2  381210.08  180062.39  47.23
911.4  381601.35  180230.14  47.23
912.6  381910.10  180345.47  47.22
913.8  382243.95  180471.82  47.21
915.0  382721.85  180689.60  47.21
916.2  383038.50  180805.86  47.20
917.3  383240.93  180831.62  47.18
918.5  383534.80  180950.51  47.18
919.7  383862.90  181087.97  47.18
920.8  384043.18  181142.04  47.17
922.0  384172.25  181193.83  47.16
923.2  384657.00  181311.00  47.14
924.4  384959.25  181442.57  47.13
925.5  385263.80  181548.20  47.12
926.7  385978.63  181792.54  47.10
927.9  386805.00  182154.69  47.09
929.0  388328.85  182774.31  47.07
930.2  390560.20  183750.99  47.05
931.4  393022.13  184803.94  47.02
932.5  395601.85  185966.49  47.01
933.7  397197.23  186561.99  46.97
934.9  397888.75  186850.00  46.96
936.0  397510.75  186649.20  46.95
937.2  395921.85  185760.95  46.92
938.3  394474.00  184947.50  46.88
939.5  393051.60  184250.74  46.88
940.7  393479.10  184260.43  46.83
941.8  394881.68  184897.95  46.82
943.0  396501.00  185481.07  46.78
944.2  397446.40  185798.54  46.75
945.3  397176.00  185532.29  46.71
946.5  396692.10  185076.51  46.65
947.6  396846.70  185124.30  46.65
948.8  396975.15  184933.54  46.59
949.9  397366.20  184898.00  46.53
951.1  397039.50  184597.58  46.49
952.2  396780.00  184260.57  46.44
953.4  396676.50  183959.05  46.38
954.5  396770.40  183763.54  46.31
955.7  397126.80  183600.00  46.23
956.8  397013.80  183326.53  46.18
958.0  396928.00  183001.19  46.10
959.1  396824.55  182794.25  46.06
960.3  396476.90  182512.54  46.03
961.4  396624.05  182390.55  45.99
962.6  396786.25  182438.33  45.98
963.7  396690.53  182311.52  45.96
964.9  397121.55  182244.15  45.89
966.0  396821.03  182226.86  45.92
967.2  397017.45  182137.71  45.88
968.3  396985.05  182088.77  45.87
969.5  396996.50  181990.01  45.84
970.6  396996.88  182034.24  45.85
971.8  397336.98  182135.95  45.84
972.9  397462.43  182071.78  45.81
974.0  397923.90  182224.65  45.79
975.2  398092.88  182225.73  45.77
976.3  397962.75  182233.14  45.79
977.5  397840.10  182136.28  45.78
978.6  398099.50  182216.97  45.77
979.7  398816.78  182308.15  45.71
980.9  398617.70  182173.70  45.70
982.0  398838.45  182289.58  45.71
983.2  399032.43  182327.24  45.69
984.3  398605.40  182147.10  45.70
985.4  398638.18  182443.98  45.77
986.6  399181.25  182424.37  45.70
987.7  400466.15  182995.70  45.70
988.9  399852.00  182986.46  45.76
990.0  400962.70  183449.71  45.75
993.1  333023.13  151829.95  45.59
996.9  334285.15  152861.63  45.73
1000.7  335785.63  153907.38  45.84
1004.5  336517.00  154578.34  45.93
1008.4  336534.13  154910.06  46.03
1012.2  336716.88  155317.56  46.13
1016.0  337084.80  155771.57  46.21
1019.8  337589.18  156277.28  46.29
1023.7  338098.19  156726.19  46.36
1027.5  338343.95  157086.98  46.43
1031.3  339062.35  157590.98  46.48
1035.1  339343.32  157896.05  46.53
1038.9  339488.42  158120.08  46.58
1042.7  339370.08  158216.49  46.62
1046.5  339326.17  158296.76  46.65
1050.3  339407.77  158419.40  46.68
1054.2  339186.75  158399.33  46.70
1058.0  338745.52  158232.05  46.71
1061.8  338575.93  158244.60  46.74
1065.6  338445.63  158198.44  46.74
1069.4  338747.33  158336.64  46.74
1073.2  338757.48  158311.95  46.73
1077.0  338501.85  158145.97  46.72
1080.8  337910.42  157778.12  46.69
1084.6  336583.45  157074.87  46.67
1088.4  335683.42  156598.17  46.65
1092.2  334795.50  156082.18  46.62
1096.0  334334.37  155726.09  46.58
1099.8  333958.30  155414.97  46.54
1103.6  333454.37  155020.22  46.49
1107.4  332711.38  154502.89  46.44
1111.2  332510.80  154233.60  46.38
1114.9  331878.75  153733.08  46.32
1118.7  331192.13  153140.63  46.24
1122.5  330433.13  152433.79  46.13
1126.3  329310.39  151495.50  46.00
1130.1  328840.17  150658.71  45.82
1133.9  327453.70  149135.90  45.54
1137.7  326235.80  147477.61  45.21
1141.4  324734.04  145482.15  44.80
1145.2  324179.66  143759.66  44.35
1149.0  323233.75  141953.54  43.92
1152.8  321825.95  140106.85  43.53
1156.6  320372.62  138542.62  43.24
1160.3  318839.67  137229.57  43.04
1164.1  316608.50  135845.14  42.91
1167.9  314932.29  134868.31  42.82
1171.7  313787.25  134196.75  42.77
1175.4  312835.00  133683.82  42.73
1179.2  312067.85  133211.28  42.69
1183.0  311903.00  132976.24  42.63
1186.7  311268.53  132552.40  42.58
1190.5  310074.87  131925.32  42.55
1194.3  308853.97  131339.36  42.52
1198.0  307840.78  130898.11  42.52
1201.8  306610.30  130384.35  42.52
1205.6  305475.33  129976.81  42.55
1209.3  304490.50  129709.62  42.60
1213.1  303450.00  129461.68  42.66
1216.8  302405.95  129287.68  42.75
1220.6  301388.27  129137.07  42.85
1224.3  300245.83  128920.66  42.94
1228.1  299206.20  128782.74  43.04
1231.9  298197.85  128600.84  43.13
1235.6  296983.20  128305.82  43.20
1239.4  295839.50  128049.53  43.28
1243.1  294781.63  127756.40  43.34
1246.9  293722.65  127427.43  43.38
1250.6  292887.20  127147.33  43.41
1254.3  291965.58  126821.45  43.44
1258.1  291150.65  126505.28  43.45
1261.8  290068.93  126064.42  43.46
1265.6  288731.55  125457.97  43.45
1269.3  287200.33  124727.58  43.43
1273.1  286992.00  124541.15  43.40
1276.8  287377.20  124590.80  43.35
1280.6  287611.43  124545.66  43.30
1284.3  286622.80  123932.46  43.24
1288.0  285301.12  123130.40  43.16
1291.8  283855.61  122204.62  43.05
1295.5  282365.60  121225.87  42.93
1299.2  281100.25  120303.36  42.80
1302.9  279794.98  119276.65  42.63
1306.7  278446.58  118150.55  42.43
1310.4  277165.10  116936.05  42.19
1314.1  275969.47  115701.01  41.93
1317.9  274936.25  114403.60  41.61
1321.6  273708.26  112924.00  41.26
1325.3  272238.23  111242.55  40.86
1329.0  271019.35  109581.50  40.43
1332.8  269068.80  107525.00  39.96
1336.5  267334.60  105536.28  39.48
1340.2  266903.00  104060.67  38.99
1343.9  266297.92  102512.86  38.50
1347.6  265338.30  100844.36  38.01
1351.4  264957.00  99441.36  37.53
1355.1  264596.20  98095.70  37.07
1358.8  264032.00  96628.57  36.60
1362.5  263296.65  94993.46  36.08
1366.2  261710.75  92864.81  35.48
1369.9  260477.00  90623.57  34.79
1373.6  259051.16  87934.98  33.95
1377.3  257277.90  84615.26  32.89
1381.0  255918.33  80701.69  31.53
1384.8  253971.25  75801.61  29.85
1388.4  252137.08  70486.50  27.96
1392.2  250658.75  64916.93  25.90
1395.9  249204.78  59246.71  23.77
1399.6  247749.44  53832.73  21.73
1403.3  246775.50  49051.19  19.88
1407.0  245956.20  44946.85  18.27
1410.7  245125.65  41585.78  16.97
1414.3  244285.36  38948.11  15.94
1418.1  243473.92  36975.25  15.19
1421.7  242889.27  35544.45  14.63
1425.4  242215.68  34534.59  14.26
1429.1  241587.38  33862.34  14.02
1432.8  240370.00  33381.05  13.89
1436.5  239665.96  33163.25  13.84
1440.2  238839.37  33076.94  13.85
1443.9  237626.68  33045.94  13.91
1447.6  236174.40  33044.00  13.99
1451.2  235280.10  33150.60  14.09
1454.9  234203.85  33273.73  14.21
1458.6  233302.08  33501.34  14.36
1462.3  232265.00  33820.70  14.56
1466.0  231034.44  34242.31  14.82
1469.7  229526.38  34776.15  15.15
1473.3  228611.33  35519.47  15.54
1477.0  226934.13  36245.84  15.97
1480.7  225547.50  37066.87  16.43
1484.4  223837.47  37852.39  16.91
1488.0  222464.00  38722.10  17.41
1491.7  221019.98  39558.01  17.90
1495.4  219437.76  40378.58  18.40
1499.0  218007.50  41186.22  18.89
1502.7  216841.08  42049.30  19.39
1506.4  215547.30  42853.47  19.88
1510.0  214293.20  43639.78  20.36
1513.7  213003.00  44377.67  20.83
1517.4  211832.33  45109.05  21.29
1521.0  210747.20  45834.73  21.75
1524.7  209658.58  46499.14  22.18
1528.3  208513.25  47114.95  22.60
1532.0  207402.07  47706.27  23.00
1535.7  206150.97  48210.19  23.39
1539.3  204998.51  48714.78  23.76
1543.0  204115.43  49251.30  24.13
1546.6  203476.00  49820.80  24.48
1550.3  202586.95  50286.96  24.82
1553.9  201630.93  50702.44  25.15
1557.6  200514.60  51043.77  25.46
1561.2  199359.45  51330.02  25.75
1564.9  198174.17  51592.60  26.03
1568.5  196962.85  51816.57  26.31
1572.2  195941.30  52063.28  26.57
1575.8  194978.00  52314.00  26.83
1579.5  194080.05  52558.77  27.08
1583.1  193172.84  52796.03  27.33
1586.8  192094.00  52960.00  27.57
1590.4  191190.13  53164.28  27.81
1594.0  190026.42  53271.46  28.03
1597.7  188912.59  53384.28  28.26
1601.3  187591.95  53435.70  28.49
1604.9  186305.93  53463.78  28.70
1608.6  185055.43  53478.26  28.90
1612.2  184190.33  53567.49  29.08
1615.8  183240.20  53610.10  29.26
1619.5  182266.58  53622.90  29.42
1623.1  181105.77  53556.18  29.57
1626.7  179970.05  53480.33  29.72
1630.3  178870.92  53392.29  29.85
1634.0  177828.00  53300.00  29.97
1637.6  176916.47  53218.22  30.08
1641.2  175990.30  53088.93  30.17
1644.8  174886.90  52857.88  30.22
1648.5  173877.08  52632.38  30.27
1652.1  172978.80  52383.51  30.28
1655.7  172104.00  52101.83  30.27
1659.3  171315.83  51817.48  30.25
1662.9  170014.17  51350.12  30.20
1666.6  168673.40  50865.07  30.16
1670.2  167364.46  50373.02  30.10
1673.8  166025.12  49842.31  30.02
1677.4  164961.05  49367.69  29.93
1681.0  164241.18  48960.89  29.81
1684.6  163901.83  48613.65  29.66
1688.2  163305.15  48140.32  29.48
1691.8  162699.88  47691.76  29.31
1695.4  162320.20  47294.12  29.14
1699.0  162032.27  46911.03  28.95
1702.6  161737.33  46513.71  28.76
1706.2  161186.03  46036.69  28.56
1709.8  160374.71  45476.81  28.36
1713.4  159742.13  44964.45  28.15
1717.0  158975.50  44424.89  27.94
1720.6  158269.80  43902.86  27.74
1724.2  157652.78  43414.70  27.54
1727.8  157001.60  42957.00  27.36
1731.4  156574.00  42604.97  27.21
1735.0  156351.25  42363.20  27.09
1738.6  156075.90  42096.84  26.97
1742.2  155471.04  41708.55  26.83
1745.8  154809.66  41262.23  26.65
1749.4  153881.48  40714.69  26.46
1753.0  152459.67  40022.74  26.25
1756.6  150919.71  39303.92  26.04
1760.1  149717.45  38688.86  25.84
1763.7  148166.00  38009.14  25.65
1767.3  146863.65  37443.23  25.50
1770.9  145750.09  36950.67  25.35
1774.5  144428.60  36431.97  25.22
1778.0  143394.14  35997.74  25.10
1781.6  142379.70  35598.17  25.00
1785.2  141310.13  35207.87  24.92
1788.8  140233.70  34850.80  24.85
1792.3  139126.03  34501.32  24.80
1795.9  138665.91  34340.60  24.76
1799.5  138133.00  34182.43  24.75
1803.1  137012.17  33903.92  24.75
1806.6  136738.99  33834.05  24.74
1810.2  137380.13  33997.33  24.75
1813.8  138210.00  34200.20  24.75
1817.3  138355.00  34225.51  24.74
1820.9  137816.82  34075.22  24.73
1824.5  136777.58  33778.33  24.70
1828.0  136106.67  33546.27  24.65
1831.6  135300.45  33253.69  24.58
1835.2  134512.50  32919.28  24.47
1838.7  134084.53  32594.11  24.31
1842.3  133740.00  32228.57  24.10
1845.8  133159.83  31693.07  23.80
1849.4  132806.45  31087.06  23.41
1852.9  132284.13  30286.51  22.90
1856.5  131576.47  29256.35  22.24
1860.0  130976.86  28033.10  21.40
1863.6  130670.37  26669.46  20.41
1867.1  130254.25  25058.60  19.24
1870.7  129869.38  23105.58  17.79
1874.2  129223.80  20774.70  16.08
1877.8  128583.40  18355.87  14.28
1881.3  127823.38  15889.79  12.43
1884.9  127306.85  13586.14  10.67
1888.4  126517.23  11420.68  9.03
1891.9  125806.73  9600.57  7.63
1895.5  124849.07  8156.28  6.53
1899.0  124424.75  7128.46  5.73
1901.3  146538.88  5221.92  3.56
1904.1  146406.94  4660.12  3.18
1906.8  145871.55  4222.95  2.89
1909.6  144608.36  3907.66  2.70
1912.4  143376.54  3682.32  2.57
1915.1  142521.23  3520.55  2.47
1917.9  141476.00  3390.00  2.40
1920.6  140661.10  3315.07  2.36
1923.3  139880.65  3271.92  2.34
1926.1  138885.80  3237.87  2.33
1928.8  137984.00  3234.00  2.34
1931.6  137292.76  3246.92  2.36
1934.3  136607.39  3275.05  2.40
1937.0  135936.80  3315.24  2.44
1939.8  135194.88  3362.06  2.49
1942.5  134252.25  3423.75  2.55
1945.2  132963.19  3485.07  2.62
1947.9  131913.25  3559.33  2.70
1950.7  131080.88  3647.85  2.78
1953.4  129655.58  3734.05  2.88
1956.1  128530.44  3837.29  2.99
1958.8  127521.88  3945.61  3.09
1961.5  126304.50  4057.20  3.21
1964.2  125020.35  4179.18  3.34
1966.9  123675.04  4305.54  3.48
1969.6  122607.00  4441.50  3.62
1972.3  121391.55  4583.50  3.78
1975.0  120470.63  4741.39  3.94
1977.7  119507.71  4895.45  4.10
1980.4  118514.38  5067.14  4.28
1983.1  117563.86  5238.72  4.46
1985.8  116751.83  5417.93  4.64
1988.4  115856.00  5598.67  4.83
1991.1  115034.85  5780.02  5.02
1993.8  114257.00  5964.89  5.22
1996.5  113694.76  6171.69  5.43
1999.1  113100.21  6367.72  5.63
2001.8  112483.70  6563.49  5.84
2004.5  111883.43  6753.49  6.04
2007.1  111228.19  6943.79  6.24
2009.8  110567.10  7118.19  6.44
2012.4  110049.91  7298.32  6.63
2015.1  109576.43  7472.15  6.82
2017.8  108883.60  7627.55  7.01
2020.4  108434.29  7787.31  7.18
2023.1  108106.60  7951.30  7.36
2025.7  107887.00  8112.00  7.52
2028.3  107581.50  8257.17  7.68
2031.0  107234.83  8390.27  7.82
2033.6  106983.90  8517.30  7.96
2036.2  106755.53  8630.40  8.08
2038.9  106240.05  8708.70  8.20
2041.5  105933.65  8806.01  8.31
2044.1  105444.00  8884.88  8.43
2046.8  105130.80  8963.18  8.53
2049.4  104569.65  9013.20  8.62
2052.0  104302.20  9093.58  8.72
2054.6  103943.44  9170.00  8.82
2057.2  103450.70  9239.87  8.93
2059.8  103182.15  9333.75  9.05
2062.4  102409.94  9379.13  9.16
2065.0  101957.30  9464.75  9.28
2067.6  101180.89  9516.42  9.41
2070.2  100651.35  9581.79  9.52
2072.8  100076.05  9653.71  9.65
2075.4  99677.81  9734.38  9.77
2078.0  99108.94  9791.22  9.88
2080.6  98617.20  9849.40  9.99
2083.2  98020.10  9904.15  10.10
2085.8  97593.81  9966.89  10.21
2088.4  96990.00  10010.38  10.32
2090.9  96271.39  10037.77  10.43
2093.5  95501.88  10057.56  10.53
2096.1  94807.30  10092.05  10.64
2098.7  94109.03  10111.81  10.74
2101.2  93265.45  10117.57  10.85
2103.8  92669.40  10145.95  10.95
2106.4  92079.90  10176.52  11.05
2108.9  91496.95  10207.08  11.16
2111.5  90737.15  10218.00  11.26
2114.0  90173.85  10242.02  11.36
2116.6  89722.50  10274.69  11.45
2119.1  89242.48  10294.26  11.54
2121.7  88810.31  10322.81  11.62
2124.2  88453.48  10357.82  11.71
2126.8  87752.09  10340.18  11.78
2129.3  87403.80  10355.40  11.85
2131.9  86875.80  10353.20  11.92
2134.4  86493.26  10361.14  11.98
2136.9  86146.13  10375.74  12.04
2139.4  85698.55  10369.57  12.10
2142.0  85319.50  10376.22  12.16
2144.5  85066.20  10392.98  12.22
2147.0  84855.50  10416.27  12.28
2149.5  84426.70  10407.33  12.33
2152.1  84265.91  10425.16  12.37
2154.6  84184.00  10444.80  12.41
2157.1  83705.19  10423.13  12.45
2159.6  83357.75  10420.86  12.50
2162.1  83210.40  10433.15  12.54
2164.6  83008.30  10441.68  12.58
2167.1  82718.88  10439.16  12.62
2169.6  82417.74  10440.18  12.67
2172.1  82005.85  10417.51  12.70
2174.6  81725.05  10427.32  12.76
2177.1  81335.93  10422.86  12.81
2179.5  80971.15  10423.02  12.87
2182.0  80538.56  10411.23  12.93
2184.5  80058.60  10396.74  12.99
2187.0  79508.85  10376.67  13.05
2189.5  78906.08  10353.43  13.12
2191.9  78232.50  10314.63  13.18
2194.4  77691.64  10299.68  13.26
2196.9  77032.80  10257.60  13.32
2199.3  76458.50  10224.92  13.37
2201.8  75679.10  10159.17  13.42
2204.3  75244.75  10138.16  13.47
2206.7  74680.24  10093.79  13.52
2209.2  74273.25  10071.12  13.56
2211.6  73722.83  10023.75  13.60
2214.1  73453.39  10002.24  13.62
2216.5  72935.50  9950.72  13.64
2219.0  72644.95  9908.50  13.64
2221.4  72299.94  9857.17  13.63
2223.9  71876.00  9792.71  13.62
2226.3  71429.75  9705.94  13.59
2228.7  70952.45  9601.66  13.53
2231.1  70418.70  9481.73  13.46
2233.6  69903.35  9347.27  13.37
2236.0  69421.63  9207.62  13.26
2238.4  68975.38  9066.32  13.14
2240.9  68577.25  8930.07  13.02
2243.3  68100.45  8771.13  12.88
2245.7  67610.25  8599.29  12.72
2248.1  67177.83  8436.79  12.56
2250.5  66728.60  8268.69  12.39
2252.9  66176.18  8075.49  12.20
2255.3  65677.46  7900.30  12.03
2257.7  65287.50  7742.50  11.86
2260.1  64850.45  7582.69  11.69
2262.5  64320.00  7410.00  11.52
2264.9  63853.40  7260.38  11.37
2267.3  63315.00  7095.00  11.21
2269.7  62871.38  6950.59  11.06
2272.1  62383.80  6813.84  10.92
2274.5  61884.19  6673.86  10.78
2276.8  61467.28  6558.41  10.67
2279.2  60948.23  6432.00  10.55
2281.6  60573.65  6319.35  10.43
2284.0  60153.08  6206.45  10.32
2286.3  59743.60  6097.73  10.21
2288.7  59396.84  5992.89  10.09
2291.1  58920.98  5876.49  9.97
2293.4  58535.40  5769.87  9.86
2295.8  57976.13  5657.28  9.76
2298.2  57450.26  5539.84  9.64
2300.5  56868.08  5410.46  9.51
2302.9  56203.00  5280.33  9.40
2305.2  55565.93  5162.88  9.29
2307.6  54974.94  5055.17  9.20
2309.9  54273.25  4952.25  9.12
2312.2  53730.75  4872.17  9.07
2314.6  53180.89  4799.81  9.03
2316.9  52552.13  4714.43  8.97
2319.2  52038.08  4646.86  8.93
2321.6  51483.16  4571.26  8.88
2323.9  50984.38  4497.40  8.82
2326.2  50494.73  4421.13  8.76
2328.6  50026.76  4328.91  8.65
2330.9  49581.00  4247.25  8.57
2333.2  49156.94  4167.19  8.48
2335.5  48759.90  4090.08  8.39
2337.8  48355.16  4011.40  8.30
2340.1  47853.74  3917.05  8.19
2342.4  47458.13  3840.42  8.09
2344.8  47094.50  3760.79  7.99
2347.1  46569.95  3682.06  7.91
2349.4  46079.96  3613.47  7.84
2351.6  45567.69  3541.86  7.77
2353.9  45140.13  3481.02  7.71
2356.2  44663.99  3418.37  7.65
2358.5  44133.60  3354.40  7.60
2360.8  43604.40  3290.00  7.55
2363.1  43206.60  3236.01  7.49
2365.4  42790.28  3158.35  7.38
2367.7  42373.80  3092.25  7.30
2369.9  41898.41  3025.67  7.22
2372.2  41348.80  2961.27  7.16
2374.5  40826.36  2890.39  7.08
2376.7  40251.75  2817.04  7.00
2379.0  39698.75  2751.29  6.93
2381.3  39147.50  2680.42  6.85
2383.5  38693.60  2607.73  6.74
2385.8  38141.65  2541.60  6.66
2388.0  37665.60  2472.10  6.56
2390.3  37210.90  2411.90  6.48
2392.5  36774.00  2343.00  6.37
2394.8  36363.53  2283.88  6.28
2397.0  35935.90  2226.47  6.20
2399.3  35508.33  2171.68  6.12
2401.5  35096.25  2119.25  6.04
2403.8  34631.39  2056.88  5.94
2406.0  34176.88  1992.88  5.83
2408.2  33809.60  1941.68  5.74
2410.4  33433.49  1891.23  5.66
2412.7  33062.90  1831.59  5.54
2414.9  32722.39  1783.65  5.45
2417.1  32346.90  1717.68  5.31
2419.3  31968.00  1673.60  5.24
2421.6  31639.38  1627.50  5.14
2423.8  31304.78  1585.18  5.06
2426.0  30965.25  1538.52  4.97
2428.2  30634.80  1489.60  4.86
2430.4  30340.73  1435.82  4.73
2432.6  30080.00  1396.67  4.64
2434.8  29834.40  1370.09  4.59
2437.0  29509.68  1326.54  4.50
2439.2  29175.73  1290.84  4.42
2441.4  28885.63  1250.86  4.33
2443.6  28683.40  1222.78  4.26
2445.7  28426.13  1183.55  4.16
2447.9  28170.81  1144.65  4.06
2450.1  27892.76  1109.95  3.98
2452.3  27559.26  1083.46  3.93
2454.5  27253.28  1053.11  3.86
2456.6  26942.60  1012.93  3.76
2458.8  26608.73  983.13  3.69
2461.0  26317.63  944.29  3.59
2463.1  26048.14  927.57  3.56
2465.3  25780.28  914.59  3.55
2467.5  25554.38  885.00  3.46
2469.6  25328.50  857.71  3.39
2471.8  25047.80  825.92  3.30
2473.9  24740.44  806.96  3.26
2476.1  24433.50  792.46  3.24
2478.2  24118.18  769.28  3.19
2480.4  23853.90  752.15  3.15
2482.5  23538.54  735.46  3.12
2484.6  23223.06  712.94  3.07
2486.8  22961.25  690.80  3.01
2488.9  22680.65  670.79  2.96
2491.1  22372.00  666.40  2.98
2493.2  22022.03  642.66  2.92
2495.3  21669.05  617.29  2.85
2497.4  21348.60  615.83  2.88
2499.5  21034.29  602.83  2.87
2501.7  20915.53  599.82  2.87
2503.8  20799.71  585.09  2.81
2505.9  20717.81  576.56  2.78
2508.0  20704.70  578.05  2.79
2510.1  20722.31  567.80  2.74
2512.2  20808.90  568.85  2.73
2514.3  20900.65  574.25  2.75
2516.4  21098.70  581.15  2.75
