/*** Spectra Vista SIG Data ***/
name= 5_20220824_ACSA_1_avg.sig
comm= Averaged Ref/Tar of files: HR.082422.0013_moc.sig,HR.082422.0014_moc.sig,HR.082422.0015_moc.sig
data=
337.3  3374.50  297.75  8.82
338.8  3511.30  293.18  8.35
340.3  3654.30  274.85  7.52
341.8  3840.90  280.45  7.30
343.2  4040.40  274.01  6.78
344.7  4222.35  277.02  6.56
346.2  4411.80  274.67  6.23
347.7  4601.03  268.16  5.83
349.2  4800.60  272.88  5.68
350.6  5068.05  273.51  5.40
352.1  5323.03  274.23  5.15
353.6  5621.40  278.92  4.96
355.1  5926.80  282.87  4.77
356.6  6227.25  284.05  4.56
358.0  6507.60  288.01  4.43
359.5  6798.00  290.17  4.27
361.0  7122.15  305.52  4.29
362.5  7494.40  312.27  4.17
364.0  7856.95  328.26  4.18
365.4  8233.30  335.59  4.08
366.9  8619.00  349.92  4.06
368.4  9000.75  355.35  3.95
369.9  9377.68  365.48  3.90
371.3  9798.90  379.39  3.87
372.8  10195.20  389.40  3.82
374.3  10642.50  404.92  3.80
375.8  11076.45  409.64  3.70
377.2  11540.10  417.59  3.62
378.7  11970.50  429.38  3.59
380.2  12400.90  428.35  3.45
381.7  12972.00  445.27  3.43
383.1  13475.00  457.38  3.39
384.6  14000.03  465.00  3.32
386.1  14485.40  478.21  3.30
387.6  14984.20  492.80  3.29
389.0  15517.20  496.18  3.20
390.5  16036.20  508.24  3.17
392.0  16637.05  521.95  3.14
393.4  17210.13  534.01  3.10
394.9  17800.20  551.83  3.10
396.4  18371.25  562.35  3.06
397.9  18962.50  578.88  3.05
399.3  19550.90  590.43  3.02
400.8  20114.48  605.80  3.01
402.2  20793.85  625.67  3.01
403.7  21402.68  635.58  2.97
405.2  22065.10  661.55  3.00
406.6  22643.20  672.58  2.97
408.1  23300.60  687.90  2.95
409.6  23925.50  705.74  2.95
411.0  24616.55  722.24  2.93
412.5  25302.38  739.39  2.92
414.0  25957.75  754.07  2.90
415.4  26712.00  782.51  2.93
416.9  27389.78  804.41  2.94
418.4  28087.20  828.46  2.95
419.8  28847.00  851.07  2.95
421.3  29589.50  869.18  2.94
422.7  30415.20  901.15  2.96
424.2  31218.75  927.00  2.97
425.7  32013.20  952.23  2.97
427.1  32789.40  976.93  2.98
428.6  33604.00  1004.70  2.99
430.0  34386.55  1028.43  2.99
431.5  35297.63  1055.55  2.99
432.9  36200.15  1086.05  3.00
434.4  37130.40  1117.62  3.01
435.9  37982.00  1146.93  3.02
437.3  38843.75  1173.07  3.02
438.8  39720.45  1196.41  3.01
440.2  40613.65  1224.30  3.01
441.7  41633.80  1258.32  3.02
443.1  42559.00  1289.92  3.03
444.6  43570.60  1325.22  3.04
446.0  44530.20  1358.54  3.05
447.5  45521.85  1390.24  3.05
448.9  46491.60  1418.51  3.05
450.4  47526.50  1451.14  3.05
451.8  48425.00  1486.70  3.07
453.3  49371.20  1516.70  3.07
454.7  50420.73  1553.90  3.08
456.2  51326.23  1583.22  3.08
457.6  52330.05  1614.49  3.09
459.1  53339.98  1645.45  3.08
460.5  54302.50  1675.31  3.09
462.0  55398.40  1706.47  3.08
463.4  56471.40  1741.60  3.08
464.8  57498.00  1775.21  3.09
466.3  58526.33  1806.42  3.09
467.7  59537.25  1839.67  3.09
469.2  60635.10  1872.91  3.09
470.6  61651.40  1905.98  3.09
472.0  62718.20  1939.94  3.09
473.5  63760.25  1973.20  3.09
474.9  64823.25  2007.49  3.10
476.4  66009.60  2047.54  3.10
477.8  67135.00  2085.51  3.11
479.2  68164.50  2120.31  3.11
480.7  69306.30  2161.88  3.12
482.1  70487.10  2199.43  3.12
483.6  71715.35  2243.47  3.13
485.0  72838.20  2284.29  3.14
486.4  74074.05  2329.94  3.15
487.9  75187.13  2376.49  3.16
489.3  76408.03  2422.19  3.17
490.7  77497.68  2475.76  3.19
492.2  78777.30  2534.28  3.22
493.6  79901.10  2585.66  3.24
495.0  81051.75  2643.92  3.26
496.5  82282.73  2709.14  3.29
497.9  83427.38  2779.31  3.33
499.3  84616.05  2856.17  3.38
500.7  85907.60  2946.18  3.43
502.2  87089.00  3041.81  3.49
503.6  88359.20  3153.04  3.57
505.0  89452.90  3264.86  3.65
506.5  90807.15  3410.07  3.76
507.9  92048.43  3564.49  3.87
509.3  93462.00  3747.08  4.01
510.7  94755.38  3957.66  4.18
512.2  96200.85  4196.37  4.36
513.6  97723.50  4467.91  4.57
515.0  99190.93  4770.39  4.81
516.4  100585.80  5110.02  5.08
517.8  102250.88  5496.91  5.38
519.3  103606.08  5899.97  5.69
520.7  105192.35  6345.25  6.03
522.1  106531.43  6799.04  6.38
523.5  107933.50  7269.04  6.73
524.9  109437.75  7750.09  7.08
526.3  110911.15  8222.96  7.41
527.8  112429.35  8690.50  7.73
529.2  113552.90  9130.72  8.04
530.6  115108.70  9594.25  8.33
532.0  116830.00  10036.00  8.59
533.4  118224.68  10407.50  8.80
534.8  119210.15  10717.04  8.99
536.3  120937.50  11070.66  9.15
537.7  122938.20  11433.12  9.30
539.1  124396.23  11731.52  9.43
540.5  125609.20  11990.55  9.55
541.9  127381.95  12291.98  9.65
543.3  128725.58  12546.64  9.75
544.7  130039.80  12802.96  9.85
546.1  131883.68  13110.36  9.94
547.5  133145.60  13354.67  10.03
549.0  134937.00  13641.05  10.11
550.4  136478.13  13888.80  10.18
551.8  138045.90  14114.13  10.22
553.2  139610.80  14302.66  10.24
554.6  140972.00  14429.46  10.24
556.0  142540.20  14530.81  10.19
557.4  144178.30  14591.68  10.12
558.8  145862.55  14621.49  10.02
560.2  147345.75  14588.44  9.90
561.6  149056.65  14534.04  9.75
563.0  150661.93  14431.76  9.58
564.4  152268.15  14299.77  9.39
565.8  153828.75  14125.18  9.18
567.2  155595.50  13941.83  8.96
568.6  157132.88  13712.65  8.73
570.0  158599.73  13456.81  8.48
571.4  160368.65  13216.01  8.24
572.8  162158.00  12979.17  8.00
574.2  163800.00  12743.04  7.78
575.6  165386.25  12523.07  7.57
577.0  166946.20  12331.42  7.39
578.4  168702.63  12173.63  7.22
579.8  170243.10  12021.65  7.06
581.2  172004.50  11906.82  6.92
582.5  173452.50  11785.13  6.79
583.9  175005.80  11684.70  6.68
585.3  176835.83  11619.72  6.57
586.7  178342.78  11542.40  6.47
588.1  179862.25  11485.26  6.39
589.5  181532.75  11455.03  6.31
590.9  183197.60  11439.18  6.24
592.3  185049.75  11450.62  6.19
593.7  186525.30  11454.82  6.14
595.0  188168.40  11475.32  6.10
596.4  189639.80  11491.46  6.06
597.8  191143.43  11511.73  6.02
599.2  192733.20  11529.01  5.98
600.6  194518.35  11554.17  5.94
602.0  195843.90  11534.76  5.89
603.3  197667.40  11523.95  5.83
604.7  199354.15  11485.44  5.76
606.1  200872.80  11422.72  5.69
607.5  202525.20  11345.03  5.60
608.9  204258.90  11262.75  5.51
610.2  205679.25  11152.62  5.42
611.6  207297.08  11048.80  5.33
613.0  208889.20  10946.49  5.24
614.4  210305.70  10831.57  5.15
615.8  211784.63  10731.69  5.07
617.1  213341.10  10647.56  4.99
618.5  214984.80  10584.68  4.92
619.9  216531.90  10535.06  4.87
621.3  218180.48  10507.42  4.82
622.6  219798.25  10500.71  4.78
624.0  221259.45  10506.00  4.75
625.4  222741.75  10524.64  4.73
626.8  224351.40  10564.80  4.71
628.1  225673.53  10599.10  4.70
629.5  227532.73  10665.71  4.69
630.9  229129.73  10711.08  4.67
632.2  230503.53  10733.05  4.66
633.6  232146.50  10756.78  4.63
635.0  233696.40  10731.49  4.59
636.3  235210.80  10680.86  4.54
637.7  236630.13  10582.53  4.47
639.1  238297.50  10466.00  4.39
640.4  239796.73  10317.15  4.30
641.8  241011.83  10153.80  4.21
643.2  242616.50  9999.93  4.12
644.5  243984.25  9850.13  4.04
645.9  245717.10  9721.92  3.96
647.2  247517.20  9622.52  3.89
648.6  249378.75  9561.47  3.83
650.0  250884.00  9499.89  3.79
651.3  251394.55  9426.07  3.75
652.7  252558.85  9387.28  3.72
654.0  254602.20  9386.82  3.69
655.4  256173.20  9358.57  3.65
656.8  256532.70  9284.95  3.62
658.1  257917.40  9237.82  3.58
659.5  260289.75  9223.07  3.54
660.8  261967.50  9185.57  3.51
662.2  262864.00  9124.69  3.47
663.5  264471.00  9080.66  3.43
664.9  265796.70  9053.42  3.41
666.2  266555.40  9020.39  3.38
667.6  268324.18  9040.56  3.37
668.9  269421.53  9072.21  3.37
670.3  270759.88  9120.48  3.37
671.6  272270.25  9201.47  3.38
673.0  273442.88  9302.19  3.40
674.3  274725.10  9413.34  3.43
675.7  276092.03  9539.34  3.46
677.0  277228.68  9685.13  3.49
678.4  278616.25  9858.81  3.54
679.7  279739.53  10048.43  3.59
681.1  281036.83  10260.46  3.65
682.4  282194.90  10504.45  3.72
683.8  283454.60  10788.59  3.81
685.1  284505.38  11111.81  3.91
686.4  285869.40  11518.21  4.03
687.8  287158.50  12018.81  4.19
689.1  288226.50  12684.20  4.40
690.5  289611.30  13587.52  4.69
691.8  290377.00  14791.97  5.09
693.1  291777.30  16444.76  5.64
694.5  292974.50  18545.80  6.33
695.8  294248.50  21135.40  7.18
697.1  295499.75  24228.97  8.20
698.5  296575.50  27804.26  9.38
699.8  297700.08  31807.19  10.68
701.1  298833.83  36181.53  12.11
702.5  299644.40  40742.91  13.60
703.8  300622.50  45495.86  15.13
705.1  301840.50  50349.04  16.68
706.5  302935.13  55200.19  18.22
707.8  303960.00  60025.29  19.75
709.1  304847.88  64769.29  21.25
710.5  306008.78  69500.49  22.71
711.8  306870.30  74091.64  24.14
713.1  307896.10  78647.22  25.54
714.4  308832.70  83093.62  26.91
715.8  309702.40  87442.76  28.23
717.1  311067.30  91842.32  29.52
718.4  312032.00  96030.72  30.78
719.7  313189.13  100162.73  31.98
721.0  313717.50  103998.00  33.15
722.4  314504.85  107777.40  34.27
723.7  315469.20  111495.38  35.34
725.0  316559.25  115117.06  36.37
726.3  317541.40  118554.35  37.34
727.6  318089.20  121701.60  38.26
729.0  319047.23  124831.21  39.13
730.3  319840.28  127741.38  39.94
731.6  320766.40  130546.60  40.70
732.9  321567.40  133165.36  41.41
734.2  322411.38  135648.02  42.07
735.5  323421.70  138091.75  42.70
736.8  324216.00  140268.34  43.26
738.1  325111.70  142339.75  43.78
739.5  326096.58  144329.82  44.26
740.8  326790.20  146068.66  44.70
742.1  327575.05  147737.81  45.10
743.4  328300.00  149288.10  45.47
744.7  329314.18  150860.59  45.81
746.0  330158.40  152269.00  46.12
747.3  330727.43  153434.42  46.39
748.6  331479.75  154572.59  46.63
749.9  332202.00  155637.49  46.85
751.2  332967.95  156619.07  47.04
752.5  333883.20  157628.71  47.21
753.8  334490.10  158438.16  47.37
755.1  335218.00  159230.93  47.50
756.4  335856.75  159907.54  47.61
757.7  336862.93  160734.25  47.72
759.0  338695.88  161911.65  47.80
760.3  339900.00  162749.21  47.88
761.6  341517.40  163745.55  47.95
762.9  342052.25  164205.26  48.01
764.2  342463.90  164560.88  48.05
765.5  342758.08  164863.31  48.10
766.8  343209.60  165201.40  48.13
768.1  343733.00  165568.02  48.17
769.3  344353.10  165944.77  48.19
770.6  345042.75  166349.35  48.21
771.9  345791.78  166772.92  48.23
773.2  346167.60  167036.36  48.25
774.5  346803.60  167387.36  48.27
775.8  347527.10  167783.36  48.28
777.1  348109.30  168098.89  48.29
778.4  348450.85  168304.83  48.30
779.6  349239.03  168732.12  48.31
780.9  349740.00  168997.14  48.32
782.2  350204.25  169265.75  48.33
783.5  350536.50  169449.29  48.34
784.8  351096.75  169744.76  48.35
786.0  351496.60  169969.23  48.36
787.3  351890.50  170185.03  48.36
788.6  352302.75  170424.39  48.37
789.9  352783.20  170678.40  48.38
791.2  353438.75  171030.54  48.39
792.4  354151.50  171389.60  48.39
793.7  354674.60  171642.28  48.39
795.0  355331.63  171974.03  48.40
796.2  356008.45  172321.90  48.40
797.5  356695.20  172699.66  48.42
798.8  357392.85  173052.71  48.42
800.0  358105.65  173404.28  48.42
801.3  358581.30  173645.81  48.43
802.6  359268.30  173958.26  48.42
803.8  359928.35  174299.06  48.43
805.1  360409.88  174560.65  48.43
806.4  360883.20  174823.85  48.44
807.7  361395.68  175103.76  48.45
808.9  362001.30  175378.87  48.45
810.2  362594.40  175652.47  48.44
811.4  363105.50  175913.74  48.45
812.7  363715.63  176237.44  48.45
814.0  364589.00  176683.99  48.46
815.2  365229.00  177027.16  48.47
816.5  365678.75  177230.49  48.47
817.7  366110.40  177485.52  48.48
819.0  366674.55  177755.19  48.48
820.2  366916.00  177849.68  48.47
821.5  367648.10  178222.39  48.48
822.7  367949.93  178429.21  48.49
824.0  368301.60  178604.33  48.49
825.2  368827.43  178881.71  48.50
826.5  369123.20  179037.18  48.50
827.7  369696.45  179315.29  48.50
829.0  370163.83  179537.24  48.50
830.2  370479.40  179718.25  48.51
831.5  370959.55  179981.19  48.52
832.7  371294.18  180145.49  48.52
834.0  371644.13  180336.01  48.52
835.2  371982.05  180522.92  48.53
836.4  372276.30  180715.25  48.54
837.7  372733.40  180958.83  48.55
838.9  373188.20  181209.34  48.56
840.1  373574.70  181402.55  48.56
841.4  374060.60  181647.56  48.56
842.6  374428.40  181836.60  48.56
843.8  374805.60  182062.94  48.58
845.1  375270.05  182353.72  48.59
846.3  375745.20  182579.22  48.59
847.5  376240.20  182784.68  48.58
848.8  376671.00  183023.35  48.59
850.0  377027.70  183217.24  48.60
851.2  377590.95  183532.45  48.61
852.5  377955.40  183766.95  48.62
853.7  378450.00  184012.46  48.62
854.9  378951.30  184249.03  48.62
856.1  379405.65  184495.07  48.63
857.4  379684.35  184595.10  48.62
858.6  380252.35  184850.26  48.61
859.8  380660.63  185087.21  48.62
861.0  381115.80  185338.70  48.63
862.2  381601.68  185584.27  48.63
863.5  382109.00  185757.24  48.61
864.7  382674.60  186042.69  48.62
865.9  383001.20  186241.66  48.63
867.1  383429.65  186398.98  48.61
868.3  383905.65  186621.72  48.61
869.5  384453.30  186897.29  48.61
870.8  385024.50  187178.74  48.61
872.0  385542.45  187450.53  48.62
873.2  386061.00  187635.92  48.60
874.4  386424.68  187865.73  48.62
875.6  386908.75  188068.42  48.61
876.8  387361.95  188316.98  48.62
878.0  387919.15  188555.51  48.61
879.2  388537.65  188810.38  48.60
880.4  389107.13  189080.11  48.59
881.6  389637.03  189294.96  48.58
882.8  390079.20  189500.46  48.58
884.0  390626.40  189802.08  48.59
885.2  391142.00  190028.36  48.58
886.5  391828.50  190359.01  48.58
887.7  392418.98  190573.49  48.56
888.8  393121.43  190905.57  48.56
890.0  393744.55  191153.14  48.55
891.2  394289.60  191446.06  48.55
892.4  395018.93  191735.11  48.54
893.6  395613.10  192004.44  48.53
894.8  396669.50  192444.61  48.52
896.0  397595.50  192858.82  48.51
897.2  398365.50  193259.61  48.51
898.4  399174.60  193606.16  48.50
899.6  399711.00  193882.19  48.51
900.8  400193.30  194096.46  48.50
902.0  400527.75  194192.68  48.48
903.2  400782.83  194354.84  48.49
904.3  401204.40  194489.03  48.48
905.5  401831.13  194780.18  48.47
906.7  402471.00  195083.80  48.47
907.9  403025.00  195344.85  48.47
909.1  403457.63  195505.82  48.46
910.2  403710.83  195561.41  48.44
911.4  404027.33  195694.76  48.44
912.6  404275.30  195739.49  48.42
913.8  404547.68  195850.29  48.41
915.0  404962.95  196081.06  48.42
916.2  405093.00  196146.23  48.42
917.3  405210.15  196148.29  48.41
918.5  405521.70  196193.28  48.38
919.7  405831.75  196305.17  48.37
920.8  406125.33  196299.29  48.33
922.0  406136.50  196334.60  48.34
923.2  406360.50  196445.60  48.34
924.4  406684.13  196516.22  48.32
925.5  407010.30  196604.39  48.30
926.7  407477.25  196827.34  48.30
927.9  408495.00  197201.35  48.28
929.0  409959.90  197904.14  48.27
930.2  412324.70  198923.96  48.24
931.4  414780.08  200070.99  48.24
932.5  417518.85  201281.55  48.21
933.7  419024.75  201960.37  48.20
934.9  419741.88  202192.67  48.17
936.0  419503.50  201930.02  48.14
937.2  417264.90  200868.91  48.14
938.3  415702.05  199991.00  48.11
939.5  414032.40  199169.35  48.10
940.7  414450.90  199197.72  48.06
941.8  415932.68  199830.79  48.04
943.0  417473.25  200408.33  48.01
944.2  418268.50  200674.95  47.98
945.3  417924.00  200433.44  47.96
946.5  417333.60  199984.86  47.92
947.6  417633.00  199940.78  47.87
948.8  417347.78  199801.40  47.87
949.9  417501.00  199663.52  47.82
951.1  417292.53  199333.31  47.77
952.2  417180.00  199100.11  47.73
953.4  416779.75  198711.30  47.68
954.5  416777.40  198553.68  47.64
955.7  416619.00  198410.40  47.62
956.8  416624.80  198143.73  47.56
958.0  416420.00  197793.17  47.50
959.1  416236.90  197515.82  47.45
960.3  415794.80  197191.52  47.43
961.4  415857.15  196968.39  47.36
962.6  415726.50  197051.67  47.40
963.7  415580.55  196816.07  47.36
964.9  415446.38  196731.88  47.35
966.0  415337.63  196599.27  47.33
967.2  415507.95  196603.07  47.32
968.3  415165.50  196400.55  47.31
969.5  414889.30  196256.32  47.30
970.6  414897.83  196234.01  47.30
971.8  415003.05  196348.66  47.31
972.9  414947.03  196255.71  47.30
974.0  415196.60  196396.65  47.30
975.2  415149.13  196286.57  47.28
976.3  414813.43  196280.49  47.32
977.5  414479.80  196240.41  47.35
978.6  414103.50  196178.56  47.37
979.7  414531.60  196247.22  47.34
980.9  414400.08  196242.56  47.36
982.0  414196.85  196203.56  47.37
983.2  413849.25  196029.76  47.37
984.3  413288.00  195716.21  47.36
985.4  412523.98  195822.84  47.47
986.6  412692.00  196017.00  47.50
987.7  413510.65  196673.79  47.56
988.9  413640.00  196327.99  47.46
990.0  414061.30  196645.33  47.49
993.1  371818.13  173863.62  46.76
996.9  371859.30  174391.99  46.90
1000.7  372611.69  175131.01  47.00
1004.5  372967.25  175629.17  47.09
1008.4  372541.25  175812.16  47.19
1012.2  372310.63  176077.20  47.29
1016.0  372124.80  176363.83  47.39
1019.8  371950.43  176634.15  47.49
1023.7  371600.68  176748.54  47.56
1027.5  371033.67  176715.16  47.63
1031.3  371053.25  176852.21  47.66
1035.1  370780.20  176807.23  47.69
1038.9  370697.07  176830.26  47.70
1042.7  370490.08  176795.87  47.72
1046.5  370334.83  176751.24  47.73
1050.3  370317.44  176784.26  47.74
1054.2  370010.67  176684.33  47.75
1058.0  369501.88  176441.00  47.75
1061.8  369377.37  176393.85  47.75
1065.6  369049.60  176184.11  47.74
1069.4  368989.47  176103.05  47.73
1073.2  368386.16  175801.89  47.72
1077.0  367776.23  175483.26  47.71
1080.8  367272.92  175173.81  47.70
1084.6  366316.65  174622.12  47.67
1088.4  365784.33  174285.50  47.65
1092.2  365069.25  173782.61  47.60
1096.0  364497.27  173366.51  47.56
1099.8  363987.87  172947.76  47.51
1103.6  363292.12  172446.58  47.47
1107.4  362357.28  171800.29  47.41
1111.2  362039.00  171490.70  47.37
1114.9  361351.67  170946.83  47.31
1118.7  360731.25  170381.83  47.23
1122.5  360067.07  169720.57  47.14
1126.3  359007.78  168811.99  47.02
1130.1  358504.40  168058.37  46.88
1133.9  356927.90  166599.90  46.68
1137.7  355482.40  165089.45  46.44
1141.4  353686.23  163259.49  46.16
1145.2  352946.63  161762.28  45.83
1149.0  351818.54  160164.79  45.52
1152.8  350181.20  158456.22  45.25
1156.6  348535.37  156962.48  45.03
1160.3  346847.33  155663.81  44.88
1164.1  344501.07  154265.94  44.78
1167.9  342747.92  153271.73  44.72
1171.7  341475.75  152590.50  44.69
1175.4  340252.00  151991.95  44.67
1179.2  339123.73  151429.24  44.65
1183.0  338788.33  151192.81  44.63
1186.7  338275.93  150870.43  44.60
1190.5  337343.40  150339.23  44.57
1194.3  336217.57  149756.15  44.54
1198.0  335002.53  149180.94  44.53
1201.8  333460.10  148507.32  44.54
1205.6  332230.67  148018.95  44.55
1209.3  331328.82  147741.27  44.59
1213.1  330478.73  147448.83  44.62
1216.8  329653.13  147187.57  44.65
1220.6  328656.53  146842.67  44.68
1224.3  327498.92  146433.32  44.71
1228.1  326249.80  146040.43  44.76
1231.9  325004.08  145603.76  44.80
1235.6  323526.45  145043.94  44.83
1239.4  322175.25  144551.29  44.87
1243.1  320879.41  144051.42  44.89
1246.9  319663.97  143555.64  44.91
1250.6  318675.33  143141.30  44.92
1254.3  317583.11  142668.13  44.92
1258.1  316553.88  142209.28  44.92
1261.8  315238.40  141619.73  44.92
1265.6  313802.03  140957.34  44.92
1269.3  312418.58  140264.73  44.90
1273.1  312435.97  140145.86  44.86
1276.8  312633.20  140091.14  44.81
1280.6  312325.10  139818.10  44.77
1284.3  310829.20  139006.40  44.72
1288.0  309322.54  138158.58  44.66
1291.8  308088.18  137365.05  44.59
1295.5  306856.00  136497.22  44.48
1299.2  305646.81  135607.18  44.37
1302.9  304222.03  134550.52  44.23
1306.7  302652.58  133381.27  44.07
1310.4  301155.88  132152.87  43.88
1314.1  299768.33  130924.20  43.68
1317.9  298524.38  129661.91  43.43
1321.6  297118.62  128248.05  43.16
1325.3  295456.35  126632.85  42.86
1329.0  294127.75  125115.92  42.54
1332.8  292061.00  123195.60  42.18
1336.5  290265.13  121352.55  41.81
1340.2  289895.67  120109.17  41.43
1343.9  289460.21  118809.67  41.05
1347.6  288745.05  117411.17  40.66
1351.4  288858.00  116393.93  40.29
1355.1  289066.07  115439.03  39.94
1358.8  289152.00  114388.57  39.56
1362.5  288642.88  112984.68  39.14
1366.2  287017.80  110966.65  38.66
1369.9  285210.25  108612.22  38.08
1373.6  283174.68  105818.73  37.37
1377.3  281286.90  102568.63  36.46
1381.0  280119.83  98856.86  35.29
1384.8  278200.00  94078.22  33.82
1388.4  275872.33  88639.00  32.13
1392.2  274043.92  82907.28  30.25
1395.9  272473.08  77039.04  28.27
1399.6  270864.86  71332.13  26.33
1403.3  269735.39  66178.25  24.53
1407.0  268674.10  61667.36  22.95
1410.7  267572.25  57907.93  21.64
1414.3  266392.70  54916.60  20.61
1418.1  265249.25  52662.32  19.85
1421.7  264367.60  51028.58  19.30
1425.4  263417.38  49857.60  18.93
1429.1  262497.38  49066.02  18.69
1432.8  261001.76  48468.01  18.57
1436.5  260175.31  48187.39  18.52
1440.2  259402.93  48069.87  18.53
1443.9  258215.10  47975.48  18.58
1447.6  256702.60  47894.00  18.66
1451.2  255670.43  47941.20  18.75
1454.9  254413.95  47990.87  18.86
1458.6  253328.72  48172.60  19.02
1462.3  252184.17  48452.43  19.21
1466.0  250847.62  48852.48  19.47
1469.7  249191.58  49371.87  19.81
1473.3  248146.83  50159.98  20.21
1477.0  246263.70  50881.71  20.66
1480.7  244696.93  51728.51  21.14
1484.4  242824.73  52505.60  21.62
1488.0  241310.67  53395.05  22.13
1491.7  239726.49  54233.06  22.62
1495.4  238043.31  55042.98  23.12
1499.0  236495.00  55829.14  23.61
1502.7  235251.17  56671.92  24.09
1506.4  233897.25  57431.28  24.55
1510.0  232510.13  58160.37  25.01
1513.7  231067.67  58826.54  25.46
1517.4  229763.33  59495.62  25.89
1521.0  228566.27  60146.23  26.31
1524.7  227389.50  60733.37  26.71
1528.3  226127.13  61272.23  27.10
1532.0  224920.85  61780.58  27.47
1535.7  223546.54  62191.55  27.82
1539.3  222314.15  62600.06  28.16
1543.0  221359.68  63065.52  28.49
1546.6  220657.67  63566.13  28.81
1550.3  219685.80  63939.55  29.10
1553.9  218611.27  64254.62  29.39
1557.6  217360.00  64479.49  29.66
1561.2  216113.40  64654.27  29.92
1564.9  214831.88  64789.69  30.16
1568.5  213539.55  64888.72  30.39
1572.2  212393.85  65015.37  30.61
1575.8  211316.00  65142.00  30.83
1579.5  210326.10  65257.24  31.03
1583.1  209320.42  65361.22  31.23
1586.8  208110.00  65372.00  31.41
1590.4  207019.73  65403.35  31.59
1594.0  205694.02  65350.60  31.77
1597.7  204591.89  65357.08  31.95
1601.3  203382.90  65304.23  32.11
1604.9  202201.33  65220.26  32.26
1608.6  200926.52  65078.43  32.39
1612.2  199870.28  64979.83  32.51
1615.8  198710.53  64840.01  32.63
1619.5  197602.75  64690.63  32.74
1623.1  196301.50  64464.15  32.84
1626.7  195063.05  64229.10  32.93
1630.3  193873.08  63982.87  33.00
1634.0  192668.00  63716.00  33.07
1637.6  191531.73  63428.61  33.12
1641.2  190363.45  63084.50  33.14
1644.8  189051.67  62622.86  33.12
1648.5  187940.56  62200.62  33.10
1652.1  186937.80  61764.04  33.04
1655.7  186020.00  61339.94  32.97
1659.3  185191.00  60959.71  32.92
1662.9  183812.50  60445.12  32.88
1666.6  182430.60  59966.20  32.87
1670.2  181085.39  59500.89  32.86
1673.8  179694.98  59022.85  32.85
1677.4  178617.65  58620.62  32.82
1681.0  177837.63  58264.47  32.76
1684.6  177421.83  57975.04  32.68
1688.2  176719.35  57503.58  32.54
1691.8  176077.89  57069.71  32.41
1695.4  175654.00  56688.43  32.27
1699.0  175326.20  56333.50  32.13
1702.6  175038.67  55965.52  31.97
1706.2  174470.51  55465.91  31.79
1709.8  173603.28  54872.14  31.61
1713.4  172918.84  54365.96  31.44
1717.0  172088.25  53858.57  31.30
1720.6  171316.13  53398.96  31.17
1724.2  170577.83  52975.22  31.06
1727.8  169854.30  52565.35  30.95
1731.4  169354.63  52226.62  30.84
1735.0  169133.25  51973.61  30.73
1738.6  168914.85  51671.42  30.59
1742.2  168342.96  51243.96  30.44
1745.8  167735.15  50759.78  30.26
1749.4  166813.35  50157.76  30.07
1753.0  165352.33  49387.12  29.87
1756.6  163703.75  48598.79  29.69
1760.1  162403.27  47920.75  29.51
1763.7  160693.33  47145.62  29.34
1767.3  159276.80  46485.36  29.19
1770.9  158063.38  45886.17  29.03
1774.5  156646.22  45251.96  28.89
1778.0  155501.90  44737.29  28.77
1781.6  154393.65  44276.96  28.68
1785.2  153270.03  43836.51  28.60
1788.8  152117.40  43447.01  28.56
1792.3  150901.40  43047.22  28.53
1795.9  150393.10  42872.08  28.51
1799.5  149867.33  42714.04  28.50
1803.1  149378.95  42553.35  28.49
1806.6  150066.58  42689.84  28.45
1810.2  151357.27  42978.57  28.40
1813.8  152315.55  43181.91  28.35
1817.3  152291.00  43126.94  28.32
1820.9  151405.68  42842.78  28.30
1824.5  150114.08  42437.71  28.27
1828.0  149092.63  42098.51  28.24
1831.6  148209.65  41763.45  28.18
1835.2  147432.50  41409.17  28.09
1838.7  147019.20  41071.20  27.94
1842.3  146655.00  40684.29  27.74
1845.8  145882.50  40081.64  27.48
1849.4  145372.15  39419.25  27.12
1852.9  144741.10  38574.59  26.65
1856.5  143889.60  37487.37  26.05
1860.0  143122.54  36193.12  25.29
1863.6  142818.78  34785.84  24.36
1867.1  142567.95  33136.25  23.24
1870.7  142469.85  31135.27  21.85
1874.2  141806.70  28621.22  20.18
1877.8  140642.13  25832.23  18.37
1881.3  139184.63  22887.46  16.44
1884.9  138060.82  20076.65  14.54
1888.4  136924.71  17362.07  12.68
1891.9  135718.27  14968.44  11.03
1895.5  134421.43  12968.39  9.65
1899.0  133603.63  11470.93  8.59
1901.3  167473.00  10121.72  6.04
1904.1  167280.75  9180.50  5.49
1906.8  166408.20  8441.20  5.07
1909.6  164556.70  7836.03  4.76
1912.4  162757.47  7398.07  4.55
1915.1  161416.20  7095.37  4.40
1917.9  159895.00  6867.89  4.30
1920.6  158629.47  6730.06  4.24
1923.3  157383.33  6626.67  4.21
1926.1  155884.60  6569.13  4.21
1928.8  154469.33  6541.33  4.23
1931.6  153282.10  6572.13  4.29
1934.3  152125.72  6630.16  4.36
1937.0  151032.73  6712.02  4.44
1939.8  149865.17  6811.00  4.54
1942.5  148456.00  6911.67  4.66
1945.2  146697.10  7011.95  4.78
1947.9  145292.70  7137.04  4.91
1950.7  144204.83  7282.68  5.05
1953.4  142524.20  7417.17  5.20
1956.1  141212.33  7574.14  5.36
1958.8  140066.77  7748.36  5.53
1961.5  138662.40  7927.33  5.72
1964.2  137237.10  8105.07  5.91
1966.9  135740.95  8283.77  6.10
1969.6  134559.00  8490.00  6.31
1972.3  133215.20  8698.27  6.53
1975.0  132201.30  8923.75  6.75
1977.7  131130.28  9145.82  6.97
1980.4  130009.67  9377.41  7.21
1983.1  128936.93  9617.39  7.46
1985.8  128046.60  9862.90  7.70
1988.4  127044.67  10105.33  7.95
1991.1  126141.63  10345.61  8.20
1993.8  125294.95  10601.37  8.46
1996.5  124683.17  10871.36  8.72
1999.1  124019.68  11138.48  8.98
2001.8  123361.70  11393.12  9.24
2004.5  122708.90  11642.90  9.49
2007.1  122016.90  11885.10  9.74
2009.8  121306.97  12121.20  9.99
2012.4  120745.35  12362.05  10.24
2015.1  120210.53  12587.40  10.47
2017.8  119450.80  12794.60  10.71
2020.4  118961.70  13022.65  10.95
2023.1  118639.27  13240.66  11.16
2025.7  118404.00  13459.33  11.37
2028.3  118083.33  13667.34  11.57
2031.0  117702.58  13847.02  11.76
2033.6  117441.30  14038.90  11.95
2036.2  117206.40  14207.10  12.12
2038.9  116640.90  14334.70  12.29
2041.5  116297.77  14463.86  12.44
2044.1  115753.50  14569.60  12.59
2046.8  115396.80  14688.50  12.73
2049.4  114787.80  14763.90  12.86
2052.0  114520.20  14878.69  12.99
2054.6  114152.50  14977.08  13.12
2057.2  113585.73  15059.18  13.26
2059.8  113253.87  15169.80  13.39
2062.4  112383.98  15201.87  13.53
2065.0  111891.47  15283.33  13.66
2067.6  111024.18  15315.18  13.79
2070.2  110440.17  15370.39  13.92
2072.8  109821.28  15419.78  14.04
2075.4  109383.75  15493.33  14.16
2078.0  108790.37  15537.72  14.28
2080.6  108257.60  15581.87  14.39
2083.2  107593.30  15610.51  14.51
2085.8  107112.75  15660.68  14.62
2088.4  106468.17  15682.11  14.73
2090.9  105685.38  15667.22  14.82
2093.5  104814.27  15636.81  14.92
2096.1  104073.72  15631.41  15.02
2098.7  103344.70  15619.69  15.11
2101.2  102407.07  15574.45  15.21
2103.8  101743.33  15559.89  15.29
2106.4  101097.07  15545.34  15.38
2108.9  100459.53  15527.86  15.46
2111.5  99647.33  15481.29  15.54
2114.0  99036.00  15458.00  15.61
2116.6  98516.25  15449.58  15.68
2119.1  97976.27  15426.41  15.75
2121.7  97510.00  15411.67  15.81
2124.2  97125.90  15408.88  15.86
2126.8  96344.38  15341.55  15.92
2129.3  95955.20  15329.60  15.98
2131.9  95392.00  15285.60  16.02
2134.4  94987.05  15266.25  16.07
2136.9  94616.38  15252.68  16.12
2139.4  94101.93  15227.02  16.18
2142.0  93658.60  15206.34  16.24
2144.5  93387.70  15216.03  16.29
2147.0  93165.73  15228.36  16.35
2149.5  92692.27  15207.51  16.41
2152.1  92537.32  15232.74  16.46
2154.6  92489.07  15271.29  16.51
2157.1  91977.83  15229.72  16.56
2159.6  91569.08  15214.58  16.62
2162.1  91409.50  15230.37  16.66
2164.6  91178.07  15240.49  16.72
2167.1  90869.08  15222.91  16.75
2169.6  90553.75  15204.43  16.79
2172.1  90108.10  15170.37  16.84
2174.6  89803.27  15160.27  16.88
2177.1  89370.65  15134.93  16.94
2179.5  88974.17  15120.95  16.99
2182.0  88488.40  15087.78  17.05
2184.5  87978.13  15047.74  17.10
2187.0  87390.40  14992.71  17.16
2189.5  86734.57  14926.77  17.21
2191.9  85984.50  14845.33  17.27
2194.4  85386.55  14783.40  17.31
2196.9  84652.80  14700.80  17.37
2199.3  84013.00  14641.78  17.43
2201.8  83151.87  14541.60  17.49
2204.3  82705.42  14492.67  17.52
2206.7  82089.90  14407.27  17.55
2209.2  81636.33  14357.19  17.59
2211.6  81031.50  14275.80  17.62
2214.1  80734.30  14251.72  17.65
2216.5  80181.87  14171.55  17.67
2219.0  79844.13  14131.82  17.70
2221.4  79482.08  14065.14  17.70
2223.9  79006.08  13969.28  17.68
2226.3  78500.33  13870.11  17.67
2228.7  77959.73  13751.01  17.64
2231.1  77388.30  13605.90  17.58
2233.6  76804.53  13456.36  17.52
2236.0  76269.08  13294.95  17.43
2238.4  75803.00  13129.67  17.32
2240.9  75354.27  12982.87  17.23
2243.3  74827.80  12814.00  17.12
2245.7  74266.80  12623.23  17.00
2248.1  73813.13  12431.75  16.84
2250.5  73317.60  12242.90  16.70
2252.9  72706.83  12026.44  16.54
2255.3  72167.35  11823.92  16.38
2257.7  71710.00  11643.33  16.24
2260.1  71226.63  11458.07  16.09
2262.5  70640.00  11253.33  15.93
2264.9  70112.95  11058.21  15.77
2267.3  69510.00  10873.33  15.64
2269.7  69029.33  10715.60  15.52
2272.1  68493.97  10544.21  15.39
2274.5  67936.58  10369.36  15.26
2276.8  67472.27  10220.34  15.15
2279.2  66912.90  10060.05  15.03
2281.6  66510.47  9932.44  14.93
2284.0  66054.00  9790.27  14.82
2286.3  65603.20  9646.93  14.70
2288.7  65214.07  9518.02  14.60
2291.1  64674.67  9349.86  14.46
2293.4  64228.27  9202.35  14.33
2295.8  63643.70  9046.83  14.21
2298.2  63062.55  8883.75  14.09
2300.5  62410.50  8711.25  13.96
2302.9  61669.33  8528.45  13.83
2305.2  60976.00  8360.17  13.71
2307.6  60321.55  8208.63  13.61
2309.9  59561.33  8056.55  13.53
2312.2  58972.33  7939.44  13.46
2314.6  58363.65  7817.70  13.39
2316.9  57680.55  7683.15  13.32
2319.2  57120.33  7560.76  13.24
2321.6  56495.72  7431.01  13.15
2323.9  55958.33  7315.97  13.07
2326.2  55421.87  7195.52  12.98
2328.6  54925.20  7074.65  12.88
2330.9  54421.50  6965.00  12.80
2333.2  53964.42  6858.00  12.71
2335.5  53532.10  6755.27  12.62
2337.8  53064.78  6646.13  12.52
2340.1  52504.05  6531.10  12.44
2342.4  52075.83  6424.17  12.34
2344.8  51657.67  6320.75  12.24
2347.1  51104.67  6210.79  12.15
2349.4  50566.50  6103.23  12.07
2351.6  50015.67  5993.07  11.98
2353.9  49539.67  5891.80  11.89
2356.2  49013.38  5799.20  11.83
2358.5  48428.80  5693.33  11.76
2360.8  47857.60  5596.27  11.69
2363.1  47435.28  5503.64  11.60
2365.4  46974.10  5412.70  11.52
2367.7  46512.00  5320.00  11.44
2369.9  45983.20  5217.38  11.35
2372.2  45373.60  5106.49  11.25
2374.5  44779.35  4997.30  11.16
2376.7  44178.18  4882.87  11.05
2379.0  43566.83  4781.30  10.97
2381.3  42956.67  4666.67  10.86
2383.5  42451.20  4564.27  10.75
2385.8  41865.80  4443.88  10.61
2388.0  41347.20  4334.53  10.48
2390.3  40845.07  4236.40  10.37
2392.5  40368.00  4144.00  10.27
2394.8  39917.90  4053.50  10.15
2397.0  39445.47  3963.56  10.05
2399.3  38986.67  3870.24  9.93
2401.5  38550.75  3773.00  9.79
2403.8  38033.87  3670.37  9.65
2406.0  37548.00  3584.28  9.55
2408.2  37138.20  3507.29  9.44
2410.4  36713.48  3424.60  9.33
2412.7  36305.10  3334.35  9.18
2414.9  35938.65  3251.05  9.05
2417.1  35547.30  3179.23  8.94
2419.3  35148.80  3101.87  8.82
2421.6  34784.58  3026.80  8.70
2423.8  34413.53  2943.43  8.55
2426.0  34042.30  2873.65  8.44
2428.2  33672.80  2800.62  8.32
2430.4  33361.23  2734.89  8.20
2432.6  33080.00  2657.78  8.03
2434.8  32801.80  2597.59  7.92
2437.0  32441.50  2529.94  7.80
2439.2  32088.57  2469.04  7.69
2441.4  31779.30  2404.01  7.56
2443.6  31529.63  2339.62  7.42
2445.7  31265.27  2290.75  7.33
2447.9  30978.50  2231.31  7.20
2450.1  30685.20  2163.70  7.05
2452.3  30322.60  2103.38  6.94
2454.5  29969.38  2051.86  6.85
2456.6  29589.07  1978.31  6.69
2458.8  29243.50  1935.27  6.62
2461.0  28963.08  1883.78  6.50
2463.1  28678.05  1823.60  6.36
2465.3  28374.03  1780.39  6.27
2467.5  28128.25  1745.42  6.21
2469.6  27864.33  1725.36  6.19
2471.8  27585.62  1671.85  6.06
2473.9  27255.58  1629.00  5.98
2476.1  26905.67  1587.44  5.90
2478.2  26551.70  1543.64  5.81
2480.4  26279.20  1514.53  5.76
2482.5  25934.58  1476.08  5.69
2484.6  25572.25  1444.05  5.65
2486.8  25339.80  1392.07  5.49
2488.9  25048.15  1373.15  5.48
2491.1  24672.67  1338.09  5.42
2493.2  24269.33  1303.94  5.37
2495.3  23857.60  1277.32  5.35
2497.4  23554.30  1255.80  5.33
2499.5  23239.27  1219.14  5.25
2501.7  23088.83  1199.63  5.20
2503.8  23002.13  1192.46  5.18
2505.9  22925.83  1184.45  5.17
2508.0  22894.28  1173.62  5.13
2510.1  22908.55  1162.42  5.07
2512.2  23010.90  1168.28  5.08
2514.3  23159.67  1164.31  5.03
2516.4  23344.50  1188.57  5.09
