/*** Spectra Vista SIG Data ***/
name= 52_20220722_QUPH_16_avg.sig
comm= Averaged Ref/Tar of files: HR.072222.0033_moc.sig,HR.072222.0034_moc.sig
data=
337.3  3275.25  290.66  8.87
338.8  3367.00  291.35  8.65
340.3  3513.75  274.41  7.81
341.8  3703.73  276.97  7.48
343.2  3862.80  260.06  6.73
344.7  4009.10  264.43  6.60
346.2  4207.55  253.27  6.02
347.7  4404.40  251.68  5.71
349.2  4573.80  234.36  5.12
350.6  4810.98  240.29  4.99
352.1  5108.68  233.75  4.58
353.6  5343.80  232.00  4.34
355.1  5623.73  231.88  4.12
356.6  5899.50  236.92  4.02
358.0  6156.70  235.15  3.82
359.5  6427.20  244.55  3.80
361.0  6733.13  247.10  3.67
362.5  7113.83  250.09  3.52
364.0  7455.50  250.70  3.36
365.4  7783.70  255.31  3.28
366.9  8094.13  260.47  3.22
368.4  8427.98  270.41  3.21
369.9  8810.15  284.15  3.23
371.3  9211.50  306.67  3.33
372.8  9637.65  308.74  3.20
374.3  10051.25  312.52  3.11
375.8  10456.60  318.78  3.05
377.2  10840.70  316.65  2.92
378.7  11244.20  323.57  2.88
380.2  11593.90  323.57  2.79
381.7  12134.23  330.48  2.72
383.1  12612.60  333.41  2.64
384.6  13136.83  341.43  2.60
386.1  13593.58  347.47  2.56
387.6  14067.90  350.35  2.49
389.0  14552.40  359.12  2.47
390.5  15053.85  354.26  2.35
392.0  15605.50  365.77  2.34
393.4  16185.40  377.61  2.33
394.9  16704.00  389.27  2.33
396.4  17258.63  394.78  2.29
397.9  17783.75  396.09  2.23
399.3  18309.98  412.44  2.25
400.8  18868.23  418.03  2.22
402.2  19492.70  428.58  2.20
403.7  20078.55  440.23  2.19
405.2  20691.95  449.15  2.17
406.6  21251.20  460.69  2.17
408.1  21831.60  472.02  2.16
409.6  22389.00  488.55  2.18
411.0  23015.30  503.25  2.19
412.5  23657.20  515.27  2.18
414.0  24287.00  532.08  2.19
415.4  25002.75  550.26  2.20
416.9  25655.03  562.83  2.19
418.4  26331.75  581.06  2.21
419.8  27008.80  599.04  2.22
421.3  27700.05  613.69  2.22
422.7  28466.40  637.34  2.24
424.2  29227.50  657.65  2.25
425.7  29959.40  677.62  2.26
427.1  30700.50  699.47  2.28
428.6  31465.00  721.42  2.29
430.0  32186.18  739.68  2.30
431.5  33014.10  760.32  2.30
432.9  33870.80  784.82  2.32
434.4  34709.48  803.84  2.32
435.9  35518.00  823.20  2.32
437.3  36341.25  848.18  2.33
438.8  37154.78  871.13  2.34
440.2  37986.03  896.28  2.36
441.7  38913.60  922.69  2.37
443.1  39789.75  950.60  2.39
444.6  40727.90  978.76  2.40
446.0  41623.80  1006.12  2.42
447.5  42549.10  1036.96  2.44
448.9  43447.20  1071.44  2.47
450.4  44418.50  1110.37  2.50
451.8  45240.00  1140.66  2.52
453.3  46128.60  1176.01  2.55
454.7  47113.80  1213.23  2.58
456.2  47940.63  1241.64  2.59
457.6  48891.83  1276.68  2.61
459.1  49835.50  1304.33  2.62
460.5  50731.38  1338.65  2.64
462.0  51746.65  1374.92  2.66
463.4  52745.00  1415.41  2.68
464.8  53696.25  1447.76  2.70
466.3  54655.43  1478.24  2.70
467.7  55610.33  1514.47  2.72
469.2  56637.80  1553.08  2.74
470.6  57576.90  1586.05  2.75
472.0  58566.08  1621.04  2.77
473.5  59522.75  1659.08  2.79
474.9  60519.75  1698.20  2.81
476.4  61632.00  1739.93  2.82
477.8  62669.00  1781.02  2.84
479.2  63655.00  1822.86  2.86
480.7  64717.73  1864.80  2.88
482.1  65805.30  1915.25  2.91
483.6  66961.30  1970.98  2.94
485.0  68018.03  2030.22  2.98
486.4  69141.60  2099.78  3.04
487.9  70185.38  2172.02  3.09
489.3  71313.18  2249.56  3.15
490.7  72358.65  2341.70  3.24
492.2  73558.80  2443.98  3.32
493.6  74627.10  2554.54  3.42
495.0  75699.00  2680.97  3.54
496.5  76823.63  2830.60  3.68
497.9  77894.90  2991.19  3.84
499.3  79010.20  3169.80  4.01
500.7  80208.75  3384.15  4.22
502.2  81307.40  3616.63  4.45
503.6  82504.60  3892.78  4.72
505.0  83534.30  4198.27  5.03
506.5  84793.73  4555.35  5.37
507.9  85955.35  4957.48  5.77
509.3  87290.40  5407.50  6.19
510.7  88495.88  5895.13  6.66
512.2  89846.33  6443.45  7.17
513.6  91251.65  7047.49  7.72
515.0  92604.75  7691.26  8.31
516.4  93923.55  8382.69  8.93
517.8  95470.88  9127.58  9.56
519.3  96723.40  9876.63  10.21
520.7  98209.50  10663.55  10.86
522.1  99446.10  11440.74  11.50
523.5  100761.10  12228.03  12.14
524.9  102127.95  13019.34  12.75
526.3  103463.50  13769.85  13.31
527.8  104900.40  14530.52  13.85
529.2  106028.40  15245.26  14.38
530.6  107493.55  15999.04  14.88
532.0  109130.00  16723.60  15.32
533.4  110391.90  17348.08  15.71
534.8  111261.93  17881.34  16.07
536.3  112913.70  18515.56  16.40
537.7  114836.40  19189.44  16.71
539.1  116212.43  19751.34  17.00
540.5  117367.00  20253.64  17.26
541.9  119045.25  20840.41  17.51
543.3  120241.10  21337.36  17.75
544.7  121489.80  21844.03  17.98
546.1  123179.38  22416.31  18.20
547.5  124376.00  22876.16  18.39
549.0  126060.00  23395.12  18.56
550.4  127478.75  23833.70  18.70
551.8  128931.25  24237.87  18.80
553.2  130403.28  24596.80  18.86
554.6  131695.20  24871.16  18.89
556.0  133142.40  25129.21  18.87
557.4  134658.65  25357.02  18.83
558.8  136216.35  25543.80  18.75
560.2  137593.25  25652.63  18.64
561.6  139184.18  25751.24  18.50
563.0  140700.20  25781.97  18.32
564.4  142203.45  25775.76  18.13
565.8  143650.00  25713.41  17.90
567.2  145307.75  25641.52  17.65
568.6  146736.38  25491.00  17.37
570.0  148096.65  25267.27  17.06
571.4  149771.70  25056.98  16.73
572.8  151433.50  24840.54  16.40
574.2  152980.80  24611.84  16.09
575.6  154451.25  24385.82  15.79
577.0  155894.80  24185.55  15.51
578.4  157543.75  24037.00  15.26
579.8  158986.13  23886.69  15.02
581.2  160626.28  23798.53  14.82
582.5  161963.10  23686.82  14.62
583.9  163418.20  23622.25  14.46
585.3  165125.48  23624.79  14.31
586.7  166522.20  23606.11  14.18
588.1  167943.38  23621.58  14.07
589.5  169515.50  23684.85  13.97
590.9  171070.40  23773.64  13.90
592.3  172800.95  23907.04  13.84
593.7  174154.50  24012.25  13.79
595.0  175715.33  24141.78  13.74
596.4  177078.30  24237.96  13.69
597.8  178486.83  24314.27  13.62
599.2  179968.80  24354.38  13.53
600.6  181633.08  24371.43  13.42
602.0  182861.93  24275.47  13.28
603.3  184578.10  24179.01  13.10
604.7  186171.45  24005.10  12.89
606.1  187583.40  23753.35  12.66
607.5  189143.28  23476.76  12.41
608.9  190742.80  23174.88  12.15
610.2  192071.25  22823.78  11.88
611.6  193573.73  22492.30  11.62
613.0  195060.55  22163.00  11.36
614.4  196366.80  21841.22  11.12
615.8  197759.25  21554.75  10.90
617.1  199214.40  21319.62  10.70
618.5  200776.80  21145.40  10.53
619.9  202203.90  21010.14  10.39
621.3  203738.63  20939.61  10.28
622.6  205249.75  20921.70  10.19
624.0  206643.75  20933.87  10.13
625.4  208038.60  20991.96  10.09
626.8  209541.15  21109.27  10.07
628.1  210795.20  21227.40  10.07
629.5  212544.55  21436.23  10.09
630.9  214065.78  21630.65  10.10
632.2  215378.80  21800.27  10.12
633.6  216922.38  21968.93  10.13
635.0  218405.60  22085.79  10.11
636.3  219848.40  22126.70  10.06
637.7  221149.00  22062.78  9.98
639.1  222705.00  21924.50  9.84
640.4  224101.33  21645.31  9.66
641.8  225254.53  21241.80  9.43
643.2  226772.53  20779.74  9.16
644.5  228070.25  20219.96  8.87
645.9  229702.50  19631.33  8.55
647.2  231494.20  19041.21  8.23
648.6  233320.50  18448.33  7.91
650.0  234727.20  17836.05  7.60
651.3  235097.50  17159.19  7.30
652.7  236078.10  16526.85  7.00
654.0  237999.70  15930.55  6.69
655.4  239456.35  15255.35  6.37
656.8  239712.00  14494.28  6.05
658.1  240915.10  13760.09  5.71
659.5  243223.05  13106.40  5.39
660.8  244935.00  12441.86  5.08
662.2  245795.20  11764.48  4.79
663.5  247349.05  11205.37  4.53
664.9  248625.00  10733.66  4.32
666.2  249350.40  10338.23  4.15
667.6  251022.30  10090.90  4.02
668.9  252167.38  9925.80  3.94
670.3  253195.50  9809.20  3.87
671.6  254703.00  9809.60  3.85
673.0  255787.13  9878.50  3.86
674.3  257000.90  10018.25  3.90
675.7  258255.43  10235.23  3.96
677.0  259344.38  10515.37  4.05
678.4  260665.88  10889.79  4.18
679.7  261701.05  11362.39  4.34
681.1  262957.40  11981.68  4.56
682.4  264050.80  12790.22  4.84
683.8  265288.40  13857.97  5.22
685.1  266230.13  15254.87  5.73
686.4  267465.60  17084.49  6.39
687.8  268713.25  19429.97  7.23
689.1  269736.75  22329.47  8.28
690.5  271038.45  25880.66  9.55
691.8  271812.65  30018.90  11.04
693.1  273068.40  34811.76  12.75
694.5  274205.75  40043.90  14.60
695.8  275366.00  45573.45  16.55
697.1  276526.25  51301.25  18.55
698.5  277575.60  57102.18  20.57
699.8  278630.40  62899.80  22.57
701.1  279741.48  68604.83  24.52
702.5  280499.45  74030.36  26.39
703.8  281430.00  79234.07  28.15
705.1  282555.00  84180.25  29.79
706.5  283580.75  88792.95  31.31
707.8  284537.85  93067.32  32.71
709.1  285402.80  96983.63  33.98
710.5  286519.05  100696.60  35.14
711.8  287357.80  104046.71  36.21
713.1  288316.70  107202.47  37.18
714.4  289208.70  110093.83  38.07
715.8  290011.50  112748.17  38.88
717.1  291287.55  115393.05  39.61
718.4  292208.00  117713.28  40.28
719.7  293298.75  119940.73  40.89
721.0  293805.00  121800.86  41.46
722.4  294570.65  123624.26  41.97
723.7  295491.90  125399.46  42.44
725.0  296538.53  127092.49  42.86
726.3  297455.40  128651.48  43.25
727.6  297980.38  129957.73  43.61
729.0  298896.15  131322.26  43.94
730.3  299624.33  132558.22  44.24
731.6  300533.30  133765.99  44.51
732.9  301294.88  134869.32  44.76
734.2  302075.13  135912.27  44.99
735.5  303096.10  137006.91  45.20
736.8  303857.70  137946.19  45.40
738.1  304677.20  138856.95  45.58
739.5  305620.35  139783.31  45.74
740.8  306304.63  140561.33  45.89
742.1  307061.35  141327.93  46.03
743.4  307800.00  142077.15  46.16
744.7  308721.03  142896.18  46.29
746.0  309599.55  143632.38  46.39
747.3  310103.23  144192.19  46.50
748.6  310828.25  144815.06  46.59
749.9  311558.00  145415.77  46.67
751.2  312257.15  146010.40  46.76
752.5  313172.40  146667.13  46.83
753.8  313812.63  147176.24  46.90
755.1  314522.00  147708.23  46.96
756.4  315102.73  148153.98  47.02
757.7  316081.15  148769.80  47.07
759.0  317820.78  149761.24  47.12
760.3  318938.40  150449.83  47.17
761.6  320503.40  151307.64  47.21
762.9  321053.50  151690.85  47.25
764.2  321455.00  151987.31  47.28
765.5  321759.65  152250.36  47.32
766.8  322184.00  152576.46  47.36
768.1  322717.20  152928.01  47.39
769.3  323339.10  153311.35  47.42
770.6  323996.40  153726.60  47.45
771.9  324745.05  154173.60  47.48
773.2  325123.20  154459.49  47.51
774.5  325754.00  154845.31  47.53
775.8  326466.60  155256.69  47.56
777.1  327033.85  155641.01  47.59
778.4  327411.98  155904.58  47.62
779.6  328193.73  156356.90  47.64
780.9  328650.00  156660.00  47.67
782.2  329120.00  156985.40  47.70
783.5  329461.00  157237.96  47.73
784.8  330043.28  157591.49  47.75
786.0  330439.20  157878.88  47.78
787.3  330865.20  158167.27  47.80
788.6  331298.25  158467.59  47.83
789.9  331788.80  158776.36  47.85
791.2  332427.88  159156.80  47.88
792.4  333113.45  159583.93  47.91
793.7  333632.60  159909.66  47.93
795.0  334258.65  160300.54  47.96
796.2  334925.85  160706.91  47.98
797.5  335651.85  161123.01  48.00
798.8  336328.30  161524.74  48.03
800.0  337057.40  161938.00  48.04
801.3  337571.10  162269.50  48.07
802.6  338180.18  162649.44  48.10
803.8  338775.78  163047.43  48.13
805.1  339302.25  163355.93  48.14
806.4  339775.80  163655.83  48.17
807.7  340349.85  164001.34  48.19
808.9  340968.30  164363.44  48.20
810.2  341474.70  164692.98  48.23
811.4  342012.90  165028.69  48.25
812.7  342590.63  165399.47  48.28
814.0  343396.75  165868.60  48.30
815.2  344061.75  166249.70  48.32
816.5  344541.25  166541.76  48.34
817.7  345028.20  166837.09  48.35
819.0  345557.85  167163.33  48.37
820.2  345752.00  167316.92  48.39
821.5  346350.05  167723.26  48.43
822.7  346761.23  167967.67  48.44
824.0  347049.90  168192.03  48.46
825.2  347589.23  168497.71  48.48
826.5  347944.00  168716.37  48.49
827.7  348469.40  169026.05  48.51
829.0  348871.00  169299.89  48.53
830.2  349166.45  169483.52  48.54
831.5  349645.80  169777.81  48.56
832.7  349956.60  169968.74  48.57
834.0  350333.43  170185.60  48.58
835.2  350656.90  170439.13  48.61
836.4  350882.95  170630.07  48.63
837.7  351324.40  170875.57  48.64
838.9  351764.03  171158.94  48.66
840.1  352173.15  171407.69  48.67
841.4  352552.40  171680.31  48.70
842.6  352926.80  171930.23  48.72
843.8  353240.80  172156.76  48.74
845.1  353785.35  172486.36  48.75
846.3  354169.30  172739.42  48.77
847.5  354559.80  172964.70  48.78
848.8  354917.40  173216.57  48.80
850.0  355350.80  173452.79  48.81
851.2  355827.60  173782.30  48.84
852.5  356286.30  174036.22  48.85
853.7  356721.75  174318.17  48.87
854.9  357204.40  174611.65  48.88
856.1  357646.90  174881.05  48.90
857.4  357844.70  175021.45  48.91
858.6  358284.35  175314.45  48.93
859.8  358668.75  175568.31  48.95
861.0  359213.40  175851.00  48.95
862.2  359639.50  176121.82  48.97
863.5  359986.90  176336.53  48.98
864.7  360604.20  176633.73  48.98
865.9  361054.60  176864.64  48.99
867.1  361407.10  177097.74  49.00
868.3  361824.90  177360.29  49.02
869.5  362287.85  177665.11  49.04
870.8  362763.00  177947.75  49.05
872.0  363272.85  178251.80  49.07
873.2  363788.25  178510.23  49.07
874.4  364232.70  178767.81  49.08
875.6  364571.75  178978.63  49.09
876.8  365102.55  179284.95  49.11
878.0  365628.70  179543.69  49.11
879.2  366139.50  179839.32  49.12
880.4  366695.63  180133.03  49.12
881.6  367140.08  180408.14  49.14
882.8  367480.80  180635.57  49.16
884.0  368203.48  180956.59  49.15
885.2  368690.80  181228.29  49.15
886.5  369349.45  181571.32  49.16
887.7  369822.70  181863.36  49.18
888.8  370485.23  182210.98  49.18
890.0  371001.85  182530.64  49.20
891.2  371707.90  182840.83  49.19
892.4  372307.95  183172.91  49.20
893.6  372970.85  183455.91  49.19
894.8  373893.75  183918.02  49.19
896.0  374768.00  184380.98  49.20
897.2  375495.25  184833.07  49.22
898.4  376259.40  185215.61  49.23
899.6  376858.50  185511.85  49.23
900.8  377316.08  185743.79  49.23
902.0  377640.45  185888.27  49.22
903.2  377992.58  186104.87  49.24
904.3  378303.60  186323.81  49.25
905.5  378917.25  186645.09  49.26
906.7  379544.00  186944.23  49.25
907.9  380225.30  187233.90  49.24
909.1  380569.73  187430.55  49.25
910.2  380854.80  187571.67  49.25
911.4  381121.65  187764.86  49.27
912.6  381423.90  187860.74  49.25
913.8  381627.83  188020.23  49.27
915.0  382097.10  188267.52  49.27
916.2  382404.75  188375.85  49.26
917.3  382598.55  188425.11  49.25
918.5  382754.20  188585.53  49.27
919.7  383205.15  188710.36  49.25
920.8  383245.03  188781.48  49.26
922.0  383363.75  188869.45  49.27
923.2  383701.50  188951.10  49.24
924.4  383852.25  189075.60  49.26
925.5  384281.70  189192.55  49.23
926.7  384982.00  189497.06  49.22
927.9  385792.80  189896.99  49.22
929.0  387298.80  190567.66  49.20
930.2  389509.50  191574.78  49.18
931.4  391796.33  192722.03  49.19
932.5  394506.00  193947.56  49.16
933.7  395922.63  194508.51  49.13
934.9  396917.50  194842.00  49.09
936.0  396526.00  194595.98  49.08
937.2  394432.80  193590.68  49.08
938.3  392802.50  192814.69  49.09
939.5  391359.60  192008.16  49.06
940.7  391760.10  192027.04  49.02
941.8  393478.28  192711.88  48.98
943.0  395067.00  193328.81  48.94
944.2  395802.55  193671.63  48.93
945.3  395508.75  193390.42  48.90
946.5  394627.95  192855.95  48.87
947.6  395130.40  192808.60  48.80
948.8  395034.90  192628.02  48.76
949.9  395392.20  192560.88  48.70
951.1  395034.25  192223.27  48.66
952.2  394944.00  191940.69  48.60
953.4  394604.00  191581.90  48.55
954.5  394664.40  191327.09  48.48
955.7  394770.60  191097.00  48.41
956.8  394834.80  190793.24  48.32
958.0  394491.50  190433.05  48.27
959.1  394341.58  190221.68  48.24
960.3  393717.20  189919.93  48.24
961.4  393809.45  189704.04  48.17
962.6  394149.00  189697.05  48.13
963.7  393991.95  189559.13  48.11
964.9  393858.23  189430.64  48.10
966.0  393734.93  189427.76  48.11
967.2  393847.65  189395.55  48.09
968.3  393728.85  189286.01  48.08
969.5  393921.18  189200.39  48.03
970.6  393820.90  189147.87  48.03
971.8  394043.30  189245.16  48.03
972.9  393715.73  189181.59  48.05
974.0  394013.10  189357.21  48.06
975.2  393658.25  189246.41  48.07
976.3  393660.45  189188.52  48.06
977.5  393680.18  189336.02  48.09
978.6  393698.40  189121.56  48.04
979.7  393720.08  189233.19  48.06
980.9  393206.60  189195.25  48.12
982.0  393079.05  189264.86  48.15
983.2  392901.33  189261.22  48.17
984.3  392079.80  189289.01  48.28
985.4  392852.43  189227.09  48.17
986.6  392425.88  189343.51  48.25
987.7  393943.90  189592.49  48.13
988.9  393647.40  189565.31  48.16
990.0  394413.40  190158.41  48.21
993.1  339869.31  162773.72  47.89
996.9  340316.43  163616.91  48.08
1000.7  341271.70  164609.28  48.23
1004.5  341757.08  165321.75  48.37
1008.4  341470.17  165695.13  48.52
1012.2  341415.25  166131.29  48.66
1016.0  341333.40  166577.66  48.80
1019.8  341389.13  167030.33  48.93
1023.7  341285.29  167363.40  49.04
1027.5  341035.20  167587.98  49.14
1031.3  341327.80  168011.07  49.22
1035.1  341295.50  168253.20  49.30
1038.9  341326.15  168469.05  49.36
1042.7  341185.42  168610.66  49.42
1046.5  341095.33  168709.57  49.46
1050.3  341109.22  168855.41  49.50
1054.2  340825.33  168884.50  49.55
1058.0  340356.28  168738.88  49.58
1061.8  340225.47  168793.10  49.61
1065.6  340037.40  168731.56  49.62
1069.4  340046.80  168801.99  49.64
1073.2  339736.21  168696.61  49.66
1077.0  339282.50  168478.86  49.66
1080.8  338695.83  168161.16  49.65
1084.6  337610.82  167566.53  49.63
1088.4  336938.87  167199.04  49.62
1092.2  336170.25  166737.54  49.60
1096.0  335663.38  166372.66  49.57
1099.8  335263.93  166036.42  49.52
1103.6  334659.08  165590.51  49.48
1107.4  333821.72  164991.57  49.43
1111.2  333618.80  164704.20  49.37
1114.9  333057.67  164188.63  49.30
1118.7  332498.93  163595.03  49.20
1122.5  331830.20  162869.57  49.08
1126.3  330829.92  161846.55  48.92
1130.1  330370.88  160900.57  48.70
1133.9  328904.10  159196.20  48.40
1137.7  327572.20  157339.07  48.03
1141.4  325920.40  155090.21  47.59
1145.2  325257.17  153142.22  47.08
1149.0  324250.21  151124.69  46.61
1152.8  322783.40  149078.13  46.19
1156.6  321274.80  147397.25  45.88
1160.3  319715.67  146041.72  45.68
1164.1  317505.13  144678.19  45.57
1167.9  315866.67  143765.41  45.51
1171.7  314685.00  143152.32  45.49
1175.4  313608.30  142658.79  45.49
1179.2  312653.48  142186.41  45.48
1183.0  312329.00  141974.65  45.46
1186.7  311787.00  141642.40  45.43
1190.5  310819.40  141115.66  45.40
1194.3  309683.17  140583.95  45.40
1198.0  308616.83  140138.98  45.41
1201.8  307241.00  139595.47  45.44
1205.6  306033.67  139192.50  45.48
1209.3  305195.03  138988.07  45.54
1213.1  304360.35  138805.16  45.61
1216.8  303518.51  138702.44  45.70
1220.6  302558.67  138551.60  45.79
1224.3  301470.92  138334.00  45.89
1228.1  300389.60  138166.80  46.00
1231.9  299244.23  137905.44  46.08
1235.6  297924.45  137544.87  46.17
1239.4  296677.63  137217.03  46.25
1243.1  295554.08  136873.41  46.31
1246.9  294413.93  136499.88  46.36
1250.6  293532.80  136187.01  46.40
1254.3  292549.40  135811.35  46.42
1258.1  291643.92  135435.68  46.44
1261.8  290453.20  134903.80  46.45
1265.6  289092.40  134258.30  46.44
1269.3  287708.08  133549.13  46.42
1273.1  287623.12  133395.76  46.38
1276.8  287918.40  133388.23  46.33
1280.6  287807.83  133183.75  46.28
1284.3  286540.80  132411.26  46.21
1288.0  285171.18  131529.66  46.12
1291.8  283904.33  130607.37  46.00
1295.5  282607.60  129608.29  45.86
1299.2  281482.05  128629.11  45.70
1302.9  280185.19  127484.41  45.50
1306.7  278787.95  126217.00  45.27
1310.4  277427.04  124840.52  45.00
1314.1  276197.72  123437.60  44.69
1317.9  275088.33  121945.85  44.33
1321.6  273814.60  120272.43  43.92
1325.3  272283.90  118356.98  43.47
1329.0  271049.92  116478.65  42.97
1332.8  269130.40  114183.30  42.43
1336.5  267456.73  111958.10  41.86
1340.2  267130.50  110285.50  41.29
1343.9  266754.17  108584.24  40.71
1347.6  266188.05  106820.20  40.13
1351.4  266398.50  105422.15  39.57
1355.1  266756.23  104107.30  39.03
1358.8  266912.00  102651.43  38.46
1362.5  266483.13  100852.28  37.85
1366.2  264860.00  98374.27  37.14
1369.9  263144.00  95583.38  36.32
1373.6  261343.37  92333.09  35.33
1377.3  259678.80  88524.39  34.09
1381.0  258618.17  84112.86  32.52
1384.8  256717.50  78574.56  30.61
1388.4  254534.58  72500.40  28.48
1392.2  252846.08  66236.92  26.20
1395.9  251368.15  59987.30  23.86
1399.6  249853.74  54100.33  21.65
1403.3  248761.05  48943.14  19.67
1407.0  247698.90  44580.15  18.00
1410.7  246599.10  41069.62  16.65
1414.3  245512.69  38371.70  15.63
1418.1  244452.58  36421.47  14.90
1421.7  243594.98  35051.33  14.39
1425.4  242735.03  34133.08  14.06
1429.1  241925.63  33579.00  13.88
1432.8  240570.31  33222.57  13.81
1436.5  239806.43  33132.04  13.82
1440.2  239010.60  33180.35  13.88
1443.9  237828.07  33259.50  13.98
1447.6  236374.60  33356.40  14.11
1451.2  235401.83  33533.19  14.25
1454.9  234249.30  33717.41  14.39
1458.6  233256.80  34004.76  14.58
1462.3  232219.90  34385.53  14.81
1466.0  230989.72  34882.31  15.10
1469.7  229481.85  35505.51  15.47
1473.3  228552.00  36346.97  15.90
1477.0  226830.77  37170.87  16.39
1480.7  225385.34  38096.68  16.90
1484.4  223631.08  38978.02  17.43
1488.0  222214.67  39936.29  17.97
1491.7  220742.73  40860.84  18.51
1495.4  219190.27  41768.90  19.06
1499.0  217732.00  42657.97  19.59
1502.7  216552.75  43596.00  20.13
1506.4  215274.49  44478.02  20.66
1510.0  214005.87  45322.73  21.18
1513.7  212674.29  46118.19  21.68
1517.4  211474.00  46903.79  22.18
1521.0  210376.27  47676.14  22.66
1524.7  209278.33  48382.29  23.12
1528.3  208089.50  49039.99  23.57
1532.0  207006.80  49664.45  23.99
1535.7  205713.61  50194.43  24.40
1539.3  204559.60  50730.32  24.80
1543.0  203667.16  51291.52  25.18
1546.6  203025.33  51892.06  25.56
1550.3  202137.35  52377.40  25.91
1553.9  201181.87  52817.46  26.25
1557.6  200026.93  53166.62  26.58
1561.2  198871.20  53469.36  26.89
1564.9  197675.27  53744.60  27.19
1568.5  196490.82  53987.33  27.48
1572.2  195449.55  54244.04  27.75
1575.8  194460.00  54504.00  28.03
1579.5  193553.75  54751.03  28.29
1583.1  192630.42  54993.55  28.55
1586.8  191506.00  55152.00  28.80
1590.4  190544.60  55340.45  29.04
1594.0  189331.03  55438.73  29.28
1597.7  188280.83  55575.98  29.52
1601.3  187081.65  55650.04  29.75
1604.9  185897.27  55697.31  29.96
1608.6  184719.83  55715.59  30.16
1612.2  183825.68  55791.45  30.35
1615.8  182820.95  55808.17  30.53
1619.5  181807.33  55795.89  30.69
1623.1  180602.97  55712.04  30.85
1626.7  179480.93  55613.52  30.99
1630.3  178369.92  55503.64  31.12
1634.0  177268.00  55356.00  31.23
1637.6  176213.13  55188.56  31.32
1641.2  175161.35  54960.59  31.38
1644.8  173941.64  54614.37  31.40
1648.5  172904.75  54281.10  31.39
1652.1  171977.70  53920.42  31.35
1655.7  171124.20  53532.99  31.28
1659.3  170353.07  53154.43  31.20
1662.9  169079.17  52627.14  31.13
1666.6  167801.27  52123.03  31.06
1670.2  166549.08  51655.34  31.02
1673.8  165283.56  51191.51  30.97
1677.4  164286.65  50802.79  30.92
1681.0  163579.65  50470.94  30.85
1684.6  163239.92  50196.02  30.75
1688.2  162597.65  49754.43  30.60
1691.8  161992.79  49364.52  30.47
1695.4  161610.20  49005.22  30.32
1699.0  161292.13  48647.50  30.16
1702.6  161020.67  48267.50  29.98
1706.2  160508.83  47785.24  29.77
1709.8  159724.83  47208.78  29.56
1713.4  159084.75  46664.24  29.33
1717.0  158311.75  46089.54  29.11
1720.6  157590.15  45528.11  28.89
1724.2  156936.38  45002.07  28.68
1727.8  156279.20  44511.45  28.48
1731.4  155817.75  44117.47  28.31
1735.0  155620.85  43824.00  28.16
1738.6  155380.65  43506.10  28.00
1742.2  154866.22  43065.54  27.81
1745.8  154279.54  42575.27  27.60
1749.4  153411.23  41983.25  27.37
1753.0  152040.27  41237.67  27.12
1756.6  150533.25  40462.19  26.88
1760.1  149329.74  39792.17  26.65
1763.7  147767.33  39060.58  26.43
1767.3  146484.28  38442.61  26.24
1770.9  145357.28  37894.94  26.07
1774.5  144049.64  37315.49  25.90
1778.0  143014.35  36831.12  25.75
1781.6  142016.10  36382.73  25.62
1785.2  140964.55  35956.98  25.51
1788.8  139901.50  35560.50  25.42
1792.3  138790.90  35175.94  25.34
1795.9  138356.08  34995.68  25.29
1799.5  137882.33  34827.00  25.26
1803.1  137229.40  34626.55  25.23
1806.6  137668.48  34678.94  25.19
1810.2  138775.00  34901.15  25.15
1813.8  139768.25  35089.66  25.11
1817.3  139869.20  35071.63  25.07
1820.9  139207.18  34861.29  25.04
1824.5  138124.30  34526.41  25.00
1828.0  137342.79  34246.93  24.94
1831.6  136626.93  33951.12  24.85
1835.2  135985.83  33617.50  24.72
1838.7  135625.07  33266.80  24.53
1842.3  135285.00  32846.79  24.28
1845.8  134551.38  32223.91  23.95
1849.4  134090.88  31529.21  23.51
1852.9  133469.76  30633.17  22.95
1856.5  132640.17  29493.50  22.24
1860.0  131927.25  28156.22  21.34
1863.6  131718.79  26699.18  20.27
1867.1  131574.80  25019.40  19.02
1870.7  131541.05  23010.57  17.49
1874.2  130810.50  20578.34  15.73
1877.8  129617.53  18012.92  13.90
1881.3  128251.75  15441.46  12.04
1884.9  127345.53  13109.51  10.29
1888.4  126356.49  10987.28  8.70
1891.9  125384.07  9220.17  7.35
1895.5  124327.35  7845.19  6.31
1899.0  123753.13  6897.49  5.57
1901.3  154929.25  5142.94  3.32
1904.1  154800.00  4595.63  2.97
1906.8  154077.75  4187.70  2.72
1909.6  152454.75  3876.60  2.54
1912.4  150897.16  3643.33  2.41
1915.1  149709.86  3495.12  2.33
1917.9  148354.88  3382.94  2.28
1920.6  147194.25  3312.87  2.25
1923.3  146043.45  3273.99  2.24
1926.1  144629.90  3263.17  2.26
1928.8  143297.00  3256.00  2.27
1931.6  142194.23  3284.92  2.31
1934.3  141115.85  3335.10  2.36
1937.0  140102.25  3385.58  2.42
1939.8  139017.38  3453.28  2.48
1942.5  137733.75  3518.63  2.55
1945.2  136160.89  3589.58  2.64
1947.9  134893.15  3675.97  2.73
1950.7  133901.00  3783.37  2.83
1953.4  132334.35  3878.50  2.93
1956.1  131122.38  3986.78  3.04
1958.8  130051.35  4098.17  3.15
1961.5  128774.70  4226.25  3.28
1964.2  127450.05  4368.00  3.43
1966.9  126057.45  4486.54  3.56
1969.6  124956.00  4627.13  3.70
1972.3  123707.78  4779.30  3.86
1975.0  122767.20  4951.58  4.03
1977.7  121769.19  5121.39  4.21
1980.4  120743.30  5286.31  4.38
1983.1  119747.39  5468.62  4.57
1985.8  118911.60  5660.44  4.76
1988.4  117988.00  5843.50  4.95
1991.1  117145.70  6037.94  5.15
1993.8  116357.31  6236.32  5.36
1996.5  115788.61  6443.12  5.56
1999.1  115174.68  6640.22  5.77
2001.8  114542.75  6840.84  5.97
2004.5  113933.48  7038.94  6.18
2007.1  113278.24  7230.32  6.38
2009.8  112619.68  7407.40  6.58
2012.4  112117.91  7590.21  6.77
2015.1  111641.95  7776.48  6.97
2017.8  110929.70  7931.88  7.15
2020.4  110476.44  8110.44  7.34
2023.1  110152.70  8278.29  7.52
2025.7  109921.50  8437.00  7.68
2028.3  109629.00  8583.25  7.83
2031.0  109292.78  8720.24  7.98
2033.6  109045.80  8854.43  8.12
2036.2  108804.38  8978.41  8.25
2038.9  108282.38  9069.75  8.38
2041.5  107979.89  9165.58  8.49
2044.1  107492.85  9239.40  8.60
2046.8  107160.08  9317.70  8.70
2049.4  106592.40  9373.17  8.79
2052.0  106299.95  9451.65  8.89
2054.6  105945.00  9518.91  8.98
2057.2  105455.00  9582.65  9.09
2059.8  105173.35  9674.35  9.20
2062.4  104377.73  9704.92  9.30
2065.0  103909.20  9766.05  9.40
2067.6  103115.99  9796.45  9.50
2070.2  102573.38  9842.21  9.60
2072.8  101998.08  9884.70  9.69
2075.4  101607.19  9938.91  9.78
2078.0  101032.49  9989.95  9.89
2080.6  100537.80  10038.60  9.98
2083.2  99926.85  10069.62  10.08
2085.8  99497.60  10108.52  10.16
2088.4  98898.00  10136.25  10.25
2090.9  98175.79  10153.50  10.34
2093.5  97382.33  10151.81  10.42
2096.1  96691.33  10154.64  10.50
2098.7  95986.46  10154.64  10.58
2101.2  95132.20  10139.40  10.66
2103.8  94529.60  10162.33  10.75
2106.4  93927.00  10162.33  10.82
2108.9  93337.50  10172.15  10.90
2111.5  92577.70  10159.05  10.97
2114.0  92014.40  10162.33  11.04
2116.6  91553.44  10181.72  11.12
2119.1  91063.75  10181.39  11.18
2121.7  90634.69  10185.00  11.24
2124.2  90261.60  10201.12  11.30
2126.8  89543.89  10167.81  11.36
2129.3  89179.20  10170.60  11.40
2131.9  88644.60  10160.70  11.46
2134.4  88265.48  10178.61  11.53
2136.9  87925.01  10176.97  11.57
2139.4  87454.15  10164.53  11.62
2142.0  87061.80  10164.53  11.68
2144.5  86808.38  10186.06  11.73
2147.0  86597.50  10217.50  11.80
2149.5  86155.30  10227.55  11.87
2152.1  86010.93  10264.58  11.93
2154.6  85918.00  10298.60  11.99
2157.1  85421.94  10293.69  12.05
2159.6  85067.69  10303.91  12.11
2162.1  84923.48  10333.06  12.17
2164.6  84700.25  10353.78  12.22
2167.1  84420.09  10365.69  12.28
2169.6  84118.21  10375.67  12.33
2172.1  83688.63  10373.65  12.40
2174.6  83413.90  10383.30  12.45
2177.1  83041.74  10377.61  12.50
2179.5  82669.11  10383.43  12.56
2182.0  82214.55  10375.00  12.62
2184.5  81726.49  10366.24  12.68
2187.0  81171.48  10350.73  12.75
2189.5  80556.18  10313.13  12.80
2191.9  79871.25  10274.25  12.86
2194.4  79324.69  10256.70  12.93
2196.9  78660.00  10213.20  12.98
2199.3  78060.75  10175.38  13.04
2201.8  77255.90  10106.85  13.08
2204.3  76827.69  10086.63  13.13
2206.7  76253.78  10050.70  13.18
2209.2  75852.11  10032.82  13.23
2211.6  75296.93  9982.92  13.26
2214.1  75020.51  9958.71  13.27
2216.5  74500.00  9904.78  13.30
2219.0  74202.00  9878.70  13.31
2221.4  73869.25  9824.94  13.30
2223.9  73430.44  9750.57  13.28
2226.3  72961.88  9665.04  13.25
2228.7  72464.60  9558.42  13.19
2231.1  71918.55  9433.47  13.12
2233.6  71378.45  9308.78  13.04
2236.0  70894.25  9170.44  12.94
2238.4  70455.44  9025.41  12.81
2240.9  70044.90  8887.85  12.69
2243.3  69560.65  8727.68  12.55
2245.7  69043.05  8559.49  12.40
2248.1  68620.50  8394.43  12.23
2250.5  68166.20  8232.51  12.08
2252.9  67588.95  8054.32  11.92
2255.3  67065.49  7876.67  11.74
2257.7  66652.50  7706.25  11.56
2260.1  66227.53  7543.82  11.39
2262.5  65677.50  7395.00  11.26
2264.9  65216.13  7247.90  11.11
2267.3  64672.50  7091.25  10.96
2269.7  64218.35  6964.39  10.84
2272.1  63728.54  6832.62  10.72
2274.5  63216.96  6716.29  10.62
2276.8  62781.96  6603.49  10.52
2279.2  62259.75  6482.26  10.41
2281.6  61887.35  6391.08  10.33
2284.0  61455.98  6287.26  10.23
2286.3  61043.20  6190.20  10.14
2288.7  60679.94  6087.09  10.03
2291.1  60187.35  5971.15  9.92
2293.4  59790.50  5863.55  9.81
2295.8  59212.13  5743.54  9.70
2298.2  58661.21  5620.05  9.58
2300.5  58071.26  5495.85  9.46
2302.9  57404.25  5366.88  9.35
2305.2  56755.58  5253.01  9.26
2307.6  56158.78  5145.44  9.16
2309.9  55435.75  5041.38  9.09
2312.2  54893.25  4960.00  9.04
2314.6  54337.50  4882.62  8.99
2316.9  53700.98  4797.23  8.93
2319.2  53157.68  4723.32  8.89
2321.6  52588.99  4629.67  8.80
2323.9  52093.75  4546.88  8.73
2326.2  51605.88  4471.99  8.67
2328.6  51139.69  4377.25  8.56
2330.9  50675.63  4295.82  8.48
2333.2  50252.31  4210.85  8.38
2335.5  49835.25  4128.87  8.29
2337.8  49422.71  4051.84  8.20
2340.1  48888.94  3958.83  8.10
2342.4  48490.00  3879.69  8.00
2344.8  48126.13  3807.19  7.91
2347.1  47606.30  3725.93  7.83
2349.4  47104.51  3664.42  7.78
2351.6  46592.24  3581.80  7.69
2353.9  46133.13  3525.15  7.64
2356.2  45656.15  3455.90  7.57
2358.5  45116.40  3389.40  7.51
2360.8  44578.80  3318.00  7.44
2363.1  44174.04  3251.43  7.36
2365.4  43764.90  3186.61  7.28
2367.7  43331.40  3120.75  7.20
2369.9  42834.45  3052.86  7.13
2372.2  42277.60  2979.90  7.05
2374.5  41744.59  2906.27  6.96
2376.7  41175.28  2835.92  6.89
2379.0  40606.15  2757.11  6.79
2381.3  40048.75  2673.13  6.67
2383.5  39573.60  2609.20  6.59
2385.8  39015.33  2537.19  6.50
2388.0  38532.90  2478.00  6.43
2390.3  38065.30  2420.80  6.36
2392.5  37620.00  2349.00  6.24
2394.8  37198.43  2286.90  6.15
2397.0  36773.10  2229.50  6.06
2399.3  36339.84  2165.59  5.96
2401.5  35923.13  2108.54  5.87
2403.8  35444.29  2050.73  5.79
2406.0  34987.06  1992.88  5.70
2408.2  34613.70  1935.45  5.59
2410.4  34229.30  1872.50  5.47
2412.7  33845.18  1823.74  5.39
2414.9  33490.88  1774.17  5.30
2417.1  33127.95  1728.79  5.22
2419.3  32755.20  1675.20  5.11
2421.6  32414.38  1627.50  5.02
2423.8  32082.78  1575.45  4.91
2426.0  31734.51  1523.92  4.80
2428.2  31389.40  1484.70  4.73
2430.4  31085.10  1439.13  4.63
2432.6  30820.00  1405.00  4.56
2434.8  30566.23  1378.44  4.51
2437.0  30245.15  1334.94  4.41
2439.2  29936.04  1287.47  4.30
2441.4  29621.83  1242.34  4.19
2443.6  29377.69  1212.42  4.13
2445.7  29123.76  1176.62  4.04
2447.9  28880.56  1137.69  3.94
2450.1  28609.31  1095.90  3.83
2452.3  28258.04  1064.05  3.77
2454.5  27934.08  1047.80  3.75
2456.6  27595.30  1005.80  3.64
2458.8  27262.95  970.62  3.56
2461.0  26977.19  951.50  3.53
2463.1  26691.98  922.11  3.45
2465.3  26438.78  899.95  3.40
2467.5  26229.19  885.01  3.37
2469.6  25999.75  850.26  3.27
2471.8  25712.29  833.43  3.24
2473.9  25407.88  808.85  3.18
2476.1  25081.88  790.57  3.15
2478.2  24746.55  765.48  3.09
2480.4  24487.09  748.32  3.06
2482.5  24177.23  725.78  3.00
2484.6  23865.88  695.41  2.91
2486.8  23608.88  688.84  2.92
2488.9  23308.04  680.66  2.92
2491.1  22978.90  666.40  2.90
2493.2  22620.78  658.63  2.91
2495.3  22246.25  631.32  2.84
2497.4  21952.35  609.79  2.78
2499.5  21653.30  594.74  2.75
2501.7  21507.13  585.44  2.72
2503.8  21426.59  570.46  2.66
2505.9  21384.06  570.16  2.67
2508.0  21361.58  578.06  2.71
2510.1  21352.70  570.04  2.67
2512.2  21414.45  557.38  2.60
2514.3  21569.81  562.38  2.61
2516.4  21807.90  583.62  2.68
