/*** Spectra Vista SIG Data ***/
name= 12_20221020_TITO_09_avg.sig
comm= Averaged Ref/Tar of files: HR.102022.0034_moc.sig,HR.102022.0035_moc.sig,HR.102022.0036_moc.sig
data=
337.3  3076.75  277.90  9.03
338.8  3174.60  275.77  8.69
340.3  3279.50  268.61  8.19
341.8  3475.10  262.16  7.54
343.2  3640.80  260.48  7.15
344.7  3795.85  261.59  6.89
346.2  3962.45  250.55  6.32
347.7  4168.45  262.17  6.29
349.2  4384.80  241.92  5.52
350.6  4590.63  244.83  5.33
352.1  4822.88  252.46  5.23
353.6  5100.90  259.09  5.08
355.1  5388.00  264.91  4.92
356.6  5670.08  270.94  4.78
358.0  5901.50  276.47  4.68
359.5  6210.90  271.92  4.38
361.0  6493.73  279.30  4.30
362.5  6850.35  284.94  4.16
364.0  7197.43  302.04  4.20
365.4  7530.80  314.72  4.18
366.9  7900.75  320.45  4.06
368.4  8209.78  330.94  4.03
369.9  8539.90  349.52  4.09
371.3  8944.50  366.68  4.10
372.8  9372.15  378.78  4.04
374.3  9782.50  376.25  3.85
375.8  10160.15  384.49  3.78
377.2  10571.70  394.53  3.73
378.7  10975.20  405.29  3.69
380.2  11378.70  416.05  3.66
381.7  11863.98  421.59  3.55
383.1  12289.20  427.61  3.48
384.6  12786.15  438.79  3.43
386.1  13215.23  446.81  3.38
387.6  13663.65  463.54  3.39
389.0  14123.60  471.68  3.34
390.5  14575.95  481.44  3.30
392.0  15102.95  493.73  3.27
393.4  15633.63  507.98  3.25
394.9  16155.90  525.48  3.25
396.4  16689.38  545.10  3.27
397.9  17220.00  553.50  3.21
399.3  17727.50  574.03  3.24
400.8  18245.10  584.91  3.21
402.2  18854.40  605.57  3.21
403.7  19452.60  622.74  3.20
405.2  20052.73  634.49  3.16
406.6  20624.80  658.88  3.19
408.1  21176.20  681.01  3.22
409.6  21730.50  696.55  3.21
411.0  22353.45  714.51  3.20
412.5  23011.63  741.37  3.22
414.0  23635.00  763.38  3.23
415.4  24327.00  789.70  3.25
416.9  24961.13  809.55  3.24
418.4  25622.10  831.66  3.25
419.8  26317.20  861.47  3.27
421.3  27004.88  888.87  3.29
422.7  27770.40  918.72  3.31
424.2  28485.00  951.75  3.34
425.7  29242.20  982.35  3.36
427.1  29972.55  1008.58  3.37
428.6  30752.00  1039.53  3.38
430.0  31472.95  1064.27  3.38
431.5  32327.55  1098.48  3.40
432.9  33152.95  1130.98  3.41
434.4  34021.88  1163.19  3.42
435.9  34832.00  1192.80  3.42
437.3  35653.75  1221.00  3.42
438.8  36476.03  1254.33  3.44
440.2  37325.75  1288.21  3.45
441.7  38257.00  1327.49  3.47
443.1  39127.25  1363.87  3.49
444.6  40072.90  1402.57  3.50
446.0  41001.00  1442.82  3.52
447.5  41941.63  1485.51  3.54
448.9  42840.90  1525.64  3.56
450.4  43822.80  1569.54  3.58
451.8  44668.00  1610.27  3.60
453.3  45566.38  1649.19  3.62
454.7  46547.28  1695.18  3.64
456.2  47398.40  1728.07  3.65
457.6  48347.55  1770.00  3.66
459.1  49302.50  1810.42  3.67
460.5  50223.13  1849.32  3.68
462.0  51259.75  1891.70  3.69
463.4  52279.20  1928.96  3.69
464.8  53238.38  1964.70  3.69
466.3  54192.60  2000.90  3.69
467.7  55145.85  2041.81  3.70
469.2  56187.40  2086.85  3.71
470.6  57169.45  2131.85  3.73
472.0  58200.13  2169.43  3.73
473.5  59197.88  2211.03  3.73
474.9  60206.25  2251.50  3.74
476.4  61344.00  2302.08  3.75
477.8  62379.00  2349.00  3.77
479.2  63350.50  2397.33  3.78
480.7  64428.23  2439.52  3.79
482.1  65545.20  2489.25  3.80
483.6  66715.65  2541.27  3.81
485.0  67771.95  2591.99  3.82
486.4  68937.90  2648.10  3.84
487.9  69980.63  2700.75  3.86
489.3  71107.03  2762.41  3.88
490.7  72152.50  2829.16  3.92
492.2  73353.00  2904.72  3.96
493.6  74436.65  2974.93  4.00
495.0  75523.50  3055.65  4.05
496.5  76691.55  3142.41  4.10
497.9  77777.50  3238.28  4.16
499.3  78922.15  3341.99  4.23
500.7  80164.80  3465.21  4.32
502.2  81292.80  3599.39  4.43
503.6  82519.20  3749.28  4.54
505.0  83592.90  3916.43  4.69
506.5  84882.38  4107.45  4.84
507.9  86029.48  4322.97  5.02
509.3  87334.80  4576.16  5.24
510.7  88539.75  4847.70  5.48
512.2  89904.23  5164.68  5.74
513.6  91352.10  5521.88  6.04
515.0  92775.45  5917.60  6.38
516.4  94136.18  6344.73  6.74
517.8  95739.25  6834.62  7.14
519.3  97061.20  7341.52  7.56
520.7  98602.90  7896.10  8.01
522.1  99865.35  8444.63  8.46
523.5  101164.20  9016.47  8.91
524.9  102602.25  9601.32  9.36
526.3  103980.10  10171.28  9.78
527.8  105435.00  10747.44  10.19
529.2  106505.20  11294.20  10.60
530.6  108071.55  11860.56  10.97
532.0  109718.00  12409.60  11.31
533.4  111002.78  12889.01  11.61
534.8  111883.50  13293.77  11.88
536.3  113403.90  13747.96  12.12
537.7  115277.40  14217.84  12.33
539.1  116668.45  14612.52  12.52
540.5  117849.00  14964.49  12.70
541.9  119551.58  15376.58  12.86
543.3  120843.00  15725.02  13.01
544.7  122139.60  16080.08  13.17
546.1  123900.98  16487.06  13.31
547.5  125115.20  16813.44  13.44
549.0  126753.00  17180.53  13.55
550.4  128201.25  17508.58  13.66
551.8  129699.58  17816.72  13.74
553.2  131178.43  18081.25  13.78
554.6  132485.60  18277.65  13.80
556.0  133960.05  18451.98  13.77
557.4  135525.95  18587.75  13.72
558.8  137137.50  18692.10  13.63
560.2  138568.50  18723.42  13.51
561.6  140195.40  18731.64  13.36
563.0  141747.70  18676.23  13.18
564.4  143311.20  18586.29  12.97
565.8  144786.88  18445.00  12.74
567.2  146511.75  18293.63  12.49
568.6  147965.25  18082.95  12.22
570.0  149358.78  17832.18  11.94
571.4  151031.40  17593.07  11.65
572.8  152746.25  17359.45  11.36
574.2  154336.00  17118.08  11.09
575.6  155846.25  16893.00  10.84
577.0  157341.20  16687.84  10.61
578.4  159022.50  16524.08  10.39
579.8  160512.30  16364.88  10.20
581.2  162188.90  16246.67  10.02
582.5  163589.40  16116.36  9.85
583.9  165070.20  16013.39  9.70
585.3  166806.90  15950.88  9.56
586.7  168265.83  15879.41  9.44
588.1  169713.63  15817.47  9.32
589.5  171328.50  15791.07  9.22
590.9  172905.60  15776.11  9.12
592.3  174670.90  15797.94  9.04
593.7  176093.78  15801.50  8.97
595.0  177664.73  15831.18  8.91
596.4  179085.55  15850.80  8.85
597.8  180526.53  15876.54  8.79
599.2  182028.00  15896.32  8.73
600.6  183751.75  15924.26  8.67
602.0  185009.93  15898.78  8.59
603.3  186746.10  15893.25  8.51
604.7  188373.13  15852.06  8.42
606.1  189832.80  15772.48  8.31
607.5  191413.05  15685.12  8.19
608.9  193089.15  15582.39  8.07
610.2  194424.30  15441.30  7.94
611.6  196008.98  15312.47  7.81
613.0  197531.50  15176.35  7.68
614.4  198883.95  15029.18  7.56
615.8  200304.00  14892.15  7.43
617.1  201801.60  14774.48  7.32
618.5  203396.40  14681.60  7.22
619.9  204905.33  14614.56  7.13
621.3  206482.28  14570.49  7.06
622.6  208025.25  14552.57  7.00
624.0  209471.10  14551.84  6.95
625.4  210907.13  14579.84  6.91
626.8  212439.50  14642.51  6.89
628.1  213699.48  14702.01  6.88
629.5  215436.43  14797.59  6.87
630.9  216900.75  14867.12  6.85
632.2  218128.75  14897.26  6.83
633.6  219628.13  14907.88  6.79
635.0  221037.20  14863.09  6.72
636.3  222512.60  14758.05  6.63
637.7  223842.13  14581.10  6.51
639.1  225435.00  14368.67  6.37
640.4  226876.30  14097.58  6.21
641.8  228070.88  13787.04  6.05
643.2  229602.45  13482.70  5.87
644.5  230917.25  13166.77  5.70
645.9  232451.55  12863.34  5.53
647.2  233401.70  12574.24  5.39
648.6  234819.00  12363.30  5.27
650.0  236109.60  12196.80  5.17
651.3  237174.58  12069.86  5.09
652.7  239397.30  12007.51  5.02
654.0  241503.40  11962.96  4.95
655.4  242872.60  11876.40  4.89
656.8  243048.90  11743.47  4.83
658.1  244388.20  11637.53  4.76
659.5  246519.00  11540.34  4.68
660.8  247747.50  11388.00  4.60
662.2  248729.60  11202.99  4.50
663.5  250206.40  11054.33  4.42
664.9  251210.70  10899.72  4.34
666.2  251970.00  10765.52  4.27
667.6  253656.65  10704.09  4.22
668.9  254555.03  10655.83  4.19
670.3  256417.50  10653.48  4.15
671.6  257402.25  10664.25  4.14
673.0  258597.00  10708.50  4.14
674.3  259851.80  10790.69  4.15
675.7  261169.33  10896.22  4.17
677.0  262229.65  11024.25  4.20
678.4  263529.13  11185.76  4.24
679.7  264586.33  11379.58  4.30
681.1  265871.30  11629.11  4.37
682.4  266968.00  11928.11  4.47
683.8  268139.30  12317.07  4.59
685.1  269128.50  12805.95  4.76
686.4  270440.40  13473.92  4.98
687.8  271672.50  14349.77  5.28
689.1  272762.75  15506.77  5.69
690.5  274122.75  17063.48  6.22
691.8  274914.20  19070.79  6.94
693.1  276262.05  21653.40  7.84
694.5  277413.50  24779.30  8.93
695.8  278664.75  28434.47  10.20
697.1  279847.75  32547.67  11.63
698.5  280889.80  37079.69  13.20
699.8  281963.63  41939.68  14.87
701.1  283120.05  47076.32  16.63
702.5  283904.50  52303.97  18.42
703.8  284827.50  57627.00  20.23
705.1  285986.03  62996.31  22.03
706.5  287004.13  68300.43  23.80
707.8  287979.75  73516.60  25.53
709.1  288818.53  78595.91  27.21
710.5  289934.78  83650.29  28.85
711.8  290747.40  88525.05  30.45
713.1  291706.30  93338.88  32.00
714.4  292598.30  98009.99  33.50
715.8  293423.40  102556.21  34.95
717.1  294707.10  107142.92  36.36
718.4  295680.00  111477.33  37.70
719.7  296737.43  115734.26  39.00
721.0  297270.00  119637.00  40.25
722.4  297998.25  123468.77  41.43
723.7  298957.35  127235.62  42.56
725.0  299970.00  130862.67  43.63
726.3  300901.98  134305.34  44.63
727.6  301426.95  137400.41  45.58
729.0  302289.05  140481.34  46.47
730.3  303078.08  143341.37  47.30
731.6  303936.35  146079.59  48.06
732.9  304716.30  148612.43  48.77
734.2  305511.25  151011.85  49.43
735.5  306530.75  153364.18  50.03
736.8  307317.90  155475.16  50.59
738.1  308142.70  157469.13  51.10
739.5  309101.55  159390.61  51.57
740.8  309780.08  161068.34  51.99
742.1  310455.53  162642.92  52.39
743.4  311075.00  164100.00  52.75
744.7  311918.25  165597.79  53.09
746.0  312768.30  166995.66  53.39
747.3  313370.43  168155.30  53.66
748.6  314098.50  169304.53  53.90
749.9  314756.00  170338.13  54.12
751.2  315342.85  171285.99  54.32
752.5  316075.05  172276.20  54.50
753.8  316550.50  173075.42  54.68
755.1  317226.00  173888.00  54.82
756.4  317778.15  174614.34  54.95
757.7  318740.80  175516.04  55.07
759.0  320521.95  176801.96  55.16
760.3  321604.80  177721.28  55.26
761.6  323136.80  178826.48  55.34
762.9  323621.50  179339.13  55.42
764.2  323983.60  179756.56  55.48
765.5  324218.93  180076.58  55.54
766.8  324604.80  180455.68  55.59
768.1  325046.20  180883.84  55.65
769.3  325606.40  181336.07  55.69
770.6  326232.40  181820.34  55.73
771.9  326914.53  182311.03  55.77
773.2  327253.20  182612.00  55.80
774.5  327813.20  183032.37  55.83
775.8  328399.55  183478.31  55.87
777.1  328928.60  183866.54  55.90
778.4  329177.48  184110.26  55.93
779.6  329888.05  184600.18  55.96
780.9  330330.00  184924.00  55.98
782.2  330753.50  185251.00  56.01
783.5  330986.00  185468.47  56.04
784.8  331430.40  185808.99  56.06
786.0  331747.50  186081.79  56.09
787.3  332092.73  186344.59  56.11
788.6  332475.78  186630.29  56.13
789.9  332883.60  186936.03  56.16
791.2  333470.28  187319.28  56.17
792.4  334069.73  187728.87  56.19
793.7  334467.60  188037.55  56.22
795.0  335070.45  188432.31  56.24
796.2  335644.58  188821.61  56.26
797.5  336207.45  189246.62  56.29
798.8  336856.68  189637.31  56.30
800.0  337449.83  190038.35  56.32
801.3  337823.80  190309.57  56.33
802.6  338363.55  190675.77  56.35
803.8  338961.65  191084.46  56.37
805.1  339339.88  191380.82  56.40
806.4  339737.70  191668.40  56.42
807.7  340272.90  192000.51  56.43
808.9  340734.60  192329.91  56.45
810.2  341197.85  192645.41  56.46
811.4  341611.90  192950.51  56.48
812.7  342225.00  193337.08  56.49
814.0  342985.25  193827.47  56.51
815.2  343602.50  194221.00  56.52
816.5  343949.40  194493.18  56.55
817.7  344385.45  194790.39  56.56
819.0  344862.65  195090.50  56.57
820.2  345004.00  195236.80  56.59
821.5  345635.65  195662.25  56.61
822.7  345991.55  195913.98  56.62
824.0  346269.60  196115.40  56.64
825.2  346657.73  196416.09  56.66
826.5  346998.50  196632.48  56.67
827.7  347556.93  196985.74  56.68
829.0  347945.23  197245.30  56.69
830.2  348177.45  197457.15  56.71
831.5  348692.95  197758.17  56.71
832.7  348989.03  197955.66  56.72
834.0  349298.93  198189.51  56.74
835.2  349658.93  198432.45  56.75
836.4  349976.00  198654.06  56.76
837.7  350348.80  198942.91  56.78
838.9  350827.75  199261.35  56.80
840.1  351164.70  199508.76  56.81
841.4  351585.10  199787.28  56.82
842.6  351886.40  200034.24  56.85
843.8  352303.20  200294.80  56.85
845.1  352835.75  200642.57  56.87
846.3  353207.70  200926.32  56.89
847.5  353646.30  201213.60  56.90
848.8  354052.20  201476.24  56.91
850.0  354411.05  201724.65  56.92
851.2  354939.30  202075.56  56.93
852.5  355321.80  202313.52  56.94
853.7  355873.50  202666.50  56.95
854.9  356279.00  202953.44  56.96
856.1  356776.55  203251.27  56.97
857.4  356962.98  203429.78  56.99
858.6  357529.20  203744.05  56.99
859.8  357905.63  204018.00  57.00
861.0  358300.80  204282.00  57.01
862.2  358786.60  204572.80  57.02
863.5  359125.00  204816.17  57.03
864.7  359660.40  205128.88  57.03
865.9  360100.40  205382.99  57.03
867.1  360443.15  205603.12  57.04
868.3  360851.85  205867.44  57.05
869.5  361304.40  206171.47  57.06
870.8  361845.00  206499.00  57.07
872.0  362344.95  206777.36  57.07
873.2  362694.15  207055.82  57.09
874.4  363206.03  207325.17  57.08
875.6  363614.45  207553.28  57.08
876.8  364134.75  207818.92  57.07
878.0  364567.25  208109.52  57.08
879.2  365065.05  208388.20  57.08
880.4  365608.50  208661.10  57.07
881.6  365956.03  208934.08  57.09
882.8  366282.40  209172.16  57.11
884.0  366991.43  209534.59  57.10
885.2  367463.00  209801.79  57.09
886.5  368016.70  210112.48  57.09
887.7  368472.33  210370.42  57.09
888.8  369024.83  210687.04  57.09
890.0  369522.65  210983.23  57.10
891.2  370208.70  211299.75  57.08
892.4  370692.53  211627.01  57.09
893.6  371236.55  211944.31  57.09
894.8  372134.25  212404.23  57.08
896.0  372882.25  212858.17  57.08
897.2  373581.00  213281.03  57.09
898.4  374315.70  213670.60  57.08
899.6  374781.00  213927.10  57.08
900.8  375102.15  214139.26  57.09
902.0  375394.50  214242.24  57.07
903.2  375605.03  214387.52  57.08
904.3  375881.40  214518.84  57.07
905.5  376346.43  214831.55  57.08
906.7  377047.00  215105.20  57.05
907.9  377346.55  215361.21  57.07
909.1  377650.35  215473.23  57.06
910.2  377775.75  215549.29  57.06
911.4  378003.60  215625.15  57.04
912.6  378020.50  215678.32  57.05
913.8  378177.53  215775.19  57.06
915.0  378473.55  215930.26  57.05
916.2  378602.25  215965.10  57.04
917.3  378615.83  215923.65  57.03
918.5  378721.10  216018.04  57.04
919.7  378864.00  216040.18  57.02
920.8  378855.20  216014.86  57.02
922.0  378917.00  215977.30  57.00
923.2  379060.50  215961.20  56.97
924.4  379147.50  216012.60  56.97
925.5  379371.20  216062.00  56.95
926.7  379856.50  216315.08  56.95
927.9  380587.20  216687.92  56.94
929.0  382001.40  217389.60  56.91
930.2  383955.80  218465.55  56.90
931.4  386433.45  219683.79  56.85
932.5  389026.75  221006.85  56.81
933.7  390346.25  221652.94  56.78
934.9  390604.38  221876.67  56.80
936.0  390125.13  221524.98  56.78
937.2  387980.25  220224.98  56.76
938.3  386116.50  219055.65  56.73
939.5  384760.80  217997.28  56.66
940.7  384884.10  217923.36  56.62
941.8  386285.85  218602.94  56.59
943.0  387538.50  219186.90  56.56
944.2  388131.25  219520.95  56.56
945.3  387543.00  218990.20  56.51
946.5  386746.65  218374.56  56.46
947.6  386930.30  218160.80  56.38
948.8  386885.85  217799.53  56.30
949.9  386706.60  217587.44  56.27
951.1  386010.63  217075.00  56.24
952.2  385764.00  216648.00  56.16
953.4  385485.00  216147.93  56.07
954.5  385398.00  215794.80  55.99
955.7  385345.80  215399.52  55.90
956.8  385029.30  214936.56  55.82
958.0  384524.00  214441.53  55.77
959.1  384183.95  214047.49  55.71
960.3  383598.30  213600.78  55.68
961.4  383254.70  213346.68  55.67
962.6  383360.25  213217.67  55.62
963.7  383197.65  212974.81  55.58
964.9  383064.15  212802.26  55.55
966.0  382676.40  212666.58  55.57
967.2  382753.35  212482.26  55.51
968.3  382060.80  212268.06  55.56
969.5  381619.88  212066.96  55.57
970.6  381983.18  212039.64  55.51
971.8  382365.73  212112.67  55.47
972.9  382163.40  211979.96  55.47
974.0  382606.60  212139.17  55.45
975.2  382060.00  211997.82  55.49
976.3  381829.13  211959.98  55.51
977.5  381956.75  211878.85  55.47
978.6  381695.40  211786.27  55.49
979.7  381403.05  211852.83  55.55
980.9  381482.55  211874.63  55.54
982.0  380600.35  211881.93  55.67
983.2  381150.05  211659.20  55.53
984.3  380116.20  211574.45  55.66
985.4  380123.78  211295.59  55.59
986.6  380757.50  211177.12  55.46
987.7  380899.40  211407.86  55.50
988.9  379859.40  211416.00  55.66
990.0  380587.10  211712.19  55.63
993.1  386297.39  213499.24  55.27
996.9  384753.75  213320.73  55.44
1000.7  384466.66  213823.80  55.62
1004.5  384541.50  214350.76  55.74
1008.4  384127.96  214680.29  55.89
1012.2  383890.46  215081.17  56.03
1016.0  383381.40  215311.07  56.16
1019.8  382541.78  215339.48  56.29
1023.7  381199.93  214985.91  56.40
1027.5  379358.60  214335.14  56.50
1031.3  378192.85  213974.42  56.58
1035.1  377074.31  213580.82  56.64
1038.9  376571.25  213505.23  56.70
1042.7  376292.67  213561.00  56.75
1046.5  376189.17  213665.30  56.80
1050.3  376177.99  213808.55  56.84
1054.2  375823.00  213750.96  56.88
1058.0  375519.43  213626.40  56.89
1061.8  375465.68  213700.62  56.92
1065.6  374876.07  213416.87  56.93
1069.4  373951.07  212915.64  56.94
1073.2  372567.98  212129.58  56.94
1077.0  371859.63  211696.27  56.93
1080.8  372136.46  211753.70  56.90
1084.6  372359.98  211785.26  56.88
1088.4  372749.08  211898.70  56.85
1092.2  372323.25  211529.50  56.81
1096.0  371662.40  210992.63  56.77
1099.8  370998.55  210415.11  56.72
1103.6  370072.15  209720.31  56.67
1107.4  368880.49  208847.53  56.62
1111.2  368576.20  208439.42  56.55
1114.9  368041.33  207867.08  56.48
1118.7  367809.75  207381.90  56.38
1122.5  367509.13  206741.99  56.25
1126.3  366632.06  205630.54  56.09
1130.1  366289.94  204511.95  55.83
1133.9  364620.20  202313.54  55.49
1137.7  363063.90  199837.49  55.04
1141.4  361006.32  196840.13  54.53
1145.2  360063.19  194352.43  53.98
1149.0  358809.79  191843.43  53.47
1152.8  357030.65  189384.16  53.04
1156.6  355216.40  187339.86  52.74
1160.3  353441.67  185695.78  52.54
1164.1  351165.23  184060.24  52.41
1167.9  349576.04  182988.42  52.35
1171.7  348279.75  182180.25  52.31
1175.4  346789.90  181316.72  52.28
1179.2  345378.20  180471.41  52.25
1183.0  345060.00  180161.19  52.21
1186.7  345133.83  180065.04  52.17
1190.5  344905.07  179825.48  52.14
1194.3  344002.83  179270.99  52.11
1198.0  342489.13  178496.57  52.12
1201.8  340803.25  177697.22  52.14
1205.6  339757.00  177336.59  52.20
1209.3  339254.82  177346.70  52.28
1213.1  338888.63  177460.45  52.37
1216.8  338343.68  177519.53  52.47
1220.6  337239.47  177312.18  52.58
1224.3  336014.25  177010.04  52.68
1228.1  334494.80  176608.98  52.80
1231.9  332880.43  176095.40  52.90
1235.6  331150.58  175469.92  52.99
1239.4  329606.63  174917.72  53.07
1243.1  328199.29  174393.87  53.14
1246.9  326904.25  173888.08  53.19
1250.6  325866.60  173467.14  53.23
1254.3  324712.85  172965.53  53.27
1258.1  323494.85  172388.87  53.29
1261.8  322050.40  171658.52  53.30
1265.6  320915.93  171050.54  53.30
1269.3  320237.93  170619.04  53.28
1273.1  320623.88  170711.52  53.24
1276.8  320308.40  170363.20  53.19
1280.6  319035.43  169482.29  53.12
1284.3  316962.80  168107.29  53.04
1288.0  315770.48  167108.70  52.92
1291.8  315413.17  166455.43  52.77
1295.5  314777.47  165592.53  52.61
1299.2  313648.70  164379.04  52.41
1302.9  312026.19  162801.86  52.18
1306.7  310240.23  161038.87  51.91
1310.4  308490.24  159154.39  51.59
1314.1  306904.95  157232.12  51.23
1317.9  305505.00  155239.91  50.81
1321.6  303970.06  153050.98  50.35
1325.3  302261.93  150653.07  49.84
1329.0  300974.68  148370.60  49.30
1332.8  299068.00  145680.58  48.71
1336.5  297425.20  143092.77  48.11
1340.2  297327.33  141255.59  47.51
1343.9  297292.50  139463.80  46.91
1347.6  297427.95  137803.70  46.33
1351.4  298902.00  136775.45  45.76
1355.1  300969.90  136017.28  45.19
1358.8  302752.00  135000.89  44.59
1362.5  303038.63  133113.06  43.93
1366.2  301149.05  129892.65  43.13
1369.9  297957.88  125687.67  42.18
1373.6  295078.35  120933.75  40.98
1377.3  293529.90  115836.80  39.46
1381.0  293037.00  110087.81  37.57
1384.8  291135.00  102721.66  35.28
1388.4  287907.78  94337.19  32.77
1392.2  285656.08  86006.52  30.11
1395.9  284219.40  78080.92  27.47
1399.6  282422.57  70720.78  25.04
1403.3  280986.84  64402.56  22.92
1407.0  279287.30  59094.80  21.16
1410.7  277494.53  54848.57  19.77
1414.3  275567.02  51544.59  18.70
1418.1  273858.46  49113.43  17.93
1421.7  272452.66  47337.56  17.37
1425.4  271070.15  46072.79  17.00
1429.1  269815.88  45195.67  16.75
1432.8  268151.23  44554.05  16.62
1436.5  267355.14  44268.70  16.56
1440.2  266765.97  44202.41  16.57
1443.9  265713.07  44161.58  16.62
1447.6  264187.00  44139.82  16.71
1451.2  262974.43  44209.49  16.81
1454.9  261534.45  44332.27  16.95
1458.6  260285.98  44624.38  17.14
1462.3  259069.43  45093.32  17.41
1466.0  257690.54  45748.70  17.75
1469.7  255989.07  46543.46  18.18
1473.3  254955.33  47615.00  18.68
1477.0  252908.70  48631.56  19.23
1480.7  251242.23  49790.80  19.82
1484.4  249237.36  50920.99  20.43
1488.0  247661.33  52177.48  21.07
1491.7  246088.46  53441.17  21.72
1495.4  244434.42  54690.81  22.37
1499.0  242889.50  55944.22  23.03
1502.7  241623.33  57250.19  23.69
1506.4  240214.92  58492.66  24.35
1510.0  238788.37  59695.10  25.00
1513.7  237284.54  60834.86  25.64
1517.4  235926.67  61970.96  26.27
1521.0  234658.13  63093.54  26.89
1524.7  233445.33  64154.28  27.48
1528.3  232158.50  65160.19  28.07
1532.0  230934.55  66125.60  28.63
1535.7  229542.58  66970.69  29.18
1539.3  228274.81  67818.42  29.71
1543.0  227285.21  68696.87  30.22
1546.6  226586.75  69615.48  30.72
1550.3  225572.75  70387.38  31.20
1553.9  224505.27  71080.39  31.66
1557.6  223267.73  71669.97  32.10
1561.2  221986.35  72183.50  32.52
1564.9  220666.24  72654.62  32.93
1568.5  219342.78  73069.53  33.31
1572.2  218182.45  73493.99  33.68
1575.8  217070.00  73910.66  34.05
1579.5  216032.30  74306.79  34.40
1583.1  214967.20  74659.93  34.73
1586.8  213640.00  74884.44  35.05
1590.4  212408.53  75112.64  35.36
1594.0  211086.85  75266.29  35.66
1597.7  210306.51  75598.22  35.95
1601.3  209407.28  75861.45  36.23
1604.9  208458.03  76063.69  36.49
1608.6  207107.15  76081.76  36.74
1612.2  205718.70  76049.78  36.97
1615.8  204258.60  75958.78  37.19
1619.5  202988.50  75904.59  37.39
1623.1  201636.77  75789.34  37.59
1626.7  200429.45  75694.81  37.77
1630.3  199231.00  75586.06  37.94
1634.0  198128.00  75478.67  38.10
1637.6  197130.27  75378.58  38.24
1641.2  196081.80  75214.33  38.36
1644.8  194850.19  74937.20  38.46
1648.5  193774.51  74682.70  38.54
1652.1  192817.50  74422.93  38.60
1655.7  191884.60  74114.53  38.62
1659.3  191038.39  73808.96  38.64
1662.9  189606.67  73241.67  38.63
1666.6  188169.80  72634.01  38.60
1670.2  186736.84  71988.04  38.55
1673.8  185263.66  71273.55  38.47
1677.4  184083.10  70621.54  38.36
1681.0  183256.50  70043.46  38.22
1684.6  182858.00  69549.76  38.03
1688.2  182167.10  68872.77  37.81
1691.8  181494.15  68184.83  37.57
1695.4  181064.20  67573.07  37.32
1699.0  180677.93  66978.90  37.07
1702.6  180299.00  66344.22  36.80
1706.2  179671.92  65570.72  36.49
1709.8  178730.07  64685.83  36.19
1713.4  177958.72  63952.04  35.94
1717.0  177044.25  63257.83  35.73
1720.6  176206.65  62632.87  35.55
1724.2  175488.15  62068.10  35.37
1727.8  174760.60  61534.43  35.21
1731.4  174285.38  61108.36  35.06
1735.0  174124.32  60768.60  34.90
1738.6  173920.65  60340.83  34.69
1742.2  173398.68  59713.98  34.44
1745.8  172802.44  58995.40  34.14
1749.4  171860.70  58126.38  33.82
1753.0  170369.60  57059.11  33.49
1756.6  168712.25  55972.91  33.18
1760.1  167365.93  55047.69  32.89
1763.7  165615.33  54024.44  32.62
1767.3  164163.15  53139.48  32.37
1770.9  162882.94  52338.62  32.13
1774.5  161375.62  51521.49  31.93
1778.0  160211.32  50871.83  31.75
1781.6  159105.30  50324.93  31.63
1785.2  157957.83  49832.92  31.55
1788.8  156768.20  49387.07  31.50
1792.3  155517.10  48946.39  31.47
1795.9  154932.16  48750.56  31.47
1799.5  154771.00  48695.48  31.46
1803.1  155911.47  49053.36  31.46
1806.6  158222.05  49752.34  31.44
1810.2  160068.07  50297.44  31.42
1813.8  160838.50  50508.38  31.40
1817.3  160250.60  50288.71  31.38
1820.9  158895.30  49811.27  31.35
1824.5  157423.00  49252.07  31.29
1828.0  156216.96  48733.16  31.20
1831.6  155676.20  48348.72  31.06
1835.2  155394.17  47955.74  30.86
1838.7  155186.93  47469.10  30.59
1842.3  154980.00  46856.67  30.23
1845.8  153788.29  45779.85  29.77
1849.4  153156.08  44653.97  29.16
1852.9  152313.29  43234.04  28.38
1856.5  151271.03  41459.23  27.41
1860.0  150226.32  39365.19  26.20
1863.6  150141.12  37188.58  24.77
1867.1  150731.35  34787.82  23.08
1870.7  151601.15  32011.48  21.12
1874.2  150662.70  28507.30  18.92
1877.8  148047.27  24704.29  16.69
1881.3  145070.13  20975.89  14.46
1884.9  143147.68  17755.65  12.40
1888.4  141525.70  14952.67  10.57
1891.9  139818.13  12684.70  9.07
1895.5  138322.97  10983.77  7.94
1899.0  137509.00  9833.92  7.15
1901.3  177545.17  8635.06  4.86
1904.1  177439.50  7890.50  4.45
1906.8  176278.20  7294.40  4.14
1909.6  174024.55  6800.62  3.91
1912.4  171893.63  6447.31  3.75
1915.1  170309.15  6199.97  3.64
1917.9  168690.17  6007.83  3.56
1920.6  167322.70  5854.27  3.50
1923.3  165882.03  5737.59  3.46
1926.1  164057.10  5655.89  3.45
1928.8  162360.00  5612.45  3.46
1931.6  161005.62  5586.54  3.47
1934.3  159811.85  5587.16  3.50
1937.0  158654.10  5619.18  3.54
1939.8  157371.17  5652.67  3.59
1942.5  155760.00  5683.33  3.65
1945.2  153729.95  5726.60  3.73
1947.9  152075.23  5782.55  3.80
1950.7  150768.03  5863.25  3.89
1953.4  148894.05  5933.73  3.99
1956.1  147427.33  6032.95  4.09
1958.8  146122.60  6155.21  4.21
1961.5  144587.20  6277.47  4.34
1964.2  143024.70  6409.43  4.48
1966.9  141397.20  6540.13  4.63
1969.6  140112.00  6699.00  4.78
1972.3  138679.80  6855.97  4.94
1975.0  137617.50  7041.65  5.12
1977.7  136482.00  7223.79  5.29
1980.4  135304.73  7416.60  5.48
1983.1  134193.08  7618.37  5.68
1985.8  133249.20  7835.80  5.88
1988.4  132201.33  8045.56  6.09
1991.1  131261.20  8270.73  6.30
1993.8  130378.78  8507.52  6.53
1996.5  129723.92  8751.66  6.75
1999.1  129025.97  9001.55  6.98
2001.8  128334.50  9246.30  7.20
2004.5  127639.40  9509.23  7.45
2007.1  126904.15  9757.20  7.69
2009.8  126133.00  9994.52  7.92
2012.4  125544.83  10245.22  8.16
2015.1  124984.77  10503.89  8.40
2017.8  124190.50  10731.23  8.64
2020.4  123675.02  10980.51  8.88
2023.1  123309.90  11240.60  9.12
2025.7  123084.00  11506.45  9.35
2028.3  122737.33  11757.78  9.58
2031.0  122304.75  11997.47  9.81
2033.6  122026.20  12226.40  10.02
2036.2  121773.90  12464.20  10.24
2038.9  121164.90  12655.60  10.44
2041.5  120813.00  12868.70  10.65
2044.1  120242.70  13044.20  10.85
2046.8  119851.20  13232.70  11.04
2049.4  119207.40  13392.20  11.23
2052.0  118904.33  13577.42  11.42
2054.6  118483.75  13752.08  11.61
2057.2  117900.00  13918.02  11.80
2059.8  117576.87  14107.25  12.00
2062.4  116707.45  14228.51  12.19
2065.0  116170.80  14392.53  12.39
2067.6  115260.48  14495.82  12.58
2070.2  114650.32  14641.09  12.77
2072.8  113996.57  14780.56  12.97
2075.4  113557.50  14945.00  13.16
2078.0  112909.75  15075.13  13.35
2080.6  112349.60  15209.33  13.54
2083.2  111643.50  15329.98  13.73
2085.8  111144.30  15464.52  13.91
2088.4  110469.67  15573.16  14.10
2090.9  109652.88  15664.28  14.29
2093.5  108759.27  15730.32  14.46
2096.1  107991.08  15821.71  14.65
2098.7  107209.37  15909.55  14.84
2101.2  106223.53  15961.62  15.03
2103.8  105533.60  16060.60  15.22
2106.4  104861.13  16147.93  15.40
2108.9  104206.13  16232.35  15.58
2111.5  103332.80  16278.93  15.75
2114.0  102695.27  16366.27  15.94
2116.6  102165.00  16458.75  16.11
2119.1  101588.13  16539.78  16.28
2121.7  101097.50  16630.83  16.45
2124.2  100702.70  16729.72  16.61
2126.8  99892.85  16752.74  16.77
2129.3  99484.00  16822.67  16.91
2131.9  98876.80  16863.73  17.06
2134.4  98447.40  16927.10  17.19
2136.9  98045.35  16981.97  17.32
2139.4  97506.73  17003.31  17.44
2142.0  97054.53  17035.82  17.55
2144.5  96778.60  17093.93  17.66
2147.0  96524.67  17154.98  17.77
2149.5  96015.47  17152.00  17.86
2152.1  95843.18  17203.08  17.95
2154.6  95771.20  17272.00  18.03
2157.1  95238.75  17252.28  18.11
2159.6  94820.92  17249.25  18.19
2162.1  94667.30  17271.80  18.24
2164.6  94402.13  17280.27  18.30
2167.1  94064.88  17279.97  18.37
2169.6  93724.28  17262.82  18.42
2172.1  93238.20  17232.48  18.48
2174.6  92926.13  17236.00  18.55
2177.1  92480.57  17211.30  18.61
2179.5  92057.98  17192.35  18.68
2182.0  91573.90  17144.78  18.72
2184.5  91037.10  17096.43  18.78
2187.0  90418.50  17027.17  18.83
2189.5  89721.82  16946.72  18.89
2191.9  88920.00  16849.83  18.95
2194.4  88280.20  16776.17  19.00
2196.9  87523.20  16678.40  19.06
2199.3  86845.33  16588.00  19.10
2201.8  85945.33  16433.11  19.12
2204.3  85473.72  16364.38  19.15
2206.7  84808.50  16262.35  19.18
2209.2  84334.48  16182.31  19.19
2211.6  83694.60  16074.30  19.21
2214.1  83400.90  16019.50  19.21
2216.5  82824.13  15903.27  19.20
2219.0  82486.40  15830.42  19.19
2221.4  82100.08  15737.75  19.17
2223.9  81624.08  15615.44  19.13
2226.3  81098.50  15479.92  19.09
2228.7  80529.40  15309.28  19.01
2231.1  79932.60  15127.20  18.92
2233.6  79337.53  14939.73  18.83
2236.0  78768.08  14739.47  18.71
2238.4  78262.33  14541.14  18.58
2240.9  77807.80  14340.42  18.43
2243.3  77271.40  14118.58  18.27
2245.7  76684.65  13876.93  18.10
2248.1  76175.23  13647.69  17.92
2250.5  75653.70  13400.96  17.71
2252.9  75019.10  13129.42  17.50
2255.3  74445.90  12875.30  17.29
2257.7  73980.00  12636.67  17.08
2260.1  73474.10  12387.82  16.86
2262.5  72850.00  12123.33  16.64
2264.9  72309.28  11886.82  16.44
2267.3  71680.00  11646.67  16.25
2269.7  71176.47  11424.62  16.05
2272.1  70627.52  11215.33  15.88
2274.5  70033.08  11008.29  15.72
2276.8  69555.73  10824.68  15.56
2279.2  68963.10  10616.15  15.39
2281.6  68533.87  10445.85  15.24
2284.0  68053.80  10258.23  15.07
2286.3  67589.33  10065.78  14.89
2288.7  67169.27  9898.20  14.74
2291.1  66619.00  9711.43  14.58
2293.4  66158.40  9534.31  14.41
2295.8  65538.90  9331.80  14.24
2298.2  64904.85  9139.05  14.08
2300.5  64232.10  8925.15  13.90
2302.9  63488.00  8714.44  13.73
2305.2  62757.90  8531.83  13.59
2307.6  62065.07  8356.50  13.46
2309.9  61276.67  8187.44  13.36
2312.2  60677.33  8039.33  13.25
2314.6  60071.40  7907.40  13.16
2316.9  59367.60  7762.50  13.08
2319.2  58789.37  7629.87  12.98
2321.6  58146.67  7482.92  12.87
2323.9  57583.33  7347.22  12.76
2326.2  57039.03  7205.96  12.63
2328.6  56513.60  7074.65  12.52
2330.9  56007.00  6951.00  12.41
2333.2  55530.75  6829.78  12.30
2335.5  55083.60  6708.90  12.18
2337.8  54606.80  6581.43  12.05
2340.1  54024.50  6448.43  11.94
2342.4  53581.67  6326.66  11.81
2344.8  53153.25  6200.67  11.67
2347.1  52574.20  6068.22  11.54
2349.4  52031.72  5945.33  11.43
2351.6  51436.82  5820.47  11.32
2353.9  50929.87  5711.59  11.21
2356.2  50402.97  5595.39  11.10
2358.5  49806.40  5469.33  10.98
2360.8  49224.00  5361.07  10.89
2363.1  48770.07  5264.36  10.79
2365.4  48284.90  5156.57  10.68
2367.7  47811.60  5050.20  10.56
2369.9  47277.05  4934.95  10.44
2372.2  46657.87  4819.82  10.33
2374.5  46049.85  4708.55  10.22
2376.7  45421.17  4607.95  10.14
2379.0  44788.33  4486.59  10.02
2381.3  44158.33  4367.22  9.89
2383.5  43636.27  4274.84  9.80
2385.8  43018.93  4161.48  9.67
2388.0  42491.80  4043.47  9.52
2390.3  41972.40  3939.73  9.39
2392.5  41484.00  3844.00  9.27
2394.8  41006.90  3746.97  9.14
2397.0  40525.33  3652.13  9.01
2399.3  40058.80  3569.72  8.91
2401.5  39604.25  3466.75  8.75
2403.8  39068.47  3374.77  8.64
2406.0  38553.75  3290.41  8.53
2408.2  38148.00  3216.40  8.43
2410.4  37712.15  3129.15  8.30
2412.7  37297.87  3041.13  8.15
2414.9  36950.65  2968.53  8.03
2417.1  36525.20  2895.60  7.93
2419.3  36096.00  2824.53  7.83
2421.6  35688.75  2742.64  7.68
2423.8  35321.20  2679.78  7.59
2426.0  34951.13  2605.32  7.45
2428.2  34587.47  2539.29  7.34
2430.4  34247.87  2479.04  7.24
2432.6  33986.67  2431.11  7.15
2434.8  33684.00  2356.99  7.00
2437.0  33328.10  2297.10  6.89
2439.2  32980.67  2234.76  6.78
2441.4  32638.20  2172.25  6.66
2443.6  32372.45  2123.16  6.56
2445.7  32112.15  2077.87  6.47
2447.9  31841.33  2022.56  6.35
2450.1  31528.20  1971.68  6.25
2452.3  31155.48  1910.45  6.13
2454.5  30792.02  1858.02  6.03
2456.6  30388.00  1816.62  5.98
2458.8  30015.70  1763.67  5.88
2461.0  29712.75  1720.39  5.79
2463.1  29420.10  1673.25  5.69
2465.3  29134.97  1634.06  5.61
2467.5  28895.25  1593.00  5.51
2469.6  28654.92  1556.31  5.43
2471.8  28351.47  1506.67  5.31
2473.9  28024.83  1478.17  5.27
2476.1  27648.83  1435.78  5.19
2478.2  27313.37  1401.47  5.13
2480.4  26985.30  1376.38  5.10
2482.5  26646.82  1341.89  5.04
2484.6  26320.25  1298.61  4.93
2486.8  26046.30  1282.17  4.92
2488.9  25726.83  1252.15  4.87
2491.1  25386.67  1232.31  4.85
2493.2  24987.83  1202.82  4.81
2495.3  24595.13  1181.12  4.80
2497.4  24246.60  1159.20  4.78
2499.5  23902.78  1122.04  4.69
2501.7  23795.47  1111.99  4.67
2503.8  23687.52  1092.15  4.61
2505.9  23643.33  1087.64  4.60
2508.0  23647.50  1086.03  4.59
2510.1  23641.77  1078.96  4.56
2512.2  23763.25  1076.53  4.53
2514.3  23937.98  1101.03  4.60
2516.4  24211.30  1136.03  4.69
