/*** Spectra Vista SIG Data ***/
name= 48_20220926_QUPH_20_avg.sig
comm= Averaged Ref/Tar of files: HR.092722.0058_moc.sig,HR.092722.0059_moc.sig
data=
337.3  3176.00  198.50  6.25
338.8  3318.90  182.78  5.51
340.3  3466.90  196.77  5.68
341.8  3703.73  201.19  5.43
343.2  3907.20  195.36  5.00
344.7  4009.10  179.13  4.47
346.2  4207.55  171.57  4.08
347.7  4365.08  173.03  3.96
349.2  4573.80  181.44  3.97
350.6  4847.70  190.97  3.94
352.1  5108.68  207.21  4.06
353.6  5413.20  187.38  3.46
355.1  5657.40  195.32  3.45
356.6  5965.05  196.65  3.30
358.0  6252.40  197.78  3.16
359.5  6550.80  210.12  3.21
361.0  6852.83  221.45  3.23
362.5  7201.65  228.35  3.17
364.0  7541.53  235.14  3.12
365.4  7924.20  236.04  2.98
366.9  8259.88  243.10  2.94
368.4  8646.18  250.93  2.90
369.9  8999.33  270.25  3.00
371.3  9425.10  288.36  3.06
372.8  9850.05  302.67  3.07
374.3  10293.13  295.63  2.87
375.8  10672.20  296.45  2.78
377.2  11109.70  312.04  2.81
378.7  11513.20  317.42  2.76
380.2  11916.70  317.42  2.66
381.7  12431.50  340.52  2.74
383.1  12909.05  339.57  2.63
384.6  13433.55  356.07  2.65
386.1  13917.88  372.95  2.68
387.6  14364.35  377.30  2.63
389.0  14820.40  385.92  2.60
390.5  15292.80  392.94  2.57
392.0  15870.00  407.33  2.57
393.4  16448.15  420.40  2.56
394.9  16991.10  438.48  2.58
396.4  17517.38  450.23  2.57
397.9  18065.63  456.13  2.52
399.3  18613.88  465.98  2.50
400.8  19192.25  493.52  2.57
402.2  19811.85  510.64  2.58
403.7  20415.60  515.21  2.52
405.2  21047.08  539.79  2.56
406.6  21599.20  552.16  2.56
408.1  22170.60  569.52  2.57
409.6  22784.10  588.26  2.58
411.0  23442.30  610.61  2.60
412.5  24094.53  633.08  2.63
414.0  24755.63  652.00  2.63
415.4  25459.88  671.78  2.64
416.9  26136.90  686.19  2.63
418.4  26835.98  709.65  2.64
419.8  27554.80  735.28  2.67
421.3  28270.45  759.35  2.69
422.7  29040.60  779.52  2.68
424.2  29801.25  803.25  2.70
425.7  30562.50  824.78  2.70
427.1  31333.50  851.39  2.72
428.6  32131.50  877.30  2.73
430.0  32869.05  901.40  2.74
431.5  33745.43  925.35  2.74
432.9  34603.30  949.32  2.74
434.4  35526.00  976.97  2.75
435.9  36358.00  1002.40  2.76
437.3  37207.50  1031.25  2.77
438.8  38050.73  1058.85  2.78
440.2  38929.28  1086.09  2.79
441.7  39891.80  1112.20  2.79
443.1  40796.75  1139.50  2.79
444.6  41762.80  1173.76  2.81
446.0  42700.73  1206.68  2.83
447.5  43673.58  1238.22  2.84
448.9  44608.20  1271.94  2.85
450.4  45635.80  1307.95  2.87
451.8  46514.00  1333.80  2.87
453.3  47423.03  1365.03  2.88
454.7  48431.30  1393.92  2.88
456.2  49289.58  1423.01  2.89
457.6  50272.43  1452.29  2.89
459.1  51261.28  1487.07  2.90
460.5  52202.63  1514.05  2.90
462.0  53274.98  1547.26  2.90
463.4  54320.50  1575.50  2.90
464.8  55305.75  1603.95  2.90
466.3  56268.30  1629.71  2.90
467.7  57243.03  1663.67  2.91
469.2  58298.65  1691.82  2.90
470.6  59291.00  1725.34  2.91
472.0  60367.68  1759.38  2.91
473.5  61387.25  1791.05  2.92
474.9  62400.75  1826.85  2.93
476.4  63547.20  1860.48  2.93
477.8  64612.00  1893.70  2.93
479.2  65612.50  1919.80  2.93
480.7  66715.28  1957.02  2.93
482.1  67842.75  1994.10  2.94
483.6  69027.65  2031.67  2.94
485.0  70116.90  2072.82  2.96
486.4  71309.55  2106.84  2.95
487.9  72379.13  2141.10  2.96
489.3  73536.65  2185.19  2.97
490.7  74582.13  2220.53  2.98
492.2  75778.50  2275.56  3.00
493.6  76883.20  2317.63  3.01
495.0  77980.50  2366.33  3.03
496.5  79171.63  2421.38  3.06
497.9  80286.93  2471.27  3.08
499.3  81446.25  2532.91  3.11
500.7  82699.25  2598.91  3.14
502.2  83847.80  2668.88  3.18
503.6  85103.40  2747.72  3.23
505.0  86185.95  2830.38  3.28
506.5  87497.55  2928.41  3.35
507.9  88668.33  3030.23  3.42
509.3  89969.20  3149.44  3.50
510.7  91186.88  3278.93  3.60
512.2  92582.10  3430.58  3.71
513.6  94078.60  3598.98  3.83
515.0  95520.88  3783.85  3.96
516.4  96886.13  3988.85  4.12
517.8  98507.75  4226.20  4.29
519.3  99848.05  4473.04  4.48
520.7  101412.90  4748.90  4.68
522.1  102702.28  5033.80  4.90
523.5  104055.40  5326.48  5.12
524.9  105531.75  5635.80  5.34
526.3  106964.90  5938.03  5.55
527.8  108464.40  6245.91  5.76
529.2  109455.40  6526.20  5.96
530.6  110961.55  6823.29  6.15
532.0  112644.00  7112.00  6.31
533.4  113962.13  7365.80  6.46
534.8  114845.90  7564.70  6.59
536.3  116448.30  7796.76  6.70
537.7  118427.40  8043.84  6.79
539.1  119872.95  8233.10  6.87
540.5  121054.30  8408.49  6.95
541.9  122801.48  8614.59  7.02
543.3  124084.00  8790.06  7.08
544.7  125400.00  8962.68  7.15
546.1  127182.00  9164.32  7.21
547.5  128419.20  9331.84  7.27
549.0  130042.00  9523.80  7.32
550.4  131526.88  9696.38  7.37
551.8  133120.20  9855.61  7.40
553.2  134624.70  9976.39  7.41
554.6  135948.80  10052.64  7.39
556.0  137468.70  10105.74  7.35
557.4  139067.43  10130.89  7.28
558.8  140708.25  10138.86  7.21
560.2  142168.63  10107.33  7.11
561.6  143823.30  10062.21  7.00
563.0  145413.95  10001.53  6.88
564.4  147003.70  9914.89  6.74
565.8  148516.25  9815.38  6.61
567.2  150242.00  9709.40  6.46
568.6  151728.00  9570.00  6.31
570.0  153145.15  9409.97  6.14
571.4  154854.70  9255.48  5.98
572.8  156617.75  9111.38  5.82
574.2  158211.20  8973.44  5.67
575.6  159761.25  8842.50  5.53
577.0  161284.90  8728.12  5.41
578.4  162992.38  8638.18  5.30
579.8  164505.60  8560.35  5.20
581.2  166205.43  8498.37  5.11
582.5  167625.90  8438.04  5.03
583.9  169129.40  8392.16  4.96
585.3  170921.03  8366.58  4.89
586.7  172390.40  8342.95  4.84
588.1  173860.38  8329.88  4.79
589.5  175505.75  8332.45  4.75
590.9  177109.20  8345.20  4.71
592.3  178912.80  8373.36  4.68
593.7  180352.58  8400.99  4.66
595.0  181948.28  8436.29  4.64
596.4  183397.90  8471.89  4.62
597.8  184867.43  8511.83  4.60
599.2  186384.00  8545.68  4.58
600.6  188135.68  8583.97  4.56
602.0  189426.75  8583.95  4.53
603.3  191204.05  8601.54  4.50
604.7  192858.53  8598.84  4.46
606.1  194317.80  8575.32  4.41
607.5  195952.60  8547.17  4.36
608.9  197627.30  8511.49  4.31
610.2  199002.83  8453.97  4.25
611.6  200592.98  8400.18  4.19
613.0  202141.05  8354.99  4.13
614.4  203496.30  8302.23  4.08
615.8  204940.13  8260.20  4.03
617.1  206461.50  8232.00  3.99
618.5  208058.40  8211.04  3.95
619.9  209561.93  8199.80  3.91
621.3  211155.53  8194.77  3.88
622.6  212737.50  8207.55  3.86
624.0  214183.35  8225.58  3.84
625.4  215640.98  8257.59  3.83
626.8  217201.08  8303.30  3.82
628.1  218453.40  8336.41  3.82
629.5  220195.63  8398.01  3.81
630.9  221648.08  8451.25  3.81
632.2  222898.73  8484.11  3.81
633.6  224388.88  8517.98  3.80
635.0  225801.60  8548.40  3.79
636.3  227287.40  8563.50  3.77
637.7  228637.63  8555.45  3.74
639.1  230265.00  8547.00  3.71
640.4  231719.25  8515.82  3.68
641.8  232901.45  8474.01  3.64
643.2  234433.15  8432.10  3.60
644.5  235790.00  8387.70  3.56
645.9  237340.80  8354.16  3.52
647.2  238380.28  8312.89  3.49
648.6  239922.00  8294.40  3.46
650.0  241250.40  8272.80  3.43
651.3  242173.25  8248.96  3.41
652.7  244283.90  8256.51  3.38
654.0  246312.40  8271.48  3.36
655.4  247632.58  8276.44  3.34
656.8  247747.80  8221.94  3.32
658.1  249132.50  8194.70  3.29
659.5  251485.50  8199.24  3.26
660.8  252967.50  8167.50  3.23
662.2  253971.20  8108.80  3.19
663.5  255522.40  8075.89  3.16
664.9  256514.70  8053.24  3.14
666.2  257275.80  8027.52  3.12
667.6  258970.00  8041.47  3.11
668.9  259893.45  8050.44  3.10
670.3  261698.00  8090.80  3.09
671.6  262734.38  8124.30  3.09
673.0  263884.88  8181.83  3.10
674.3  265111.60  8252.14  3.11
675.7  266401.10  8339.94  3.13
677.0  267449.58  8435.58  3.15
678.4  268705.00  8550.11  3.18
679.7  269740.18  8669.04  3.21
681.1  271014.78  8807.93  3.25
682.4  272095.20  8977.02  3.30
683.8  273244.40  9167.08  3.35
685.1  274195.13  9398.70  3.43
686.4  275457.60  9665.88  3.51
687.8  276656.50  9981.35  3.61
689.1  277724.50  10368.50  3.73
690.5  279039.75  10848.69  3.89
691.8  279813.75  11471.24  4.10
693.1  281109.15  12298.95  4.38
694.5  282236.50  13345.15  4.73
695.8  283442.25  14655.55  5.17
697.1  284579.75  16234.40  5.70
698.5  285611.40  18128.22  6.35
699.8  286657.35  20330.41  7.09
701.1  287791.10  22833.73  7.93
702.5  288549.80  25562.68  8.86
703.8  289440.00  28534.50  9.86
705.1  290560.73  31722.41  10.92
706.5  291568.63  35084.00  12.03
707.8  292494.45  38585.04  13.19
709.1  293305.85  42229.97  14.40
710.5  294377.45  46056.48  15.65
711.8  295207.40  49992.14  16.93
713.1  296144.00  54108.72  18.27
714.4  297036.00  58359.10  19.65
715.8  297816.50  62747.74  21.07
717.1  299087.70  67367.37  22.52
718.4  300025.60  72029.44  24.01
719.7  301097.58  76837.53  25.52
721.0  301567.50  81603.00  27.06
722.4  302282.75  86488.27  28.61
723.7  303215.55  91487.88  30.17
725.0  304196.85  96517.62  31.73
726.3  305124.60  101502.78  33.27
727.6  305626.75  106327.98  34.79
729.0  306507.25  111190.84  36.28
730.3  307245.60  115935.48  37.73
731.6  308126.50  120583.72  39.13
732.9  308882.53  125056.58  40.49
734.2  309625.25  129399.33  41.79
735.5  310600.58  133664.35  43.03
736.8  311346.90  137663.82  44.22
738.1  312205.70  141502.34  45.32
739.5  313138.78  145190.22  46.37
740.8  313818.45  148553.46  47.34
742.1  314419.53  151732.01  48.26
743.4  315000.00  154705.00  49.11
744.7  315845.55  157630.75  49.91
746.0  316697.55  160353.96  50.63
747.3  317275.75  162752.51  51.30
748.6  317986.75  165042.05  51.90
749.9  318604.00  167112.40  52.45
751.2  319160.75  168996.99  52.95
752.5  319866.80  170832.72  53.41
753.8  320331.38  172392.26  53.82
755.1  320944.00  173903.60  54.19
756.4  321466.60  175248.13  54.52
757.7  322443.45  176705.06  54.80
759.0  324167.23  178482.11  55.06
760.3  325274.40  179836.80  55.29
761.6  326754.40  181332.20  55.49
762.9  327232.75  182188.90  55.68
764.2  327534.40  182887.72  55.84
765.5  327732.18  183472.73  55.98
766.8  328059.20  184084.16  56.11
768.1  328526.00  184714.36  56.23
769.3  329035.00  185349.01  56.33
770.6  329614.35  185979.30  56.42
771.9  330239.18  186603.03  56.51
773.2  330547.60  187025.36  56.58
774.5  331073.60  187547.36  56.65
775.8  331659.60  188084.69  56.71
777.1  332135.10  188559.69  56.77
778.4  332384.80  188890.85  56.83
779.6  333038.90  189437.43  56.88
780.9  333420.00  189804.00  56.93
782.2  333778.50  190169.65  56.97
783.5  334005.50  190442.00  57.02
784.8  334451.25  190825.25  57.06
786.0  334769.05  191117.71  57.09
787.3  335051.38  191412.07  57.13
788.6  335340.03  191720.17  57.17
789.9  335717.20  192040.80  57.20
791.2  336271.73  192466.13  57.24
792.4  336839.63  192897.16  57.27
793.7  337239.80  193225.68  57.30
795.0  337742.63  193621.07  57.33
796.2  338279.90  194035.22  57.36
797.5  338881.28  194473.89  57.39
798.8  339428.10  194899.93  57.42
800.0  339982.75  195327.76  57.45
801.3  340350.80  195618.68  57.48
802.6  340857.45  195998.54  57.50
803.8  341415.20  196402.96  57.53
805.1  341785.50  196726.08  57.56
806.4  342176.10  197030.34  57.58
807.7  342619.88  197392.14  57.61
808.9  343110.55  197749.15  57.63
810.2  343531.30  198074.31  57.66
811.4  343937.70  198398.76  57.68
812.7  344500.00  198835.00  57.72
814.0  345248.50  199355.29  57.74
815.2  345773.50  199782.10  57.78
816.5  346189.98  200096.03  57.80
817.7  346570.80  200426.59  57.83
819.0  347035.15  200782.45  57.86
820.2  347160.00  200956.80  57.89
821.5  347778.85  201434.01  57.92
822.7  348074.20  201718.24  57.95
824.0  348381.00  201987.54  57.98
825.2  348846.75  202368.38  58.01
826.5  349125.88  202639.56  58.04
827.7  349670.03  203040.10  58.07
829.0  349991.68  203358.66  58.10
830.2  350303.80  203625.21  58.13
831.5  350749.10  204000.17  58.16
832.7  351127.88  204290.73  58.18
834.0  351419.65  204613.76  58.22
835.2  351812.45  204921.04  58.25
836.4  352110.00  205205.44  58.28
837.7  352516.80  205558.92  58.31
838.9  352920.60  205925.43  58.35
840.1  353293.65  206239.23  58.38
841.4  353747.30  206615.28  58.41
842.6  354140.60  206958.68  58.44
843.8  354530.00  207326.80  58.48
845.1  355091.05  207736.87  58.50
846.3  355431.40  208102.26  58.55
847.5  355838.70  208448.52  58.58
848.8  356338.80  208797.48  58.60
850.0  356729.10  209150.76  58.63
851.2  357286.95  209562.66  58.65
852.5  357700.90  209913.78  58.68
853.7  358222.50  210326.85  58.71
854.9  358658.60  210726.80  58.75
856.1  359186.75  211120.13  58.78
857.4  359404.68  211342.70  58.80
858.6  359931.95  211716.60  58.82
859.8  360403.13  212051.63  58.84
861.0  360828.00  212425.20  58.87
862.2  361416.38  212784.34  58.88
863.5  361782.53  213133.51  58.91
864.7  362274.00  213516.60  58.94
865.9  362669.40  213814.20  58.96
867.1  363038.40  214085.88  58.97
868.3  363546.45  214430.28  58.98
869.5  364027.80  214815.74  59.01
870.8  364599.00  215255.70  59.04
872.0  365128.65  215613.03  59.05
873.2  365585.70  215944.08  59.07
874.4  365970.15  216265.14  59.09
875.6  366406.58  216557.22  59.10
876.8  367038.15  216932.37  59.10
878.0  367506.65  217319.64  59.13
879.2  367957.80  217650.51  59.15
880.4  368535.38  218027.10  59.16
881.6  368916.15  218355.74  59.19
882.8  369449.60  218639.52  59.18
884.0  370108.13  219034.75  59.18
885.2  370532.50  219390.32  59.21
886.5  371126.45  219761.59  59.21
887.7  371533.18  220075.12  59.23
888.8  372219.45  220483.89  59.23
890.0  372758.40  220863.05  59.25
891.2  373300.80  221244.44  59.27
892.4  373923.38  221617.31  59.27
893.6  374512.45  221932.59  59.26
894.8  375360.00  222479.00  59.27
896.0  376157.50  222975.05  59.28
897.2  376905.75  223463.50  59.29
898.4  377589.30  223955.16  59.31
899.6  378208.88  224307.68  59.31
900.8  378475.75  224534.17  59.33
902.0  378709.95  224659.17  59.32
903.2  378969.30  224820.39  59.32
904.3  379404.60  224978.34  59.30
905.5  379811.45  225360.76  59.33
906.7  380452.00  225706.10  59.33
907.9  380801.05  226016.42  59.35
909.1  380920.05  226169.82  59.37
910.2  381091.65  226286.49  59.38
911.4  381361.50  226394.42  59.36
912.6  381545.45  226471.96  59.36
913.8  381627.83  226635.42  59.39
915.0  381972.15  226859.22  59.39
916.2  382024.50  226907.85  59.40
917.3  381956.18  226861.16  59.39
918.5  382103.70  226972.46  59.40
919.7  382284.30  227107.92  59.41
920.8  382313.85  227100.28  59.40
922.0  382420.50  227107.65  59.39
923.2  382473.00  227136.00  59.39
924.4  382606.88  227267.10  59.40
925.5  382738.40  227314.06  59.39
926.7  383273.50  227600.68  59.38
927.9  384057.60  228005.28  59.37
929.0  385385.85  228759.39  59.36
930.2  387558.20  229953.20  59.33
931.4  389804.40  231308.46  59.34
932.5  392314.30  232758.54  59.33
933.7  393532.75  233474.86  59.33
934.9  394165.63  233650.38  59.28
936.0  393735.88  233254.45  59.24
937.2  391620.15  231795.45  59.19
938.3  389626.65  230733.86  59.22
939.5  388144.80  229672.08  59.17
940.7  388150.20  229658.40  59.17
941.8  389618.93  230368.11  59.13
943.0  390944.25  231017.40  59.09
944.2  391601.60  231234.90  59.05
945.3  391248.00  230821.50  59.00
946.5  390312.00  230133.96  58.96
947.6  390172.20  229984.20  58.94
948.8  389990.25  229647.99  58.89
949.9  389865.00  229339.32  58.83
951.1  389419.55  228799.03  58.75
952.2  389232.00  228276.00  58.65
953.4  388801.00  227726.30  58.57
954.5  388767.60  227405.88  58.49
955.7  388558.80  227052.00  58.43
956.8  388297.80  226528.84  58.34
958.0  387846.50  225930.00  58.25
959.1  387344.10  225499.28  58.22
960.3  386817.95  224869.56  58.13
961.4  386772.95  224651.99  58.08
962.6  386716.75  224453.95  58.04
963.7  386386.88  224079.86  57.99
964.9  386327.48  223864.10  57.95
966.0  385762.50  223587.95  57.96
967.2  385923.15  223470.90  57.91
968.3  385588.35  223212.51  57.89
969.5  385254.35  222989.02  57.88
970.6  385159.15  222953.45  57.89
971.8  385359.98  223071.63  57.89
972.9  385285.65  222928.65  57.86
974.0  385213.80  222980.78  57.88
975.2  385471.25  222686.40  57.77
976.3  385414.38  222500.62  57.73
977.5  385360.33  222593.81  57.76
978.6  385696.40  222535.62  57.70
979.7  385225.58  222725.79  57.82
980.9  384639.03  222576.58  57.87
982.0  384919.90  222312.84  57.76
983.2  384726.53  222048.01  57.72
984.3  384466.60  221761.64  57.68
985.4  384173.80  221825.66  57.74
986.6  383828.13  221576.30  57.73
987.7  384160.53  222017.39  57.79
988.9  383995.80  221848.92  57.77
990.0  384225.60  221802.96  57.73
993.1  383543.18  220625.20  57.52
996.9  382258.05  220707.69  57.74
1000.7  382322.68  221502.91  57.94
1004.5  382353.33  222271.67  58.13
1008.4  381997.67  222762.70  58.32
1012.2  381802.29  223418.01  58.52
1016.0  381410.40  223949.40  58.72
1019.8  380803.50  224277.90  58.90
1023.7  379682.26  224235.25  59.06
1027.5  378030.92  223804.35  59.20
1031.3  377025.80  223718.91  59.34
1035.1  375997.24  223569.87  59.46
1038.9  375521.12  223678.40  59.56
1042.7  375222.92  223858.70  59.66
1046.5  375031.17  224083.73  59.75
1050.3  374980.68  224381.35  59.84
1054.2  374586.33  224465.31  59.92
1058.0  374182.20  224472.85  59.99
1061.8  374056.07  224657.58  60.06
1065.6  373494.53  224489.16  60.11
1069.4  372710.67  224148.16  60.14
1073.2  371411.31  223505.20  60.18
1077.0  370688.65  223135.79  60.19
1080.8  370777.08  223229.52  60.21
1084.6  370758.50  223220.59  60.21
1088.4  370985.48  223330.61  60.20
1092.2  370480.50  222982.50  60.19
1096.0  369784.44  222475.47  60.16
1099.8  369068.48  221919.82  60.13
1103.6  368110.98  221191.58  60.09
1107.4  366965.17  220299.39  60.03
1111.2  366664.90  219882.60  59.97
1114.9  366094.75  219251.08  59.89
1118.7  365795.10  218653.05  59.77
1122.5  365386.67  217852.85  59.62
1126.3  364446.08  216501.21  59.41
1130.1  364046.65  215127.27  59.09
1133.9  362392.80  212656.27  58.68
1137.7  360828.00  209874.77  58.16
1141.4  358759.81  206493.66  57.56
1145.2  357833.00  203582.26  56.89
1149.0  356528.96  200556.32  56.25
1152.8  354722.95  197512.94  55.68
1156.6  352875.60  194912.24  55.24
1160.3  351081.33  192768.67  54.91
1164.1  348741.90  190675.95  54.68
1167.9  347108.33  189254.87  54.52
1171.7  345775.50  188165.25  54.42
1175.4  344329.40  187068.30  54.33
1179.2  342918.58  186010.12  54.24
1183.0  342551.33  185515.11  54.16
1186.7  342517.93  185218.29  54.08
1190.5  342113.07  184807.14  54.02
1194.3  341146.70  184189.89  53.99
1198.0  339681.65  183406.49  53.99
1201.8  337987.63  182632.70  54.04
1205.6  336876.00  182262.33  54.10
1209.3  336282.57  182283.33  54.21
1213.1  335767.43  182445.70  54.34
1216.8  335110.97  182599.51  54.49
1220.6  333995.20  182568.71  54.66
1224.3  332740.67  182443.70  54.83
1228.1  331216.20  182211.27  55.01
1231.9  329646.18  181840.95  55.16
1235.6  327912.68  181328.68  55.30
1239.4  326347.25  180904.63  55.43
1243.1  324980.75  180526.47  55.55
1246.9  323720.71  180146.01  55.65
1250.6  322638.60  179811.56  55.73
1254.3  321457.58  179393.50  55.81
1258.1  320253.38  178897.25  55.86
1261.8  318801.60  178235.69  55.91
1265.6  317616.73  177652.76  55.93
1269.3  316802.15  177210.39  55.94
1273.1  317119.52  177332.72  55.92
1276.8  316880.80  177098.13  55.89
1280.6  315762.10  176312.65  55.84
1284.3  313781.20  174977.07  55.76
1288.0  312538.39  173942.84  55.65
1291.8  312034.90  173222.79  55.51
1295.5  311276.53  172250.22  55.34
1299.2  310132.96  170950.95  55.12
1302.9  308514.32  169261.97  54.86
1306.7  306748.98  167331.74  54.55
1310.4  305038.78  165264.65  54.18
1314.1  303450.77  163097.31  53.75
1317.9  302052.71  160833.20  53.25
1321.6  300521.55  158337.68  52.69
1325.3  298851.53  155584.28  52.06
1329.0  297566.50  152909.75  51.39
1332.8  295649.20  149759.87  50.65
1336.5  293974.93  146722.85  49.91
1340.2  293839.00  144447.33  49.16
1343.9  293825.00  142279.03  48.42
1347.6  294044.40  140291.15  47.71
1351.4  295554.00  138983.34  47.02
1355.1  297643.13  137984.61  46.36
1358.8  299392.00  136752.00  45.68
1362.5  299690.40  134694.62  44.94
1366.2  297692.95  131288.74  44.10
1369.9  294513.00  126957.67  43.11
1373.6  291663.75  122156.26  41.88
1377.3  290159.10  117024.00  40.33
1381.0  289658.17  111226.67  38.40
1384.8  287722.50  103761.67  36.06
1388.4  284503.33  95255.34  33.48
1392.2  282246.42  86785.67  30.75
1395.9  280741.98  78650.70  28.02
1399.6  278915.40  71014.81  25.46
1403.3  277472.73  64336.02  23.19
1407.0  275770.50  58618.57  21.26
1410.7  273967.65  53895.88  19.67
1414.3  272084.46  50105.89  18.42
1418.1  270402.54  47179.89  17.45
1421.7  269016.13  44951.09  16.71
1425.4  267679.10  43253.71  16.16
1429.1  266418.00  42004.50  15.77
1432.8  264745.98  41016.98  15.49
1436.5  263921.31  40409.98  15.31
1440.2  263310.17  40042.66  15.21
1443.9  262196.46  39746.45  15.16
1447.6  260645.00  39495.87  15.15
1451.2  259383.30  39375.66  15.18
1454.9  257943.90  39309.20  15.24
1458.6  256709.25  39389.25  15.34
1462.3  255506.53  39622.86  15.51
1466.0  254157.27  40004.03  15.74
1469.7  252456.75  40507.86  16.05
1473.3  251410.17  41271.28  16.42
1477.0  249379.47  42011.17  16.85
1480.7  247733.71  42883.51  17.31
1484.4  245728.84  43743.44  17.80
1488.0  244170.67  44718.67  18.31
1491.7  242571.87  45691.37  18.84
1495.4  240867.63  46669.17  19.38
1499.0  239322.50  47661.50  19.92
1502.7  238033.58  48704.31  20.46
1506.4  236610.98  49698.98  21.00
1510.0  235182.33  50666.45  21.54
1513.7  233683.04  51592.92  22.08
1517.4  232314.67  52522.11  22.61
1521.0  231062.93  53447.69  23.13
1524.7  229825.92  54319.42  23.64
1528.3  228542.50  55134.58  24.12
1532.0  227320.68  55930.24  24.60
1535.7  225930.85  56635.56  25.07
1539.3  224664.43  57341.25  25.52
1543.0  223685.07  58078.55  25.96
1546.6  222995.50  58858.94  26.39
1550.3  222004.05  59515.80  26.81
1553.9  220940.80  60123.48  27.21
1557.6  219686.87  60633.23  27.60
1561.2  218415.15  61091.70  27.97
1564.9  217104.65  61512.52  28.33
1568.5  215788.65  61891.90  28.68
1572.2  214669.95  62302.39  29.02
1575.8  213556.00  62710.67  29.36
1579.5  212555.95  63114.45  29.69
1583.1  211490.12  63491.54  30.02
1586.8  210168.00  63760.67  30.34
1590.4  208984.40  64062.17  30.65
1594.0  207666.66  64307.18  30.97
1597.7  206831.79  64693.87  31.28
1601.3  205906.05  65025.45  31.58
1604.9  204935.11  65305.48  31.87
1608.6  203583.35  65437.34  32.14
1612.2  202254.53  65538.83  32.40
1615.8  200848.70  65575.36  32.65
1619.5  199606.75  65644.92  32.89
1623.1  198298.73  65652.65  33.11
1626.7  197103.40  65659.21  33.31
1630.3  195918.83  65635.64  33.50
1634.0  194810.00  65594.67  33.67
1637.6  193810.53  65545.98  33.82
1641.2  192780.05  65402.75  33.93
1644.8  191577.06  65119.37  33.99
1648.5  190505.24  64802.88  34.02
1652.1  189560.40  64441.70  34.00
1655.7  188632.80  64027.80  33.94
1659.3  187810.29  63632.27  33.88
1662.9  186405.00  63046.39  33.82
1666.6  184976.67  62493.52  33.78
1670.2  183559.66  61955.08  33.75
1673.8  182101.54  61400.10  33.72
1677.4  180935.90  60920.80  33.67
1681.0  180117.78  60484.97  33.58
1684.6  179703.33  60126.45  33.46
1688.2  179011.65  59585.65  33.29
1691.8  178340.56  59060.32  33.12
1695.4  177897.60  58570.27  32.92
1699.0  177518.13  58086.24  32.72
1702.6  177174.33  57591.34  32.51
1706.2  176574.13  56980.16  32.27
1709.8  175639.55  56279.18  32.04
1713.4  174876.36  55648.01  31.82
1717.0  173976.25  54983.09  31.60
1720.6  173148.23  54357.23  31.39
1724.2  172428.53  53779.75  31.19
1727.8  171720.50  53231.85  31.00
1731.4  171260.38  52801.38  30.83
1735.0  171080.98  52467.07  30.67
1738.6  170877.00  52092.25  30.49
1742.2  170343.53  51570.38  30.27
1745.8  169730.88  50979.56  30.04
1749.4  168804.08  50295.85  29.80
1753.0  167325.07  49442.60  29.55
1756.6  165682.42  48564.93  29.31
1760.1  164357.32  47801.86  29.08
1763.7  162625.33  46966.00  28.88
1767.3  161173.68  46268.58  28.71
1770.9  159936.82  45657.38  28.55
1774.5  158480.38  45020.25  28.41
1778.0  157355.28  44516.65  28.29
1781.6  156272.25  44061.25  28.20
1785.2  155118.10  43632.60  28.13
1788.8  153959.60  43256.47  28.10
1792.3  152744.63  42902.15  28.09
1795.9  152221.12  42777.66  28.10
1799.5  151998.00  42754.34  28.13
1803.1  152963.30  43074.27  28.16
1806.6  155043.82  43705.71  28.19
1810.2  156808.63  44237.20  28.21
1813.8  157613.60  44507.24  28.24
1817.3  157115.00  44403.14  28.26
1820.9  155904.70  44072.00  28.27
1824.5  154533.43  43683.58  28.27
1828.0  153439.00  43339.70  28.25
1831.6  152982.23  43144.63  28.20
1835.2  152745.00  42920.28  28.10
1838.7  152541.87  42611.74  27.93
1842.3  152310.00  42185.00  27.70
1845.8  151096.96  41338.48  27.36
1849.4  150463.43  40477.44  26.90
1852.9  149610.07  39331.14  26.29
1856.5  148595.67  37879.54  25.49
1860.0  147568.44  36152.47  24.50
1863.6  147528.38  34381.69  23.31
1867.1  148158.85  32424.94  21.89
1870.7  148994.78  30108.13  20.21
1874.2  148005.90  27078.45  18.30
1877.8  145388.07  23705.05  16.30
1881.3  142462.63  20338.50  14.28
1884.9  140633.26  17362.37  12.35
1888.4  139094.61  14693.71  10.56
1891.9  137493.47  12468.67  9.07
1895.5  136122.68  10729.22  7.88
1899.0  135444.38  9510.55  7.02
1901.3  175389.50  8232.42  4.69
1904.1  175311.00  7417.50  4.23
1906.8  174219.60  6768.00  3.88
1909.6  171962.00  6237.35  3.63
1912.4  169888.13  5827.09  3.43
1915.1  168375.90  5535.20  3.29
1917.9  166844.50  5320.42  3.19
1920.6  165506.47  5157.75  3.12
1923.3  164125.97  5027.98  3.06
1926.1  162407.03  4911.29  3.02
1928.8  160776.00  4847.34  3.01
1931.6  159499.60  4822.02  3.02
1934.3  158370.70  4803.83  3.03
1937.0  157271.73  4819.94  3.06
1939.8  156039.08  4847.63  3.11
1942.5  154473.00  4862.00  3.15
1945.2  152486.40  4901.05  3.21
1947.9  150831.10  4951.45  3.28
1950.7  149547.20  5020.07  3.36
1953.4  147671.65  5075.83  3.44
1956.1  146212.58  5169.75  3.54
1958.8  144911.43  5263.92  3.63
1961.5  143382.00  5363.60  3.74
1964.2  141814.40  5473.65  3.86
1966.9  140211.65  5579.33  3.98
1969.6  138933.00  5710.50  4.11
1972.3  137513.90  5842.85  4.25
1975.0  136449.30  6000.30  4.40
1977.7  135335.83  6158.44  4.55
1980.4  134173.83  6320.77  4.71
1983.1  133059.92  6489.56  4.88
1985.8  132135.60  6672.90  5.05
1988.4  131092.00  6855.34  5.23
1991.1  130147.50  7036.17  5.41
1993.8  129275.85  7238.00  5.60
1996.5  128629.60  7440.49  5.78
1999.1  127940.27  7634.37  5.97
2001.8  127229.43  7839.07  6.16
2004.5  126549.50  8044.50  6.36
2007.1  125814.25  8239.13  6.55
2009.8  125071.10  8439.08  6.75
2012.4  124476.37  8633.90  6.94
2015.1  123914.23  8827.59  7.12
2017.8  123137.23  8991.62  7.30
2020.4  122632.40  9172.45  7.48
2023.1  122265.27  9349.90  7.65
2025.7  122026.67  9533.34  7.81
2028.3  121671.33  9689.34  7.96
2031.0  121262.75  9842.56  8.12
2033.6  120982.20  9991.95  8.26
2036.2  120721.20  10131.15  8.39
2038.9  120129.60  10231.20  8.52
2041.5  119784.43  10333.61  8.63
2044.1  119224.80  10418.25  8.74
2046.8  118833.30  10505.25  8.84
2049.4  118198.20  10574.85  8.95
2052.0  117908.73  10676.50  9.05
2054.6  117512.50  10758.13  9.15
2057.2  116930.60  10824.97  9.26
2059.8  116590.00  10921.04  9.37
2062.4  115713.75  10965.57  9.48
2065.0  115183.93  11047.67  9.59
2067.6  114275.50  11087.60  9.70
2070.2  113682.77  11152.98  9.81
2072.8  113046.45  11209.64  9.92
2075.4  112595.00  11296.25  10.03
2078.0  111961.15  11352.46  10.14
2080.6  111399.20  11413.60  10.25
2083.2  110714.23  11458.04  10.35
2085.8  110213.27  11523.74  10.46
2088.4  109542.17  11562.84  10.56
2090.9  108735.95  11589.51  10.66
2093.5  107847.53  11593.92  10.75
2096.1  107060.05  11615.96  10.85
2098.7  106295.90  11629.14  10.94
2101.2  105332.73  11624.07  11.04
2103.8  104651.53  11645.90  11.13
2106.4  103979.07  11667.73  11.22
2108.9  103315.33  11693.94  11.32
2111.5  102450.73  11689.57  11.41
2114.0  101804.47  11707.04  11.50
2116.6  101298.75  11733.75  11.58
2119.1  100729.00  11756.10  11.67
2121.7  100240.00  11777.50  11.75
2124.2  99834.80  11804.32  11.82
2126.8  99032.08  11782.84  11.90
2129.3  98630.40  11809.60  11.97
2131.9  98040.80  11796.40  12.03
2134.4  97588.95  11814.75  12.11
2136.9  97201.43  11841.49  12.18
2139.4  96682.13  11837.00  12.24
2142.0  96229.93  11850.30  12.31
2144.5  95950.90  11885.95  12.39
2147.0  95693.87  11930.47  12.47
2149.5  95202.53  11934.93  12.54
2152.1  95043.67  12001.73  12.63
2154.6  94982.40  12072.27  12.71
2157.1  94439.42  12062.67  12.77
2159.6  94030.67  12080.83  12.85
2162.1  93884.70  12130.30  12.92
2164.6  93634.93  12165.60  12.99
2167.1  93302.67  12195.47  13.07
2169.6  92968.52  12216.69  13.14
2172.1  92508.77  12224.93  13.21
2174.6  92184.80  12245.90  13.28
2177.1  91737.90  12254.00  13.36
2179.5  91321.97  12279.37  13.45
2182.0  90844.60  12290.58  13.53
2184.5  90295.82  12292.17  13.61
2187.0  89673.27  12286.92  13.70
2189.5  88982.12  12271.44  13.79
2191.9  88207.50  12240.75  13.88
2194.4  87563.95  12228.78  13.97
2196.9  86793.60  12201.60  14.06
2199.3  86120.33  12175.17  14.14
2201.8  85234.80  12118.00  14.22
2204.3  84766.92  12113.77  14.29
2206.7  84109.15  12090.88  14.38
2209.2  83622.88  12062.61  14.43
2211.6  83001.60  12023.55  14.49
2214.1  82714.35  12019.60  14.53
2216.5  82138.73  11974.64  14.58
2219.0  81801.00  11934.90  14.59
2221.4  81415.83  11895.04  14.61
2223.9  80929.92  11815.71  14.60
2226.3  80414.25  11716.54  14.57
2228.7  79867.22  11598.09  14.52
2231.1  79259.40  11459.25  14.46
2233.6  78662.07  11314.07  14.38
2236.0  78093.75  11151.30  14.28
2238.4  77597.92  10967.84  14.13
2240.9  77132.33  10797.54  14.00
2243.3  76595.93  10603.83  13.84
2245.7  76008.05  10392.78  13.67
2248.1  75507.47  10190.92  13.50
2250.5  74984.82  9983.34  13.31
2252.9  74341.37  9752.38  13.12
2255.3  73789.20  9547.03  12.94
2257.7  73320.00  9355.00  12.76
2260.1  72821.93  9160.44  12.58
2262.5  72210.00  8965.00  12.42
2264.9  71680.33  8785.34  12.26
2267.3  71050.00  8600.00  12.10
2269.7  70544.37  8438.04  11.96
2272.1  69986.45  8273.77  11.82
2274.5  69414.12  8126.43  11.71
2276.8  68934.70  7993.30  11.60
2279.2  68340.00  7854.08  11.49
2281.6  67919.80  7736.24  11.39
2284.0  67447.80  7610.35  11.28
2286.3  66981.33  7488.54  11.18
2288.7  66558.27  7372.74  11.08
2291.1  66005.00  7234.97  10.96
2293.4  65552.67  7114.80  10.85
2295.8  64920.90  6973.10  10.74
2298.2  64325.25  6831.00  10.62
2300.5  63652.50  6680.93  10.50
2302.9  62919.67  6535.83  10.39
2305.2  62181.10  6391.15  10.28
2307.6  61477.02  6251.90  10.17
2309.9  60698.00  6127.67  10.10
2312.2  60088.33  6019.17  10.02
2314.6  59491.80  5925.38  9.96
2316.9  58808.70  5821.88  9.90
2319.2  58250.30  5737.95  9.85
2321.6  57617.12  5632.96  9.78
2323.9  57062.50  5536.46  9.70
2326.2  56506.93  5435.77  9.62
2328.6  55991.10  5339.95  9.54
2330.9  55492.50  5244.75  9.45
2333.2  55001.58  5143.50  9.35
2335.5  54559.30  5050.40  9.26
2337.8  54099.98  4965.73  9.18
2340.1  53517.68  4857.90  9.08
2342.4  53083.33  4761.25  8.97
2344.8  52640.17  4677.79  8.89
2347.1  52069.73  4589.55  8.81
2349.4  51513.93  4494.80  8.73
2351.6  50930.05  4406.67  8.65
2353.9  50433.37  4336.10  8.60
2356.2  49924.95  4257.68  8.53
2358.5  49336.00  4183.20  8.48
2360.8  48753.60  4093.60  8.40
2363.1  48310.18  4021.18  8.32
2365.4  47832.90  3955.00  8.27
2367.7  47355.60  3876.00  8.18
2369.9  46807.60  3784.23  8.08
2372.2  46187.73  3692.27  7.99
2374.5  45599.40  3615.15  7.93
2376.7  44979.73  3537.28  7.86
2379.0  44369.53  3443.47  7.76
2381.3  43726.67  3360.00  7.68
2383.5  43202.13  3279.47  7.59
2385.8  42595.33  3194.65  7.50
2388.0  42078.80  3115.20  7.40
2390.3  41568.93  3037.87  7.31
2392.5  41076.00  2964.00  7.22
2394.8  40595.50  2879.80  7.09
2397.0  40112.80  2833.14  7.06
2399.3  39656.75  2759.53  6.96
2401.5  39212.25  2682.75  6.84
2403.8  38674.33  2604.98  6.74
2406.0  38168.83  2539.21  6.65
2408.2  37749.07  2480.87  6.57
2410.4  37337.65  2403.05  6.44
2412.7  36933.43  2337.40  6.33
2414.9  36571.15  2283.33  6.24
2417.1  36169.60  2222.50  6.14
2419.3  35750.40  2163.20  6.05
2421.6  35340.00  2111.88  5.98
2423.8  34958.13  2055.22  5.88
2426.0  34600.58  1992.95  5.76
2428.2  34234.67  1933.87  5.65
2430.4  33917.03  1885.75  5.56
2432.6  33666.67  1840.00  5.47
2434.8  33376.57  1797.82  5.39
2437.0  33005.70  1746.34  5.29
2439.2  32642.75  1703.10  5.22
2441.4  32311.00  1649.64  5.11
2443.6  32082.30  1602.74  5.00
2445.7  31820.60  1561.88  4.91
2447.9  31549.08  1523.88  4.83
2450.1  31247.20  1482.28  4.74
2452.3  30859.03  1454.02  4.71
2454.5  30508.35  1397.06  4.58
2456.6  30131.20  1355.34  4.50
2458.8  29772.60  1315.60  4.42
2461.0  29453.25  1290.29  4.38
2463.1  29158.20  1251.30  4.29
2465.3  28871.57  1214.57  4.21
2467.5  28644.50  1202.13  4.20
2469.6  28401.33  1178.42  4.15
2471.8  28096.18  1156.28  4.12
2473.9  27783.50  1116.17  4.02
2476.1  27436.50  1092.00  3.98
2478.2  27069.63  1051.10  3.88
2480.4  26755.05  1028.45  3.84
2482.5  26399.08  1006.42  3.81
2484.6  26086.50  989.54  3.79
2486.8  25842.20  973.40  3.77
2488.9  25553.22  947.00  3.71
2491.1  25164.53  928.20  3.69
2493.2  24780.27  910.10  3.67
2495.3  24386.70  881.83  3.62
2497.4  24053.40  877.45  3.65
2499.5  23724.77  873.90  3.68
2501.7  23614.70  862.75  3.65
2503.8  23520.35  844.19  3.59
2505.9  23455.42  837.09  3.57
2508.0  23454.82  832.05  3.55
2510.1  23480.82  822.64  3.50
2512.2  23579.75  825.75  3.50
2514.3  23729.17  835.27  3.52
2516.4  24014.30  837.25  3.49
